# spacing_uv=20.0
timestamp_ns,timestamp_iso,AF3,F7,F3,FC5,T7,P7,O1,O2,P8,T8,FC6,F4,F8,AF4,AF3_q,F7_q,F3_q,FC5_q,T7_q,P7_q,O1_q,O2_q,P8_q,T8_q,FC6_q,F4_q,F8_q,AF4_q
1799999990000000000,2027-01-15T07:59:50.000000000Z,,,,,,,,,,,,,,,,,,,,,,,,,,,,
1799999990011600929,2027-01-15T07:59:50.011600929Z,-2.13,-1.70,0.00,1.06,1.70,2.13,2.55,3.62,2.98,4.89,5.53,6.38,,6.60,,,,,,,,,,,,,,
1799999990023201857,2027-01-15T07:59:50.023201857Z,-2.55,-1.49,0.00,1.28,0.64,2.34,2.77,3.62,2.98,4.89,5.53,5.74,3.83,6.60,,,,,,,,,,,,,,
1799999990034802785,2027-01-15T07:59:50.034802785Z,2.13,0.85,-0.21,1.70,-1.91,1.91,1.91,3.40,3.62,6.17,5.74,6.17,5.53,8.09,,,,,,,,,,,,,,
1799999990046403713,2027-01-15T07:59:50.046403713Z,1.91,-0.43,0.21,0.85,-0.64,0.64,1.91,2.98,3.83,3.40,5.53,6.81,6.17,8.09,,,,,,,,,,,,,,
1799999990058004641,2027-01-15T07:59:50.058004641Z,-1.28,-0.64,-0.64,-1.06,3.19,0.64,4.26,3.62,3.62,5.96,6.17,5.53,7.23,7.66,,,,,,,,,,,,,,
1799999990069605569,2027-01-15T07:59:50.069605569Z,-1.28,1.06,-1.28,0.00,3.62,1.28,3.62,3.83,4.04,6.81,6.17,5.74,7.23,6.60,,,,,,,,,,,,,,
1799999990081206497,2027-01-15T07:59:50.081206497Z,-2.77,-1.06,-1.28,0.43,0.21,1.28,1.70,2.77,3.40,7.02,6.38,5.96,7.66,5.53,,,,,,,,,,,,,,
1799999990092807425,2027-01-15T07:59:50.092807425Z,0.00,-2.13,-0.21,0.43,0.43,1.49,2.13,2.98,2.77,3.62,5.53,6.60,7.23,6.81,,,,,,,,,,,,,,
1799999990104408353,2027-01-15T07:59:50.104408353Z,-2.13,-0.21,-1.06,0.85,1.91,2.98,2.77,2.98,3.19,4.47,4.89,7.87,6.81,7.66,,,,,,,,,,,,,,
1799999990116009281,2027-01-15T07:59:50.116009281Z,-1.91,0.00,-1.70,0.85,2.55,3.62,3.19,3.40,3.83,5.53,5.32,7.87,5.53,7.87,,,,,,,,,,,,,,
1799999990127610209,2027-01-15T07:59:50.127610209Z,-0.85,-0.85,-1.70,0.85,-0.64,3.40,2.98,4.47,2.55,4.47,5.32,7.45,5.74,6.60,,,,,,,,,,,,,,
1799999990139211137,2027-01-15T07:59:50.139211137Z,-1.06,-1.49,-1.28,0.21,-2.13,2.13,2.55,4.47,2.77,2.34,5.11,6.60,6.17,5.11,,,,,,,,,,,,,,
1799999990150812065,2027-01-15T07:59:50.150812065Z,0.00,-1.06,-1.06,-0.21,1.91,1.70,3.40,3.83,4.26,1.91,5.53,5.53,6.17,4.47,,,,,,,,,,,,,,
1799999990162412994,2027-01-15T07:59:50.162412994Z,1.70,-0.43,-1.91,0.43,2.55,1.28,3.83,3.83,4.47,4.26,5.74,6.81,5.96,4.89,,,,,,,,,,,,,,
1799999990174013922,2027-01-15T07:59:50.174013922Z,-0.43,0.43,-2.34,-1.28,1.70,2.55,2.98,2.13,3.83,5.96,5.74,7.45,5.11,6.17,,,,,,,,,,,,,,
1799999990185614850,2027-01-15T07:59:50.185614850Z,-0.85,1.06,-1.70,-0.85,1.28,3.19,2.77,2.55,3.40,5.96,5.74,5.96,4.89,5.96,,,,,,,,,,,,,,
1799999990197215778,2027-01-15T07:59:50.197215778Z,-0.21,-0.21,0.21,-0.43,-0.43,2.55,1.06,3.62,4.89,5.53,4.89,5.74,5.32,6.38,,,,,,,,,,,,,,
1799999990208816706,2027-01-15T07:59:50.208816706Z,-1.06,-0.21,-0.21,-1.06,-0.21,1.70,-0.21,2.98,4.89,5.32,4.68,5.53,6.60,6.81,,,,,,,,,,,,,,
1799999990220417634,2027-01-15T07:59:50.220417634Z,-0.85,0.00,-1.06,-1.06,1.06,0.43,2.13,1.70,5.74,4.26,5.11,5.96,6.60,6.17,,,,,,,,,,,,,,
1799999990232018562,2027-01-15T07:59:50.232018562Z,-0.43,-0.21,-0.64,1.06,2.34,1.06,4.26,1.70,6.81,4.47,5.11,6.60,4.68,7.23,,,,,,,,,,,,,,
1799999990243619490,2027-01-15T07:59:50.243619490Z,-0.21,0.00,-1.06,2.13,2.98,1.91,4.04,1.91,6.17,3.62,5.32,6.38,5.53,7.02,,,,,,,,,,,,,,
1799999990255220418,2027-01-15T07:59:50.255220418Z,0.00,-0.21,-0.64,2.55,2.98,2.13,2.55,1.28,3.62,4.47,6.17,4.68,7.87,7.66,,,,,,,,,,,,,,
1799999990266821346,2027-01-15T07:59:50.266821346Z,-2.55,-0.21,0.00,1.70,2.77,1.06,2.34,2.34,2.98,4.68,6.81,4.47,8.30,7.45,,,,,,,,,,,,,,
1799999990278422274,2027-01-15T07:59:50.278422274Z,-1.28,0.64,-0.21,0.21,2.13,1.49,1.49,3.19,3.83,3.83,5.96,4.68,7.66,6.38,,,,,,,,,,,,,,
1799999990290023202,2027-01-15T07:59:50.290023202Z,-2.55,-0.21,-0.43,-0.21,1.49,1.06,2.13,2.55,4.26,4.26,5.32,5.74,6.81,6.17,,,,,,,,,,,,,,
1799999990301624130,2027-01-15T07:59:50.301624130Z,-1.06,-2.34,-1.28,-0.21,0.85,1.70,3.19,3.83,3.19,4.68,5.11,6.81,6.81,6.17,,,,,,,,,,,,,,
1799999990313225059,2027-01-15T07:59:50.313225059Z,-0.85,-2.34,-1.91,0.64,1.06,2.34,2.34,4.89,2.98,2.77,5.96,6.17,8.09,6.81,,,,,,,,,,,,,,
1799999990324825987,2027-01-15T07:59:50.324825987Z,-0.85,-1.28,-1.06,-0.64,2.13,1.70,1.91,4.04,4.26,5.74,4.89,6.38,8.51,7.87,,,,,,,,,,,,,,
1799999990336426915,2027-01-15T07:59:50.336426915Z,-2.77,-1.06,0.00,-1.06,1.70,2.13,2.77,3.83,4.47,7.87,3.83,5.96,8.09,7.23,,,,,,,,,,,,,,
1799999990348027843,2027-01-15T07:59:50.348027843Z,-0.21,0.43,-0.64,0.00,1.91,2.55,2.77,4.47,4.47,4.47,3.83,7.02,6.38,7.45,,,,,,,,,,,,,,
1799999990359628771,2027-01-15T07:59:50.359628771Z,0.00,0.64,-0.64,1.28,2.34,2.77,2.55,4.26,4.68,5.11,3.83,7.66,6.38,7.87,,,,,,,,,,,,,,
1799999990371229699,2027-01-15T07:59:50.371229699Z,-0.21,-1.06,-0.85,1.70,1.06,2.98,2.98,3.83,2.77,6.17,3.62,6.17,7.02,8.09,,,,,,,,,,,,,,
1799999990382830627,2027-01-15T07:59:50.382830627Z,0.00,-1.49,-0.64,1.49,1.28,3.40,2.55,2.98,2.13,5.11,3.40,6.17,6.60,8.09,,,,,,,,,,,,,,
1799999990394431555,2027-01-15T07:59:50.394431555Z,0.00,-1.28,1.49,1.91,1.28,1.91,4.26,2.98,2.77,4.47,4.68,6.38,5.11,6.60,,,,,,,,,,,,,,
1799999990406032483,2027-01-15T07:59:50.406032483Z,1.06,-0.85,0.85,1.28,1.28,2.13,5.53,3.62,4.04,4.68,5.32,5.74,5.74,6.17,,,,,,,,,,,,,,
1799999990417633411,2027-01-15T07:59:50.417633411Z,0.64,-1.49,0.21,0.85,-0.85,1.91,2.98,3.40,3.83,2.34,5.53,5.96,7.02,7.02,,,,,,,,,,,,,,
1799999990429234339,2027-01-15T07:59:50.429234339Z,1.28,-1.70,0.64,2.55,-1.91,1.06,4.04,2.13,3.62,4.26,5.53,5.96,7.45,6.81,,,,,,,,,,,,,,
1799999990440835267,2027-01-15T07:59:50.440835267Z,-2.13,-1.49,-0.43,2.55,0.64,1.70,5.11,0.21,3.62,4.04,5.32,7.87,7.66,8.09,,,,,,,,,,,,,,
1799999990452436195,2027-01-15T07:59:50.452436195Z,-2.34,-2.13,-1.28,1.70,1.06,1.70,4.47,-0.21,3.62,2.77,5.96,7.66,8.30,8.94,,,,,,,,,,,,,,
1799999990464037123,2027-01-15T07:59:50.464037123Z,-2.34,-2.13,-0.64,1.49,2.13,2.77,4.26,1.91,4.26,3.40,5.32,4.89,5.96,8.94,,,,,,,,,,,,,,
1799999990475638052,2027-01-15T07:59:50.475638052Z,-1.06,-0.85,0.43,1.06,1.70,1.28,4.47,3.62,3.83,6.17,4.68,4.89,4.04,7.87,,,,,,,,,,,,,,
1799999990487238980,2027-01-15T07:59:50.487238980Z,-0.43,1.28,-0.64,0.43,0.64,0.64,4.47,5.32,3.19,6.38,4.47,4.89,7.23,7.87,,,,,,,,,,,,,,
1799999990498839908,2027-01-15T07:59:50.498839908Z,-0.43,1.91,-1.28,0.85,0.64,1.70,4.47,5.32,3.62,4.68,5.53,4.47,9.36,8.09,,,,,,,,,,,,,,
1799999990510440836,2027-01-15T07:59:50.510440836Z,-0.64,1.28,0.85,1.70,-0.21,2.55,2.98,2.98,3.62,4.04,6.60,5.53,8.09,8.94,,,,,,,,,,,,,,
1799999990522041764,2027-01-15T07:59:50.522041764Z,-1.06,0.85,2.34,0.43,-0.21,2.55,1.91,4.04,4.47,3.40,7.02,6.38,7.02,8.09,,,,,,,,,,,,,,
1799999990533642692,2027-01-15T07:59:50.533642692Z,-1.49,-0.64,1.49,-1.28,1.70,0.43,0.85,4.04,4.68,3.19,7.87,5.11,7.66,8.30,,,,,,,,,,,,,,
1799999990545243620,2027-01-15T07:59:50.545243620Z,-2.13,-1.49,0.85,-0.43,1.49,0.43,1.49,3.40,3.83,3.83,7.23,5.32,7.23,9.57,,,,,,,,,,,,,,
1799999990556844548,2027-01-15T07:59:50.556844548Z,-1.28,-2.77,-0.64,2.34,1.28,1.06,2.98,2.55,3.62,5.32,5.96,7.23,5.96,8.72,,,,,,,,,,,,,,
1799999990568445476,2027-01-15T07:59:50.568445476Z,-0.43,-1.91,-0.43,2.55,1.06,0.64,2.77,2.55,2.55,5.96,4.89,6.60,6.60,7.87,,,,,,,,,,,,,,
1799999990580046404,2027-01-15T07:59:50.580046404Z,-1.06,1.70,0.85,1.06,0.00,0.85,0.21,3.83,2.98,2.77,3.62,5.53,7.66,7.02,,,,,,,,,,,,,,
1799999990591647332,2027-01-15T07:59:50.591647332Z,-0.43,2.55,1.70,0.21,0.21,1.28,-0.43,4.68,3.40,1.28,4.26,6.17,7.45,7.45,,,,,,,,,,,,,,
1799999990603248260,2027-01-15T07:59:50.603248260Z,0.00,0.43,0.64,-0.43,0.85,3.83,0.21,3.83,4.04,5.53,4.68,5.74,6.60,6.17,,,,,,,,,,,,,,
1799999990614849188,2027-01-15T07:59:50.614849188Z,0.00,-0.43,0.21,-0.21,1.06,4.26,0.64,3.83,3.19,4.89,4.26,5.74,5.96,5.53,,,,,,,,,,,,,,
1799999990626450117,2027-01-15T07:59:50.626450117Z,-2.98,-2.34,-0.64,0.00,1.06,3.83,0.21,2.98,3.40,2.98,5.74,6.60,6.17,8.09,,,,,,,,,,,,,,
1799999990638051045,2027-01-15T07:59:50.638051045Z,-1.49,-0.85,1.06,-0.43,2.13,3.40,2.34,2.98,3.83,5.11,5.32,5.53,4.89,7.66,,,,,,,,,,,,,,
1799999990649651973,2027-01-15T07:59:50.649651973Z,-2.13,0.00,0.85,-0.21,2.98,2.77,2.77,3.19,4.47,7.66,4.47,5.11,4.68,6.81,,,,,,,,,,,,,,
1799999990661252901,2027-01-15T07:59:50.661252901Z,-1.49,-0.21,-1.28,-0.85,2.77,0.64,3.19,3.62,4.26,8.94,4.26,5.96,5.96,6.81,,,,,,,,,,,,,,
1799999990672853829,2027-01-15T07:59:50.672853829Z,-0.43,-1.91,-1.28,-0.64,2.55,1.91,1.70,4.26,3.62,7.23,4.47,6.17,7.66,7.23,,,,,,,,,,,,,,
1799999990684454757,2027-01-15T07:59:50.684454757Z,-1.49,-2.55,0.00,0.00,1.70,2.13,1.49,4.26,3.40,3.40,5.32,5.32,8.72,6.81,,,,,,,,,,,,,,
1799999990696055685,2027-01-15T07:59:50.696055685Z,-1.91,-2.98,0.21,0.00,1.70,2.34,2.77,3.40,3.40,3.83,5.96,5.74,7.66,7.45,,,,,,,,,,,,,,
1799999990707656613,2027-01-15T07:59:50.707656613Z,-1.91,-2.77,-1.28,-1.06,0.85,4.04,1.91,2.98,5.11,3.83,5.74,7.45,5.96,8.94,,,,,,,,,,,,,,
1799999990719257541,2027-01-15T07:59:50.719257541Z,-1.28,-1.91,-2.13,-0.85,1.06,3.40,2.34,2.34,5.74,5.11,5.11,7.87,6.38,8.09,,,,,,,,,,,,,,
1799999990730858469,2027-01-15T07:59:50.730858469Z,-0.85,-0.21,-0.43,-0.21,1.28,2.77,3.19,2.98,4.04,5.96,5.32,6.81,7.02,5.96,,,,,,,,,,,,,,
1799999990742459397,2027-01-15T07:59:50.742459397Z,-1.06,-0.21,0.00,-0.21,0.64,2.13,2.55,3.19,4.26,4.26,5.96,7.23,7.02,5.74,,,,,,,,,,,,,,
1799999990754060325,2027-01-15T07:59:50.754060325Z,-2.13,0.00,-0.85,1.70,2.34,1.70,2.55,2.55,3.19,3.40,4.89,7.87,5.96,7.23,,,,,,,,,,,,,,
1799999990765661253,2027-01-15T07:59:50.765661253Z,-2.13,-0.21,-1.28,0.64,2.98,2.55,2.55,1.70,2.13,4.26,4.89,6.81,5.32,7.02,,,,,,,,,,,,,,
1799999990777262181,2027-01-15T07:59:50.777262181Z,-0.43,0.43,-0.64,-0.43,1.70,4.68,3.83,1.70,2.13,3.83,4.47,5.53,6.17,5.96,,,,,,,,,,,,,,
1799999990788863110,2027-01-15T07:59:50.788863110Z,-1.06,0.21,-0.64,0.64,0.21,4.47,4.26,1.91,3.19,2.98,5.96,6.60,6.81,6.38,,,,,,,,,,,,,,
1799999990800464038,2027-01-15T07:59:50.800464038Z,-0.85,0.85,-2.13,2.13,0.43,2.34,2.13,1.91,4.04,4.89,6.38,7.23,5.74,7.02,,,,,,,,,,,,,,
1799999990812064966,2027-01-15T07:59:50.812064966Z,-1.28,1.28,-1.91,2.34,0.85,2.98,1.91,2.13,4.68,5.11,5.74,7.45,6.17,6.81,,,,,,,,,,,,,,
1799999990823665894,2027-01-15T07:59:50.823665894Z,0.00,-0.85,0.85,0.00,0.43,2.98,1.49,2.34,5.53,2.98,5.96,6.60,6.38,7.02,,,,,,,,,,,,,,
1799999990835266822,2027-01-15T07:59:50.835266822Z,-1.49,-1.49,1.70,-1.28,0.00,1.70,1.70,2.98,5.32,2.98,5.74,6.38,5.96,6.38,,,,,,,,,,,,,,
1799999990846867750,2027-01-15T07:59:50.846867750Z,-1.91,0.64,0.43,-0.43,0.64,0.43,2.77,3.83,5.11,3.19,5.53,5.96,5.74,6.17,,,,,,,,,,,,,,
1799999990858468678,2027-01-15T07:59:50.858468678Z,-1.91,1.49,-0.43,0.43,0.00,-0.21,2.77,2.98,4.68,2.98,6.17,7.02,5.53,6.81,,,,,,,,,,,,,,
1799999990870069606,2027-01-15T07:59:50.870069606Z,1.49,0.64,-0.43,0.43,-0.64,-0.21,4.04,1.49,2.98,4.04,5.53,7.02,5.32,7.02,,,,,,,,,,,,,,
1799999990881670534,2027-01-15T07:59:50.881670534Z,0.64,0.00,-0.85,0.85,0.00,-0.21,4.47,1.91,3.83,5.74,5.74,5.53,4.68,8.09,,,,,,,,,,,,,,
1799999990893271462,2027-01-15T07:59:50.893271462Z,0.64,-1.49,-0.85,1.49,1.06,1.70,3.62,2.34,5.11,8.30,6.81,6.17,4.68,7.45,,,,,,,,,,,,,,
1799999990904872390,2027-01-15T07:59:50.904872390Z,-0.85,-2.98,-0.21,0.64,1.49,1.91,4.26,2.77,4.89,7.45,6.38,6.60,5.53,6.81,,,,,,,,,,,,,,
1799999990916473318,2027-01-15T07:59:50.916473318Z,-1.28,-1.06,1.06,-1.06,1.06,2.34,4.68,2.98,3.19,4.04,5.32,4.89,6.81,8.51,,,,,,,,,,,,,,
1799999990928074246,2027-01-15T07:59:50.928074246Z,0.85,0.00,-0.43,-2.13,0.64,2.13,4.47,2.13,2.98,3.19,6.17,5.11,7.66,8.09,,,,,,,,,,,,,,
1799999990939675175,2027-01-15T07:59:50.939675175Z,0.21,0.21,0.00,-1.91,1.91,2.34,4.26,2.13,5.53,4.04,5.96,5.53,6.17,6.17,,,,,,,,,,,,,,
1799999990951276103,2027-01-15T07:59:50.951276103Z,0.43,-1.06,-0.21,0.21,1.49,3.40,3.83,1.70,5.11,4.04,4.89,4.68,5.53,6.38,,,,,,,,,,,,,,
1799999990962877031,2027-01-15T07:59:50.962877031Z,0.00,-0.21,-0.21,2.13,1.49,2.98,4.68,1.49,2.13,2.98,5.53,4.68,6.17,7.02,,,,,,,,,,,,,,
1799999990974477959,2027-01-15T07:59:50.974477959Z,-1.49,0.43,-0.85,1.91,2.34,3.19,4.89,1.91,3.62,5.53,5.53,4.68,7.02,6.60,,,,,,,,,,,,,,
1799999990986078887,2027-01-15T07:59:50.986078887Z,-0.85,-0.85,0.21,0.43,2.34,1.70,3.40,1.70,5.11,5.96,4.89,6.38,7.02,7.87,,,,,,,,,,,,,,
1799999990997679815,2027-01-15T07:59:50.997679815Z,-1.06,0.00,0.64,0.00,2.13,0.85,3.62,1.91,3.62,4.89,6.60,7.02,6.38,8.51,,,,,,,,,,,,,,
1799999991009280743,2027-01-15T07:59:51.009280743Z,-1.28,1.28,0.43,-0.85,0.85,-0.43,4.04,4.04,2.34,2.98,6.38,6.60,5.32,8.30,,,,,,,,,,,,,,
1799999991020881671,2027-01-15T07:59:51.020881671Z,-1.70,0.43,0.21,0.21,0.64,0.43,3.19,4.26,3.40,3.83,5.74,7.02,5.32,7.87,,,,,,,,,,,,,,
1799999991032482599,2027-01-15T07:59:51.032482599Z,-1.06,-0.43,0.43,2.13,0.85,1.70,2.34,4.26,5.32,3.40,6.38,7.87,7.23,8.30,,,,,,,,,,,,,,
1799999991044083527,2027-01-15T07:59:51.044083527Z,0.00,0.21,0.64,2.13,1.49,1.28,1.91,4.89,4.68,2.98,6.60,6.81,7.87,7.87,,,,,,,,,,,,,,
1799999991055684455,2027-01-15T07:59:51.055684455Z,-0.85,0.43,0.85,3.19,1.06,0.64,3.19,4.04,3.40,3.19,4.89,5.96,7.02,7.02,,,,,,,,,,,,,,
1799999991067285383,2027-01-15T07:59:51.067285383Z,-0.85,-0.64,-0.85,3.40,-0.21,2.13,2.98,4.26,4.68,1.91,6.17,5.96,7.02,7.02,,,,,,,,,,,,,,
1799999991078886311,2027-01-15T07:59:51.078886311Z,-0.85,-0.64,-1.28,3.62,-1.28,3.40,2.55,5.11,5.11,1.91,6.81,6.17,7.45,7.23,,,,,,,,,,,,,,
1799999991090487239,2027-01-15T07:59:51.090487239Z,-1.28,-0.64,-0.85,0.64,-0.64,4.26,2.77,5.32,2.77,7.02,7.02,5.96,5.11,8.94,,,,,,,,,,,,,,
1799999991102088168,2027-01-15T07:59:51.102088168Z,0.43,-1.70,0.64,-1.06,0.21,3.40,3.83,4.47,1.70,5.96,6.60,6.60,5.53,8.51,,,,,,,,,,,,,,
1799999991113689096,2027-01-15T07:59:51.113689096Z,0.21,-2.13,1.06,0.00,2.34,2.98,2.34,3.19,2.98,-0.21,6.17,9.36,7.45,8.09,,,,,,,,,,,,,,
1799999991125290024,2027-01-15T07:59:51.125290024Z,0.43,-0.85,0.00,0.00,2.55,3.40,1.91,2.55,4.68,4.47,4.26,7.87,7.02,6.60,,,,,,,,,,,,,,
1799999991136890952,2027-01-15T07:59:51.136890952Z,1.91,-1.28,-2.13,2.34,2.34,1.06,2.13,1.91,5.32,11.28,4.68,5.74,5.11,6.81,,,,,,,,,,,,,,
1799999991148491880,2027-01-15T07:59:51.148491880Z,2.13,-1.49,-1.91,1.70,1.91,-0.43,2.34,4.04,4.47,4.26,6.38,6.60,7.45,8.30,,,,,,,,,,,,,,
1799999991160092808,2027-01-15T07:59:51.160092808Z,0.85,-2.34,0.85,0.00,0.00,0.64,3.62,7.23,3.83,1.70,8.51,8.72,6.60,8.72,,,,,,,,,,,,,,
1799999991171693736,2027-01-15T07:59:51.171693736Z,0.43,-1.91,1.06,0.64,1.28,1.91,4.26,5.11,4.04,5.11,7.02,7.02,6.38,8.94,,,,,,,,,,,,,,
1799999991183294664,2027-01-15T07:59:51.183294664Z,0.43,-1.28,-0.85,0.85,2.77,3.83,2.34,2.98,4.26,11.28,3.62,4.89,5.96,7.87,,,,,,,,,,,,,,
1799999991194895592,2027-01-15T07:59:51.194895592Z,0.21,-0.85,-1.06,0.64,1.49,2.98,1.06,4.26,4.68,4.89,3.19,6.38,7.87,7.02,,,,,,,,,,,,,,
1799999991206496520,2027-01-15T07:59:51.206496520Z,-1.06,-0.64,2.55,0.00,-0.43,1.49,1.91,6.60,3.62,-2.77,5.53,8.72,9.36,6.38,,,,,,,,,,,,,,
1799999991218097448,2027-01-15T07:59:51.218097448Z,-1.49,-0.64,2.98,0.21,0.85,1.49,2.77,4.26,2.98,1.49,6.17,7.87,8.72,5.96,,,,,,,,,,,,,,
1799999991229698376,2027-01-15T07:59:51.229698376Z,-0.43,-0.85,-1.28,0.64,1.49,0.43,1.91,2.98,3.62,8.94,5.32,4.68,6.60,7.23,,,,,,,,,,,,,,
1799999991241299304,2027-01-15T07:59:51.241299304Z,-0.85,-0.43,-3.19,1.28,1.91,0.21,1.28,4.47,3.62,8.09,5.11,3.83,7.66,8.51,,,,,,,,,,,,,,
1799999991252900233,2027-01-15T07:59:51.252900233Z,-0.43,-0.85,-1.70,0.85,1.28,1.49,0.85,5.96,4.04,4.68,5.32,5.53,8.51,7.66,,,,,,,,,,,,,,
1799999991264501161,2027-01-15T07:59:51.264501161Z,-0.85,-1.06,-1.28,-0.43,1.06,1.06,1.06,4.47,5.74,4.68,3.62,5.32,7.02,7.02,,,,,,,,,,,,,,
1799999991276102089,2027-01-15T07:59:51.276102089Z,-0.21,0.21,-0.43,0.00,2.77,2.34,1.06,3.19,5.53,3.40,4.26,6.17,5.11,5.32,,,,,,,,,,,,,,
1799999991287703017,2027-01-15T07:59:51.287703017Z,-2.55,1.06,-0.21,0.85,4.04,3.40,1.70,3.19,3.62,2.98,5.96,7.02,5.32,6.38,,,,,,,,,,,,,,
1799999991299303945,2027-01-15T07:59:51.299303945Z,-4.04,-0.43,0.43,1.06,2.55,1.28,2.55,1.91,4.47,4.04,4.68,7.23,4.47,7.87,,,,,,,,,,,,,,
1799999991310904873,2027-01-15T07:59:51.310904873Z,-2.55,-1.70,-1.28,-0.64,0.64,-0.85,1.70,2.34,3.83,3.83,5.53,6.38,5.11,8.51,,,,,,,,,,,,,,
1799999991322505801,2027-01-15T07:59:51.322505801Z,0.00,-1.28,-0.64,0.00,1.49,1.49,1.28,1.49,1.70,4.68,5.32,6.17,6.38,8.30,,,,,,,,,,,,,,
1799999991334106729,2027-01-15T07:59:51.334106729Z,0.21,-2.13,-0.64,0.85,2.77,2.55,2.34,0.43,3.40,7.02,4.47,6.38,7.02,8.72,,,,,,,,,,,,,,
1799999991345707657,2027-01-15T07:59:51.345707657Z,-2.77,-2.13,-4.04,0.21,3.62,5.11,4.26,2.34,5.11,6.81,3.83,6.17,7.45,9.15,,,,,,,,,,,,,,
1799999991357308585,2027-01-15T07:59:51.357308585Z,-3.62,-1.70,-2.55,-0.43,2.13,3.62,2.98,3.40,4.47,4.68,4.89,6.17,7.66,8.94,,,,,,,,,,,,,,
1799999991368909513,2027-01-15T07:59:51.368909513Z,-3.40,-1.06,0.21,-1.28,1.70,1.06,1.06,2.98,2.34,3.40,6.17,7.02,6.17,8.30,,,,,,,,,,,,,,
1799999991380510441,2027-01-15T07:59:51.380510441Z,-3.83,-1.06,-0.43,-0.43,1.49,0.64,0.64,2.55,1.70,4.04,5.32,7.45,5.53,8.72,,,,,,,,,,,,,,
1799999991392111369,2027-01-15T07:59:51.392111369Z,-3.83,0.00,-2.77,0.64,1.06,2.98,2.77,1.70,0.85,4.04,4.89,7.87,7.45,6.60,,,,,,,,,,,,,,
1799999991403712297,2027-01-15T07:59:51.403712297Z,-3.62,-0.43,-0.64,0.21,1.70,3.83,3.40,2.98,1.49,5.11,4.89,7.23,8.09,5.96,,,,,,,,,,,,,,
1799999991415313226,2027-01-15T07:59:51.415313226Z,-3.83,-1.49,2.13,0.00,2.77,2.55,0.85,2.98,2.98,6.38,5.11,5.53,6.17,7.66,,,,,,,,,,,,,,
1799999991426914154,2027-01-15T07:59:51.426914154Z,-3.40,-1.28,2.34,1.06,1.06,0.21,0.64,2.34,3.83,6.17,5.11,4.89,6.60,8.51,,,,,,,,,,,,,,
1799999991438515082,2027-01-15T07:59:51.438515082Z,-0.85,-2.77,0.64,1.28,1.70,0.00,2.34,3.19,2.98,5.74,5.96,4.68,6.81,7.23,,,,,,,,,,,,,,
1799999991450116010,2027-01-15T07:59:51.450116010Z,-0.21,-2.98,0.00,0.85,2.13,0.85,2.98,3.40,3.40,4.68,6.17,4.68,7.23,6.60,,,,,,,,,,,,,,
1799999991461716938,2027-01-15T07:59:51.461716938Z,-1.70,-1.28,0.00,0.85,2.98,2.55,3.83,2.77,6.38,1.70,5.11,5.11,8.72,5.53,,,,,,,,,,,,,,
1799999991473317866,2027-01-15T07:59:51.473317866Z,0.00,-1.06,0.43,0.85,2.13,2.13,3.40,1.28,4.68,5.11,5.32,4.04,6.17,6.60,,,,,,,,,,,,,,
1799999991484918794,2027-01-15T07:59:51.484918794Z,-0.43,-1.70,-0.21,0.00,1.06,2.55,2.77,0.85,3.19,6.17,5.74,4.26,5.74,7.45,,,,,,,,,,,,,,
1799999991496519722,2027-01-15T07:59:51.496519722Z,-0.21,-0.85,0.21,-0.64,1.91,0.85,4.68,3.19,4.04,3.62,5.74,5.74,8.51,9.15,,,,,,,,,,,,,,
1799999991508120650,2027-01-15T07:59:51.508120650Z,0.00,-0.85,0.85,-0.43,2.77,0.21,5.96,3.62,3.62,1.28,5.74,5.96,8.09,7.23,,,,,,,,,,,,,,
1799999991519721578,2027-01-15T07:59:51.519721578Z,,-1.91,-0.21,-0.64,2.13,0.85,3.40,1.91,3.62,4.26,4.89,4.47,5.74,6.17,,,,,,,,,,,,,,
1799999991531322506,2027-01-15T07:59:51.531322506Z,0.00,-0.85,0.00,0.00,0.64,1.06,3.40,3.62,3.83,5.96,5.11,4.68,6.38,7.23,,,,,,,,,,,,,,
1799999991542923434,2027-01-15T07:59:51.542923434Z,-1.91,1.06,0.21,2.77,-0.85,3.62,3.19,5.96,5.32,6.60,3.62,5.96,5.96,7.45,,,,,,,,,,,,,,
1799999991554524362,2027-01-15T07:59:51.554524362Z,-1.28,1.06,-0.21,2.77,-0.85,4.26,3.40,5.11,6.17,6.17,2.55,6.17,4.26,7.45,,,,,,,,,,,,,,
1799999991566125291,2027-01-15T07:59:51.566125291Z,-0.85,1.49,-0.85,-0.21,1.28,3.19,3.83,3.40,3.40,4.47,4.04,6.38,5.74,7.87,,,,,,,,,,,,,,
1799999991577726219,2027-01-15T07:59:51.577726219Z,-2.77,1.28,-1.06,-0.64,1.49,4.04,2.77,2.34,2.77,4.26,5.96,6.60,7.02,8.30,,,,,,,,,,,,,,
1799999991589327147,2027-01-15T07:59:51.589327147Z,-0.85,1.28,-0.64,1.91,0.21,5.53,3.19,2.77,4.26,7.45,5.74,6.17,6.81,7.02,,,,,,,,,,,,,,
1799999991600928075,2027-01-15T07:59:51.600928075Z,-0.21,1.06,-0.21,2.13,0.64,6.17,3.83,3.83,4.26,6.60,4.89,6.17,6.60,4.89,,,,,,,,,,,,,,
1799999991612529003,2027-01-15T07:59:51.612529003Z,-0.21,0.21,0.64,1.49,0.85,5.11,2.13,2.13,4.47,4.89,4.68,5.96,5.32,4.26,,,,,,,,,,,,,,
1799999991624129931,2027-01-15T07:59:51.624129931Z,1.06,0.00,1.28,1.28,0.64,4.68,3.19,1.28,5.11,5.96,4.68,6.38,5.32,4.47,,,,,,,,,,,,,,
1799999991635730859,2027-01-15T07:59:51.635730859Z,0.21,1.91,0.21,0.21,1.49,2.34,4.89,1.70,5.32,2.98,3.62,5.53,8.09,4.04,,,,,,,,,,,,,,
1799999991647331787,2027-01-15T07:59:51.647331787Z,-0.21,1.28,-1.06,0.43,1.28,1.70,5.11,2.55,5.11,1.49,3.83,5.11,9.15,6.17,,,,,,,,,,,,,,
1799999991658932715,2027-01-15T07:59:51.658932715Z,-0.85,-0.85,-0.85,0.85,-0.21,3.40,5.53,4.04,4.89,5.11,5.53,5.53,7.45,7.45,,,,,,,,,,,,,,
1799999991670533643,2027-01-15T07:59:51.670533643Z,0.85,-0.85,-0.21,1.49,-0.64,3.40,5.11,3.83,4.47,7.45,5.53,5.53,7.23,6.60,,,,,,,,,,,,,,
1799999991682134571,2027-01-15T07:59:51.682134571Z,0.85,-0.21,0.21,1.28,-0.43,2.77,3.40,2.55,4.68,3.62,6.17,7.02,6.38,8.51,,,,,,,,,,,,,,
1799999991693735499,2027-01-15T07:59:51.693735499Z,-0.64,-1.06,-1.06,0.21,0.64,1.91,2.77,2.77,5.11,4.47,5.53,6.17,6.81,8.30,,,,,,,,,,,,,,
1799999991705336427,2027-01-15T07:59:51.705336427Z,-0.64,-1.49,-1.06,-0.21,0.21,2.55,2.34,4.04,4.26,5.74,4.89,5.53,7.66,7.87,,,,,,,,,,,,,,
1799999991716937355,2027-01-15T07:59:51.716937355Z,-2.55,-1.28,-1.49,0.21,0.43,2.98,2.98,4.26,4.26,5.11,5.53,6.60,7.45,8.30,,,,,,,,,,,,,,
1799999991728538284,2027-01-15T07:59:51.728538284Z,-1.06,-0.85,-0.21,1.06,-0.21,0.00,2.77,3.40,2.13,5.11,5.11,5.53,7.23,7.45,,,,,,,,,,,,,,
1799999991740139212,2027-01-15T07:59:51.740139212Z,-1.06,-0.21,-0.43,0.85,2.13,1.70,2.77,2.34,3.83,5.32,4.26,4.89,5.96,7.23,,,,,,,,,,,,,,
1799999991751740140,2027-01-15T07:59:51.751740140Z,-0.43,0.21,-1.91,0.00,3.83,3.62,1.91,3.40,5.32,7.23,6.17,7.45,6.81,6.81,,,,,,,,,,,,,,
1799999991763341068,2027-01-15T07:59:51.763341068Z,0.21,0.21,-2.34,-1.06,3.19,2.77,2.77,4.68,4.68,5.96,7.45,8.30,8.51,5.96,,,,,,,,,,,,,,
1799999991774941996,2027-01-15T07:59:51.774941996Z,-1.91,1.06,0.00,0.21,1.70,0.85,4.04,5.32,3.19,4.68,6.60,7.66,7.02,6.81,,,,,,,,,,,,,,
1799999991786542924,2027-01-15T07:59:51.786542924Z,-1.91,0.21,0.43,2.13,1.06,1.49,3.83,5.32,4.04,4.89,6.81,7.23,7.02,7.66,,,,,,,,,,,,,,
1799999991798143852,2027-01-15T07:59:51.798143852Z,-0.21,-1.28,-1.06,0.21,0.64,2.34,2.55,1.91,4.04,3.40,7.23,7.45,6.38,8.51,,,,,,,,,,,,,,
1799999991809744780,2027-01-15T07:59:51.809744780Z,-0.21,-1.91,-1.91,0.21,1.49,1.49,2.55,1.49,3.19,2.98,6.17,7.23,5.74,7.23,,,,,,,,,,,,,,
1799999991821345708,2027-01-15T07:59:51.821345708Z,-0.64,-3.62,-0.85,0.64,1.28,1.28,2.13,2.77,4.26,5.11,5.74,4.26,5.96,6.17,,,,,,,,,,,,,,
1799999991832946636,2027-01-15T07:59:51.832946636Z,-0.85,-3.40,-0.21,0.43,0.21,1.49,2.77,2.98,4.26,4.26,6.17,5.74,5.96,5.53,,,,,,,,,,,,,,
1799999991844547564,2027-01-15T07:59:51.844547564Z,-0.43,-0.43,0.00,0.00,-1.49,1.70,3.19,4.04,2.98,3.19,5.96,7.66,6.81,6.60,,,,,,,,,,,,,,
1799999991856148492,2027-01-15T07:59:51.856148492Z,-0.85,0.00,-0.21,0.43,-0.85,1.70,2.77,4.26,1.49,3.83,5.11,7.23,6.81,5.96,,,,,,,,,,,,,,
1799999991867749420,2027-01-15T07:59:51.867749420Z,0.64,0.00,-0.21,-1.91,0.64,2.77,3.62,2.98,0.85,4.68,5.32,5.32,5.74,5.96,,,,,,,,,,,,,,
1799999991879350349,2027-01-15T07:59:51.879350349Z,0.85,-1.06,0.00,-3.19,0.85,2.98,4.26,1.49,1.91,4.89,5.11,5.32,5.32,6.81,,,,,,,,,,,,,,
1799999991890951277,2027-01-15T07:59:51.890951277Z,0.21,-1.70,-0.64,-0.43,1.28,1.70,3.62,1.91,4.47,5.32,5.96,6.60,5.74,7.45,,,,,,,,,,,,,,
1799999991902552205,2027-01-15T07:59:51.902552205Z,-0.64,-1.49,0.85,0.21,1.91,1.70,4.04,3.40,4.47,5.32,5.96,6.60,5.32,9.15,,,,,,,,,,,,,,
1799999991914153133,2027-01-15T07:59:51.914153133Z,0.00,-0.85,1.70,1.06,2.77,1.06,4.26,3.83,4.89,5.74,5.11,5.74,4.89,9.36,,,,,,,,,,,,,,
1799999991925754061,2027-01-15T07:59:51.925754061Z,-2.55,-0.21,2.34,0.21,2.34,0.00,2.98,2.98,5.32,5.74,5.32,4.68,5.53,6.81,,,,,,,,,,,,,,
1799999991937354989,2027-01-15T07:59:51.937354989Z,-2.34,-0.43,1.28,-0.43,2.34,-0.21,3.40,2.55,4.89,4.68,6.38,5.11,6.38,6.38,,,,,,,,,,,,,,
1799999991948955917,2027-01-15T07:59:51.948955917Z,-0.85,-2.77,1.28,-0.43,1.91,0.00,1.91,3.19,4.68,3.19,6.17,6.60,6.17,6.60,,,,,,,,,,,,,,
1799999991960556845,2027-01-15T07:59:51.960556845Z,-2.13,-2.98,1.06,0.00,1.49,-0.21,1.06,2.55,4.68,2.98,5.11,7.02,5.74,6.60,,,,,,,,,,,,,,
1799999991972157773,2027-01-15T07:59:51.972157773Z,-2.34,-1.70,-0.21,0.00,0.21,0.43,1.28,2.77,4.89,5.32,5.53,5.74,5.11,8.30,,,,,,,,,,,,,,
1799999991983758701,2027-01-15T07:59:51.983758701Z,-0.85,-1.28,-1.28,0.00,0.00,0.64,0.85,3.62,6.38,4.26,4.68,4.89,4.89,8.09,,,,,,,,,,,,,,
1799999991995359629,2027-01-15T07:59:51.995359629Z,-1.91,-0.85,-2.34,-0.43,0.85,0.00,0.85,3.83,7.23,3.62,4.89,4.89,6.38,6.60,,,,,,,,,,,,,,
1799999992006960557,2027-01-15T07:59:52.006960557Z,-2.55,0.21,-1.70,-1.06,1.70,0.85,0.64,3.62,6.17,4.26,6.38,5.53,7.45,6.60,,,,,,,,,,,,,,
1799999992018561485,2027-01-15T07:59:52.018561485Z,-2.34,0.21,1.49,-0.43,0.64,2.34,1.06,2.55,3.83,4.89,7.45,5.53,6.17,7.02,,,,,,,,,,,,,,
1799999992030162413,2027-01-15T07:59:52.030162413Z,-2.13,1.06,2.55,1.06,0.43,0.85,1.91,2.13,2.77,4.68,6.60,6.38,6.17,7.66,,,,,,,,,,,,,,
1799999992041763342,2027-01-15T07:59:52.041763342Z,-1.91,-0.21,1.28,0.85,2.55,1.28,1.06,3.83,1.28,2.34,5.53,6.81,7.23,6.60,,,,,,,,,,,,,,
1799999992053364270,2027-01-15T07:59:52.053364270Z,-0.43,-0.85,-0.64,0.00,4.26,2.34,0.85,4.04,1.91,3.83,4.89,5.96,6.81,5.96,,,,,,,,,,,,,,
1799999992064965198,2027-01-15T07:59:52.064965198Z,-2.77,1.70,-1.70,-0.21,2.98,3.19,1.28,4.04,4.47,5.96,5.11,5.11,5.53,7.66,,,,,,,,,,,,,,
1799999992076566126,2027-01-15T07:59:52.076566126Z,-2.98,1.91,-1.06,1.28,1.28,2.34,1.91,4.47,5.32,5.32,5.32,5.53,5.53,9.15,,,,,,,,,,,,,,
1799999992088167054,2027-01-15T07:59:52.088167054Z,0.43,1.70,1.06,1.06,0.64,1.91,3.62,5.11,2.77,3.62,5.74,6.38,5.53,8.30,,,,,,,,,,,,,,
1799999992099767982,2027-01-15T07:59:52.099767982Z,1.06,1.06,0.64,1.91,0.21,1.28,3.83,5.53,1.91,4.47,5.74,5.96,5.74,7.87,,,,,,,,,,,,,,
1799999992111368910,2027-01-15T07:59:52.111368910Z,0.85,-0.21,1.28,0.43,0.00,1.91,3.62,4.26,4.26,5.32,5.11,4.68,5.74,6.38,,,,,,,,,,,,,,
1799999992122969838,2027-01-15T07:59:52.122969838Z,1.28,-1.49,1.91,0.00,0.64,0.85,3.19,3.40,5.32,5.11,4.89,4.04,6.17,7.02,,,,,,,,,,,,,,
1799999992134570766,2027-01-15T07:59:52.134570766Z,-1.49,-1.70,1.49,1.49,1.49,0.43,1.28,3.40,4.89,4.47,5.11,5.11,7.02,7.87,,,,,,,,,,,,,,
1799999992146171694,2027-01-15T07:59:52.146171694Z,-1.49,-0.21,0.85,2.34,1.91,0.64,0.85,3.62,5.53,4.47,4.47,5.53,6.17,7.66,,,,,,,,,,,,,,
1799999992157772622,2027-01-15T07:59:52.157772622Z,0.21,0.00,-0.43,2.55,2.13,-0.43,1.06,2.34,3.83,4.68,3.83,5.32,4.89,8.09,,,,,,,,,,,,,,
1799999992169373550,2027-01-15T07:59:52.169373550Z,-1.06,-0.85,-0.85,2.98,1.91,-0.43,1.91,1.70,2.98,4.68,4.47,6.17,5.32,8.30,,,,,,,,,,,,,,
1799999992180974478,2027-01-15T07:59:52.180974478Z,-0.21,0.21,-1.70,1.91,3.40,0.64,1.70,2.34,6.17,4.47,5.96,7.45,7.45,7.87,,,,,,,,,,,,,,
1799999992192575407,2027-01-15T07:59:52.192575407Z,-0.43,1.28,-1.49,1.06,4.04,1.06,1.49,2.55,5.11,5.53,5.53,7.23,8.09,8.30,,,,,,,,,,,,,,
1799999992204176335,2027-01-15T07:59:52.204176335Z,-0.21,-0.85,-2.13,1.70,2.55,2.13,2.77,1.70,3.83,5.74,5.53,8.72,6.81,7.66,,,,,,,,,,,,,,
1799999992215777263,2027-01-15T07:59:52.215777263Z,-0.21,-0.43,-1.70,2.34,1.70,1.70,3.40,1.91,4.26,5.74,6.17,8.51,6.38,6.81,,,,,,,,,,,,,,
1799999992227378191,2027-01-15T07:59:52.227378191Z,-0.21,1.28,-0.43,1.28,1.06,3.19,2.55,2.55,2.55,4.89,7.23,6.60,5.96,8.09,,,,,,,,,,,,,,
1799999992238979119,2027-01-15T07:59:52.238979119Z,-0.21,0.64,0.21,1.28,0.43,2.77,2.13,2.13,3.62,4.89,6.60,5.96,5.53,8.09,,,,,,,,,,,,,,
1799999992250580047,2027-01-15T07:59:52.250580047Z,-1.49,-0.21,-0.21,2.13,2.98,1.91,3.19,2.34,4.26,5.53,4.89,4.89,5.74,7.45,,,,,,,,,,,,,,
1799999992262180975,2027-01-15T07:59:52.262180975Z,-1.06,-0.85,0.00,1.70,4.04,2.13,3.83,3.19,3.62,4.04,5.32,5.32,6.81,7.23,,,,,,,,,,,,,,
1799999992273781903,2027-01-15T07:59:52.273781903Z,-1.70,-2.34,1.06,1.28,1.49,2.34,4.04,4.47,4.26,2.77,6.38,6.81,7.66,6.81,,,,,,,,,,,,,,
1799999992285382831,2027-01-15T07:59:52.285382831Z,-1.49,-2.13,0.21,0.64,1.70,1.28,2.77,3.83,3.62,3.62,5.74,7.45,6.38,5.96,,,,,,,,,,,,,,
1799999992296983759,2027-01-15T07:59:52.296983759Z,-1.91,-0.64,-1.28,0.00,2.55,0.00,1.06,2.77,2.34,4.68,5.32,6.60,4.47,5.53,,,,,,,,,,,,,,
1799999992308584687,2027-01-15T07:59:52.308584687Z,-2.13,0.21,-1.70,-0.43,2.98,2.34,2.77,2.55,3.83,3.83,4.26,6.60,5.32,6.60,,,,,,,,,,,,,,
1799999992320185615,2027-01-15T07:59:52.320185615Z,-2.34,-0.85,-1.28,-0.64,4.04,3.83,3.83,2.77,3.40,4.26,4.04,7.02,5.53,7.02,,,,,,,,,,,,,,
1799999992331786543,2027-01-15T07:59:52.331786543Z,-2.13,-1.91,-0.64,0.21,3.19,3.62,2.34,4.04,2.55,4.47,4.47,6.60,6.60,7.23,,,,,,,,,,,,,,
1799999992343387471,2027-01-15T07:59:52.343387471Z,-2.77,-1.70,-0.85,0.21,1.28,3.62,2.34,3.83,2.77,3.83,4.47,6.17,7.45,7.23,,,,,,,,,,,,,,
1799999992354988400,2027-01-15T07:59:52.354988400Z,-2.98,0.00,-1.28,0.21,-2.13,3.19,3.40,2.13,4.26,4.04,5.32,6.81,6.38,7.87,,,,,,,,,,,,,,
1799999992366589328,2027-01-15T07:59:52.366589328Z,-2.13,-0.43,-1.28,0.85,-1.91,3.40,3.40,1.28,4.89,4.68,5.74,7.02,6.60,8.51,,,,,,,,,,,,,,
1799999992378190256,2027-01-15T07:59:52.378190256Z,0.43,-1.91,-0.85,0.64,-0.85,2.13,1.91,1.70,3.83,2.98,4.89,6.60,7.23,10.00,,,,,,,,,,,,,,
1799999992389791184,2027-01-15T07:59:52.389791184Z,0.64,-3.40,-1.28,-0.43,-1.49,1.28,2.77,1.91,3.62,3.62,4.04,7.02,6.81,9.15,,,,,,,,,,,,,,
1799999992401392112,2027-01-15T07:59:52.401392112Z,-0.85,-1.49,0.21,-2.13,1.28,2.55,5.11,1.91,3.19,4.47,4.89,7.02,7.45,7.02,,,,,,,,,,,,,,
1799999992412993040,2027-01-15T07:59:52.412993040Z,-1.06,-0.64,1.06,-1.28,2.55,2.13,4.68,2.13,2.55,4.04,4.89,6.60,7.87,5.32,,,,,,,,,,,,,,
1799999992424593968,2027-01-15T07:59:52.424593968Z,-3.19,0.85,0.00,0.21,0.85,1.06,3.40,3.19,2.34,5.53,3.83,5.53,7.23,6.17,,,,,,,,,,,,,,
1799999992436194896,2027-01-15T07:59:52.436194896Z,-3.83,1.06,-0.64,1.06,0.85,1.28,3.40,4.04,2.98,4.89,4.68,5.74,5.53,6.60,,,,,,,,,,,,,,
1799999992447795824,2027-01-15T07:59:52.447795824Z,-1.06,-0.64,-0.43,2.98,-1.06,1.06,5.53,2.77,4.47,1.91,6.17,7.87,5.53,8.09,,,,,,,,,,,,,,
1799999992459396752,2027-01-15T07:59:52.459396752Z,-1.06,-1.28,-0.85,1.70,-0.43,0.00,5.74,0.85,4.26,2.98,5.74,7.87,4.89,7.66,,,,,,,,,,,,,,
1799999992470997680,2027-01-15T07:59:52.470997680Z,-0.64,-1.49,0.00,0.43,2.55,0.43,4.89,2.13,4.89,4.26,6.38,5.53,6.60,6.17,,,,,,,,,,,,,,
1799999992482598608,2027-01-15T07:59:52.482598608Z,0.00,-1.91,0.21,0.85,1.49,1.28,2.77,1.70,5.11,3.83,6.17,5.32,7.87,5.74,,,,,,,,,,,,,,
1799999992494199536,2027-01-15T07:59:52.494199536Z,0.00,-0.43,1.70,-1.06,-1.28,2.13,1.28,0.85,3.19,4.47,4.89,5.96,7.45,7.87,,,,,,,,,,,,,,
1799999992505800465,2027-01-15T07:59:52.505800465Z,0.21,-0.64,1.06,-1.06,-0.85,1.49,1.49,1.28,3.40,4.68,4.89,5.74,5.53,8.30,,,,,,,,,,,,,,
1799999992517401393,2027-01-15T07:59:52.517401393Z,-1.49,-1.70,-1.06,-3.19,1.28,2.77,3.40,2.55,5.32,5.96,6.38,4.68,4.47,7.45,,,,,,,,,,,,,,
1799999992529002321,2027-01-15T07:59:52.529002321Z,0.43,-1.91,-1.06,-1.70,2.77,3.40,4.47,2.98,5.74,6.60,6.17,5.11,5.11,7.02,,,,,,,,,,,,,,
1799999992540603249,2027-01-15T07:59:52.540603249Z,0.43,-2.34,-1.49,2.13,2.13,1.28,3.40,3.62,3.83,5.96,5.53,5.74,6.60,5.74,,,,,,,,,,,,,,
1799999992552204177,2027-01-15T07:59:52.552204177Z,-0.21,-1.06,0.21,2.55,1.49,0.43,2.55,3.40,2.98,5.32,6.17,5.32,6.60,5.32,,,,,,,,,,,,,,
1799999992563805105,2027-01-15T07:59:52.563805105Z,-0.43,0.00,-0.21,1.91,0.43,1.06,3.62,4.04,3.62,5.74,5.53,5.74,8.51,7.23,,,,,,,,,,,,,,
1799999992575406033,2027-01-15T07:59:52.575406033Z,0.85,-0.21,-1.28,1.49,2.13,1.70,4.47,3.62,4.26,5.53,5.11,6.81,8.09,8.94,,,,,,,,,,,,,,
1799999992587006961,2027-01-15T07:59:52.587006961Z,1.28,-0.43,-1.06,2.34,1.70,2.34,3.62,2.55,4.04,5.53,4.04,6.17,7.87,9.15,,,,,,,,,,,,,,
1799999992598607889,2027-01-15T07:59:52.598607889Z,-2.34,0.43,-0.64,1.06,1.49,2.77,3.62,2.98,3.40,4.68,4.04,5.96,7.87,7.87,,,,,,,,,,,,,,
1799999992610208817,2027-01-15T07:59:52.610208817Z,1.06,-1.06,-0.85,-0.85,-0.43,2.77,1.49,4.89,3.83,5.53,4.26,7.87,6.60,7.02,,,,,,,,,,,,,,
1799999992621809745,2027-01-15T07:59:52.621809745Z,1.28,-1.49,-0.64,-0.21,-0.64,2.55,1.06,3.19,5.11,5.96,4.89,8.09,6.60,7.45,,,,,,,,,,,,,,
1799999992633410673,2027-01-15T07:59:52.633410673Z,-1.49,-0.64,-0.85,0.00,0.00,3.83,2.77,1.06,3.83,5.96,4.89,5.11,6.60,7.23,,,,,,,,,,,,,,
1799999992645011601,2027-01-15T07:59:52.645011601Z,-0.85,0.43,-1.06,0.21,2.34,4.26,3.40,1.70,2.98,4.26,4.47,4.26,5.53,6.38,,,,,,,,,,,,,,
1799999992656612530,2027-01-15T07:59:52.656612530Z,-1.91,1.91,-0.43,-0.64,2.34,2.77,3.40,1.91,1.28,3.40,4.47,5.11,4.89,8.72,,,,,,,,,,,,,,
1799999992668213458,2027-01-15T07:59:52.668213458Z,-0.85,1.28,-1.06,-1.49,2.77,2.13,3.19,2.98,1.70,2.77,5.32,6.17,5.53,10.00,,,,,,,,,,,,,,
1799999992679814386,2027-01-15T07:59:52.679814386Z,-0.64,-1.06,-1.28,0.00,3.62,1.06,2.34,3.40,2.98,4.26,5.53,5.96,6.81,8.09,,,,,,,,,,,,,,
1799999992691415314,2027-01-15T07:59:52.691415314Z,0.21,-1.06,-1.06,-1.70,2.98,0.85,2.77,2.55,3.62,4.26,5.74,4.68,6.60,8.09,,,,,,,,,,,,,,
1799999992703016242,2027-01-15T07:59:52.703016242Z,-1.49,-0.85,-1.70,-2.98,2.55,3.19,2.98,4.68,4.26,4.04,5.32,4.89,6.60,8.94,,,,,,,,,,,,,,
1799999992714617170,2027-01-15T07:59:52.714617170Z,-1.49,-0.43,-1.28,1.70,2.34,3.62,2.13,4.47,4.26,4.89,6.17,6.17,5.96,7.66,,,,,,,,,,,,,,
1799999992726218098,2027-01-15T07:59:52.726218098Z,0.00,-0.21,-0.43,1.70,2.13,2.98,1.49,5.74,4.04,4.89,6.38,7.23,6.38,8.30,,,,,,,,,,,,,,
1799999992737819026,2027-01-15T07:59:52.737819026Z,-0.21,-0.43,-0.43,0.43,2.13,3.40,1.49,5.53,3.19,4.26,6.17,8.72,8.51,8.72,,,,,,,,,,,,,,
1799999992749419954,2027-01-15T07:59:52.749419954Z,-1.49,0.43,0.43,1.49,2.77,4.47,1.49,4.26,2.34,4.26,6.17,8.30,7.66,7.66,,,,,,,,,,,,,,
1799999992761020882,2027-01-15T07:59:52.761020882Z,0.00,0.85,2.77,-0.43,1.49,3.40,0.64,2.34,1.70,5.53,5.11,7.02,5.74,6.17,,,,,,,,,,,,,,
1799999992772621810,2027-01-15T07:59:52.772621810Z,0.21,0.00,3.40,-1.06,1.28,2.77,1.70,4.26,2.55,5.53,4.89,6.60,6.17,6.38,,,,,,,,,,,,,,
1799999992784222738,2027-01-15T07:59:52.784222738Z,0.21,-1.49,1.28,0.43,0.21,2.98,3.40,3.40,4.47,3.19,4.68,5.96,7.23,7.66,,,,,,,,,,,,,,
1799999992795823666,2027-01-15T07:59:52.795823666Z,-0.21,-1.06,0.43,1.06,-0.21,3.40,2.77,3.19,4.89,4.89,4.47,5.74,7.45,7.66,,,,,,,,,,,,,,
1799999992807424594,2027-01-15T07:59:52.807424594Z,-1.70,-1.06,0.21,1.28,1.06,1.70,3.83,4.89,3.40,7.02,4.47,5.96,6.81,7.23,,,,,,,,,,,,,,
1799999992819025523,2027-01-15T07:59:52.819025523Z,-2.13,-1.28,1.28,0.21,1.49,1.28,4.04,5.53,3.40,5.32,4.68,5.53,7.02,6.81,,,,,,,,,,,,,,
1799999992830626451,2027-01-15T07:59:52.830626451Z,-1.28,-2.34,2.13,-0.21,0.21,2.13,1.28,3.62,4.04,4.26,5.32,5.53,8.30,5.74,,,,,,,,,,,,,,
1799999992842227379,2027-01-15T07:59:52.842227379Z,-1.91,-2.34,1.91,0.43,0.43,1.91,2.55,2.77,3.40,4.89,5.11,6.17,8.30,6.38,,,,,,,,,,,,,,
1799999992853828307,2027-01-15T07:59:52.853828307Z,-4.89,0.21,1.28,1.49,0.43,2.55,2.77,2.34,3.62,4.68,5.32,5.96,7.45,7.45,,,,,,,,,,,,,,
1799999992865429235,2027-01-15T07:59:52.865429235Z,-1.70,1.06,1.28,1.49,0.00,0.64,0.64,2.13,3.83,6.17,5.32,6.17,6.60,6.81,,,,,,,,,,,,,,
1799999992877030163,2027-01-15T07:59:52.877030163Z,-1.28,-0.64,1.28,0.85,0.85,-0.21,3.40,3.19,5.53,6.17,4.89,7.02,6.38,6.60,,,,,,,,,,,,,,
1799999992888631091,2027-01-15T07:59:52.888631091Z,1.28,-0.85,1.28,0.43,0.43,0.21,2.98,3.19,5.74,3.83,5.53,6.81,7.45,7.45,,,,,,,,,,,,,,
1799999992900232019,2027-01-15T07:59:52.900232019Z,1.49,-1.49,-0.64,0.43,-1.49,2.34,2.34,2.13,5.74,5.11,6.38,6.17,7.23,7.23,,,,,,,,,,,,,,
1799999992911832947,2027-01-15T07:59:52.911832947Z,-2.55,-2.34,-1.70,1.70,-1.70,2.34,3.19,1.70,5.74,5.32,6.17,5.32,6.17,6.81,,,,,,,,,,,,,,
1799999992923433875,2027-01-15T07:59:52.923433875Z,-0.21,-0.85,0.00,2.98,-1.49,3.40,4.68,2.13,4.68,2.77,6.81,5.96,5.32,7.23,,,,,,,,,,,,,,
1799999992935034803,2027-01-15T07:59:52.935034803Z,-0.21,0.21,-1.06,2.55,-1.49,3.19,3.40,2.34,3.83,3.19,7.02,5.74,5.32,7.45,,,,,,,,,,,,,,
1799999992946635731,2027-01-15T07:59:52.946635731Z,-0.64,0.43,-1.70,0.64,-0.43,1.91,0.43,2.98,5.11,4.89,5.96,5.11,4.47,5.74,,,,,,,,,,,,,,
1799999992958236659,2027-01-15T07:59:52.958236659Z,-1.49,0.21,-1.06,0.85,1.28,1.28,0.85,3.40,4.89,3.83,6.38,5.32,5.53,5.74,,,,,,,,,,,,,,
1799999992969837588,2027-01-15T07:59:52.969837588Z,-1.70,0.85,0.00,0.43,2.13,0.43,2.13,3.83,3.40,3.83,4.89,5.96,6.60,7.87,,,,,,,,,,,,,,
1799999992981438516,2027-01-15T07:59:52.981438516Z,-2.13,0.85,0.21,0.21,1.91,0.43,1.70,2.77,3.40,4.68,3.83,5.53,6.17,7.66,,,,,,,,,,,,,,
1799999992993039444,2027-01-15T07:59:52.993039444Z,-0.43,-0.64,0.21,0.85,0.64,3.62,2.13,1.49,4.47,5.32,5.32,6.38,7.45,7.23,,,,,,,,,,,,,,
1799999993004640372,2027-01-15T07:59:53.004640372Z,-1.28,-1.91,-0.21,0.64,0.43,3.83,2.77,1.91,3.19,5.53,5.32,5.32,8.09,7.02,,,,,,,,,,,,,,
1799999993016241300,2027-01-15T07:59:53.016241300Z,-0.64,0.00,-0.85,0.43,2.13,2.77,4.26,2.98,2.55,4.26,5.53,4.68,8.72,7.23,,,,,,,,,,,,,,
1799999993027842228,2027-01-15T07:59:53.027842228Z,0.64,1.49,-1.49,0.43,2.77,3.19,5.11,3.19,3.19,2.98,5.96,5.11,8.09,7.23,,,,,,,,,,,,,,
1799999993039443156,2027-01-15T07:59:53.039443156Z,-0.43,-1.28,-2.34,0.64,1.06,2.77,2.98,2.13,3.62,4.04,5.96,6.81,6.81,5.53,,,,,,,,,,,,,,
1799999993051044084,2027-01-15T07:59:53.051044084Z,0.64,-2.34,-1.49,0.21,1.28,2.34,2.98,3.62,2.98,4.47,6.38,6.81,6.17,5.74,,,,,,,,,,,,,,
1799999993062645012,2027-01-15T07:59:53.062645012Z,-0.64,-1.49,-0.43,0.64,1.28,3.19,3.62,5.11,3.40,3.62,6.17,7.02,5.53,7.02,,,,,,,,,,,,,,
1799999993074245940,2027-01-15T07:59:53.074245940Z,1.28,-1.70,-1.28,1.28,0.43,2.77,2.77,4.89,3.83,4.04,5.53,7.23,6.17,7.66,,,,,,,,,,,,,,
1799999993085846868,2027-01-15T07:59:53.085846868Z,-0.43,-0.21,-2.34,0.85,1.91,1.91,1.28,5.53,4.04,3.40,5.74,7.23,8.30,8.09,,,,,,,,,,,,,,
1799999993097447796,2027-01-15T07:59:53.097447796Z,-0.85,0.43,-2.77,-0.21,2.13,1.70,1.91,5.96,4.47,6.81,5.53,7.45,7.66,7.66,,,,,,,,,,,,,,
1799999993109048724,2027-01-15T07:59:53.109048724Z,-2.34,0.00,-1.70,-0.85,1.28,1.91,2.77,4.89,4.89,8.09,5.96,7.45,5.32,6.38,,,,,,,,,,,,,,
1799999993120649652,2027-01-15T07:59:53.120649652Z,0.43,0.21,-1.06,1.06,1.28,2.55,2.77,5.11,4.89,5.53,4.68,7.45,5.74,7.02,,,,,,,,,,,,,,
1799999993132250581,2027-01-15T07:59:53.132250581Z,0.00,-0.43,-0.64,1.91,-0.85,3.62,3.40,3.62,5.74,3.62,2.34,6.38,6.60,8.30,,,,,,,,,,,,,,
1799999993143851509,2027-01-15T07:59:53.143851509Z,0.00,-0.64,-1.49,0.64,1.06,2.13,3.40,3.62,4.89,9.36,3.83,4.68,6.38,7.45,,,,,,,,,,,,,,
1799999993155452437,2027-01-15T07:59:53.155452437Z,0.00,-0.43,-1.70,0.64,2.34,0.43,3.62,3.83,4.26,6.60,5.32,5.32,6.38,7.23,,,,,,,,,,,,,,
1799999993167053365,2027-01-15T07:59:53.167053365Z,-1.06,-0.85,-1.91,0.64,1.06,1.49,2.34,2.98,4.47,6.81,5.32,6.38,6.81,6.17,,,,,,,,,,,,,,
1799999993178654293,2027-01-15T07:59:53.178654293Z,-1.06,-0.43,-2.13,0.43,0.64,2.13,1.49,2.55,3.83,10.64,5.53,6.17,6.38,5.11,,,,,,,,,,,,,,
1799999993190255221,2027-01-15T07:59:53.190255221Z,-0.85,0.64,-0.43,-0.64,-0.85,1.70,2.77,4.04,3.40,3.19,6.60,7.45,7.23,6.38,,,,,,,,,,,,,,
1799999993201856149,2027-01-15T07:59:53.201856149Z,-2.55,1.06,2.13,0.00,0.00,1.70,3.19,3.62,3.83,1.91,5.74,6.81,5.96,7.66,,,,,,,,,,,,,,
1799999993213457077,2027-01-15T07:59:53.213457077Z,-0.43,0.64,1.70,1.28,1.91,2.13,1.91,2.98,4.47,1.91,4.47,5.96,2.98,8.51,,,,,,,,,,,,,,
1799999993225058005,2027-01-15T07:59:53.225058005Z,-0.21,-0.21,1.28,0.43,1.70,2.13,1.91,3.40,3.83,0.21,4.47,6.60,4.47,8.30,,,,,,,,,,,,,,
1799999993236658933,2027-01-15T07:59:53.236658933Z,0.85,0.00,0.85,0.00,2.13,3.19,1.49,3.40,4.26,4.26,5.11,6.38,7.45,8.51,,,,,,,,,,,,,,
1799999993248259861,2027-01-15T07:59:53.248259861Z,1.06,0.64,1.91,-1.06,2.98,3.19,2.34,2.55,4.89,6.38,5.74,5.32,7.45,8.51,,,,,,,,,,,,,,
1799999993259860789,2027-01-15T07:59:53.259860789Z,1.28,-0.21,1.06,-2.34,2.77,1.70,2.55,0.85,4.04,5.11,3.83,4.04,7.45,7.45,,,,,,,,,,,,,,
1799999993271461717,2027-01-15T07:59:53.271461717Z,-0.21,-1.49,-0.21,-1.91,1.91,2.34,4.04,1.28,3.62,4.04,4.26,3.83,6.17,6.38,,,,,,,,,,,,,,
1799999993283062646,2027-01-15T07:59:53.283062646Z,-0.21,-0.64,0.21,-0.64,2.13,3.19,6.17,3.40,4.04,6.60,6.38,4.89,5.74,5.53,,,,,,,,,,,,,,
1799999993294663574,2027-01-15T07:59:53.294663574Z,0.43,0.00,0.21,0.21,1.70,1.91,5.53,2.98,3.83,8.94,6.17,5.96,6.60,6.81,,,,,,,,,,,,,,
1799999993306264502,2027-01-15T07:59:53.306264502Z,0.00,0.21,2.13,0.85,0.43,1.49,3.40,1.70,4.04,6.17,5.53,6.17,7.87,8.51,,,,,,,,,,,,,,
1799999993317865430,2027-01-15T07:59:53.317865430Z,-1.06,0.43,1.28,0.43,0.85,2.34,4.04,1.70,3.83,4.26,5.96,5.53,7.45,7.66,,,,,,,,,,,,,,
1799999993329466358,2027-01-15T07:59:53.329466358Z,-1.49,-0.43,-0.64,0.43,1.49,2.77,6.60,3.40,2.98,1.70,5.74,5.32,7.02,6.38,,,,,,,,,,,,,,
1799999993341067286,2027-01-15T07:59:53.341067286Z,-1.06,-0.64,-0.21,1.49,1.06,2.55,7.66,4.68,3.19,0.85,5.32,6.17,7.66,6.81,,,,,,,,,,,,,,
1799999993352668214,2027-01-15T07:59:53.352668214Z,0.21,0.00,0.85,1.28,0.85,0.85,5.32,2.98,2.98,1.91,4.89,7.66,6.60,7.23,,,,,,,,,,,,,,
1799999993364269142,2027-01-15T07:59:53.364269142Z,0.64,-0.85,-0.85,1.28,0.43,-0.21,3.40,1.49,2.13,3.19,5.32,7.45,5.96,7.66,,,,,,,,,,,,,,
1799999993375870070,2027-01-15T07:59:53.375870070Z,-1.28,-1.06,-1.06,0.85,1.49,0.85,2.55,0.85,3.40,4.26,4.89,7.45,6.38,7.66,,,,,,,,,,,,,,
1799999993387470998,2027-01-15T07:59:53.387470998Z,-0.85,0.00,-0.43,0.85,2.13,1.06,3.62,2.34,4.89,4.89,4.68,6.17,7.02,7.02,,,,,,,,,,,,,,
1799999993399071926,2027-01-15T07:59:53.399071926Z,-1.91,-1.06,0.64,1.70,1.28,2.13,4.26,1.49,4.68,3.83,5.96,5.32,6.17,7.87,,,,,,,,,,,,,,
1799999993410672854,2027-01-15T07:59:53.410672854Z,-1.70,-0.85,0.85,1.49,1.28,2.13,3.19,2.13,4.68,2.55,5.74,6.60,6.38,8.30,,,,,,,,,,,,,,
1799999993422273782,2027-01-15T07:59:53.422273782Z,-0.21,-0.85,0.85,1.49,3.19,1.70,2.98,2.34,2.98,4.26,5.96,8.09,5.53,6.17,,,,,,,,,,,,,,
1799999993433874710,2027-01-15T07:59:53.433874710Z,0.21,-1.28,1.06,1.70,1.91,1.28,3.62,1.49,1.70,4.68,6.60,8.30,4.47,7.02,,,,,,,,,,,,,,
1799999993445475639,2027-01-15T07:59:53.445475639Z,-2.13,-0.43,1.28,0.43,0.21,1.06,3.83,0.85,3.83,3.40,6.17,5.74,4.68,8.09,,,,,,,,,,,,,,
1799999993457076567,2027-01-15T07:59:53.457076567Z,-1.06,-1.91,0.21,0.00,0.64,1.70,2.55,0.85,4.47,4.47,5.74,5.53,5.53,7.23,,,,,,,,,,,,,,
1799999993468677495,2027-01-15T07:59:53.468677495Z,-1.49,-1.70,0.85,-0.43,2.13,1.06,2.77,1.28,3.62,7.02,6.81,6.38,4.89,7.23,,,,,,,,,,,,,,
1799999993480278423,2027-01-15T07:59:53.480278423Z,-1.49,-0.64,1.06,0.43,1.70,0.85,2.77,1.49,2.34,4.68,6.60,6.81,5.32,7.23,,,,,,,,,,,,,,
1799999993491879351,2027-01-15T07:59:53.491879351Z,-1.28,-1.49,1.49,0.85,0.43,2.13,1.91,5.11,4.04,4.47,5.53,7.66,6.81,7.02,,,,,,,,,,,,,,
1799999993503480279,2027-01-15T07:59:53.503480279Z,-1.49,-2.13,0.00,0.00,1.49,3.40,2.55,4.89,4.89,5.11,5.74,6.81,7.66,7.66,,,,,,,,,,,,,,
1799999993515081207,2027-01-15T07:59:53.515081207Z,,-3.19,-1.91,0.43,1.91,3.40,1.28,3.19,3.40,4.89,4.89,4.68,8.09,7.02,,,,,,,,,,,,,,
1799999993526682135,2027-01-15T07:59:53.526682135Z,-1.28,-2.55,-2.55,0.21,1.06,2.34,0.21,4.26,3.40,4.68,5.74,5.53,7.87,5.96,,,,,,,,,,,,,,
1799999993538283063,2027-01-15T07:59:53.538283063Z,,0.43,-2.77,-1.49,1.91,0.43,0.85,3.40,3.83,2.13,7.23,6.60,8.30,6.38,,,,,,,,,,,,,,
1799999993549883991,2027-01-15T07:59:53.549883991Z,-1.49,-1.49,-3.83,1.06,1.70,1.91,-0.43,2.34,3.62,5.96,5.74,5.11,5.96,8.09,,,,,,,,,,,,,,
1799999993561484919,2027-01-15T07:59:53.561484919Z,-1.28,-2.34,-4.04,2.34,2.13,2.13,-1.70,3.19,2.98,7.66,5.53,4.89,4.68,8.30,,,,,,,,,,,,,,
1799999993573085847,2027-01-15T07:59:53.573085847Z,-0.85,-1.06,-2.34,1.06,1.70,2.13,0.21,6.38,2.55,4.68,7.02,6.17,6.38,8.51,,,,,,,,,,,,,,
1799999993584686775,2027-01-15T07:59:53.584686775Z,-2.13,-0.43,-1.91,1.28,1.06,1.06,1.49,4.89,2.98,3.62,6.81,5.96,6.38,7.87,,,,,,,,,,,,,,
1799999993596287704,2027-01-15T07:59:53.596287704Z,-1.49,-0.85,-1.70,2.34,0.21,0.43,2.98,1.28,4.47,6.17,5.96,7.23,5.96,7.45,,,,,,,,,,,,,,
1799999993607888632,2027-01-15T07:59:53.607888632Z,-1.28,-0.85,-0.85,1.49,1.49,1.28,2.13,2.13,5.11,4.89,4.68,7.87,7.66,8.09,,,,,,,,,,,,,,
1799999993619489560,2027-01-15T07:59:53.619489560Z,-0.85,0.00,0.00,-1.06,3.19,2.77,1.28,3.62,4.26,5.74,4.68,7.23,6.38,8.72,,,,,,,,,,,,,,
1799999993631090488,2027-01-15T07:59:53.631090488Z,0.43,0.85,-0.64,-1.49,3.83,3.19,1.28,4.26,3.40,7.87,5.32,6.38,5.32,8.72,,,,,,,,,,,,,,
1799999993642691416,2027-01-15T07:59:53.642691416Z,0.21,-1.06,-2.13,-1.06,1.91,1.28,2.13,4.47,4.26,9.36,5.32,6.81,6.17,7.02,,,,,,,,,,,,,,
1799999993654292344,2027-01-15T07:59:53.654292344Z,-0.85,-1.06,-2.34,-1.28,0.85,1.28,1.28,3.83,4.68,7.45,4.89,6.38,5.11,5.96,,,,,,,,,,,,,,
1799999993665893272,2027-01-15T07:59:53.665893272Z,-0.85,0.43,-1.28,0.85,0.64,2.34,1.28,3.19,3.62,4.26,4.26,5.53,5.96,5.74,,,,,,,,,,,,,,
1799999993677494200,2027-01-15T07:59:53.677494200Z,-2.13,0.21,-0.85,1.28,0.64,2.77,1.91,3.83,2.98,2.13,4.04,5.96,7.02,5.74,,,,,,,,,,,,,,
1799999993689095128,2027-01-15T07:59:53.689095128Z,-2.55,0.21,-1.70,-0.64,0.43,5.53,2.98,3.40,2.77,2.77,4.89,4.89,6.38,4.68,,,,,,,,,,,,,,
1799999993700696056,2027-01-15T07:59:53.700696056Z,-1.70,0.00,-1.06,-0.21,0.43,3.62,1.91,2.98,3.40,4.68,4.47,3.83,5.74,5.53,,,,,,,,,,,,,,
1799999993712296984,2027-01-15T07:59:53.712296984Z,-2.13,0.21,-0.21,0.64,0.64,-0.21,2.98,2.98,2.98,4.47,4.89,5.32,7.02,6.60,,,,,,,,,,,,,,
1799999993723897912,2027-01-15T07:59:53.723897912Z,-1.91,0.64,0.43,1.49,0.00,1.06,2.77,3.40,2.77,2.98,4.68,6.38,5.96,5.53,,,,,,,,,,,,,,
1799999993735498840,2027-01-15T07:59:53.735498840Z,,-1.06,0.43,1.28,0.21,2.77,4.04,3.19,3.83,6.81,4.68,6.60,6.38,5.11,,,,,,,,,,,,,,
1799999993747099768,2027-01-15T07:59:53.747099768Z,-2.55,-0.64,-0.21,1.06,1.06,2.98,4.26,4.04,4.68,5.32,5.11,5.96,7.23,6.17,,,,,,,,,,,,,,
1799999993758700697,2027-01-15T07:59:53.758700697Z,0.43,-0.85,-0.43,-1.49,0.43,4.26,4.47,2.34,4.04,4.47,5.74,4.89,8.51,7.87,,,,,,,,,,,,,,
1799999993770301625,2027-01-15T07:59:53.770301625Z,0.43,-1.28,-0.64,-1.70,0.21,2.98,4.04,1.70,3.19,6.60,6.17,4.89,7.87,9.36,,,,,,,,,,,,,,
1799999993781902553,2027-01-15T07:59:53.781902553Z,-0.21,-1.28,0.64,1.28,1.49,0.85,3.19,1.91,2.77,2.55,6.60,5.96,6.60,8.30,,,,,,,,,,,,,,
1799999993793503481,2027-01-15T07:59:53.793503481Z,0.21,-0.64,1.28,2.34,1.49,2.55,3.40,2.77,2.55,0.64,5.53,6.60,5.74,8.30,,,,,,,,,,,,,,
1799999993805104409,2027-01-15T07:59:53.805104409Z,-1.06,1.49,-0.43,-0.85,1.49,4.04,3.40,3.19,3.40,3.83,5.32,6.17,5.53,7.02,,,,,,,,,,,,,,
1799999993816705337,2027-01-15T07:59:53.816705337Z,0.00,1.28,1.49,-1.28,1.28,3.40,1.49,2.77,3.83,5.11,5.53,5.96,6.81,6.81,,,,,,,,,,,,,,
1799999993828306265,2027-01-15T07:59:53.828306265Z,-0.64,-0.64,2.55,-0.43,-0.43,3.19,2.55,2.77,4.89,6.81,5.11,7.02,7.66,6.81,,,,,,,,,,,,,,
1799999993839907193,2027-01-15T07:59:53.839907193Z,0.85,-0.43,2.34,-1.06,-0.85,2.55,2.98,3.62,5.96,5.96,5.32,6.81,6.60,6.81,,,,,,,,,,,,,,
1799999993851508121,2027-01-15T07:59:53.851508121Z,0.00,0.85,2.13,-1.49,0.85,1.70,3.19,4.04,5.32,3.83,6.81,7.02,4.26,7.02,,,,,,,,,,,,,,
1799999993863109049,2027-01-15T07:59:53.863109049Z,-0.64,0.00,2.34,-0.64,0.43,1.06,2.77,3.62,4.47,5.74,6.81,7.23,4.47,6.81,,,,,,,,,,,,,,
1799999993874709977,2027-01-15T07:59:53.874709977Z,1.49,-0.64,0.64,-0.21,1.70,2.13,2.77,2.98,2.55,4.68,5.96,7.66,8.30,7.87,,,,,,,,,,,,,,
1799999993886310905,2027-01-15T07:59:53.886310905Z,1.06,-1.91,0.64,0.43,2.77,1.91,2.34,3.19,3.62,4.04,5.74,5.96,8.94,8.51,,,,,,,,,,,,,,
1799999993897911833,2027-01-15T07:59:53.897911833Z,-2.34,-2.55,-1.28,0.85,0.43,1.91,2.34,4.47,5.32,4.68,5.96,4.04,5.53,7.23,,,,,,,,,,,,,,
1799999993909512762,2027-01-15T07:59:53.909512762Z,-3.40,-2.34,-1.49,1.28,0.00,2.13,1.70,4.68,5.32,1.70,6.60,5.32,5.96,7.66,,,,,,,,,,,,,,
1799999993921113690,2027-01-15T07:59:53.921113690Z,-2.13,0.21,-0.85,1.28,1.91,1.70,2.34,3.40,5.32,4.68,6.38,7.66,8.51,6.60,,,,,,,,,,,,,,
1799999993932714618,2027-01-15T07:59:53.932714618Z,-1.91,0.43,-0.85,1.49,2.34,1.91,3.19,3.40,5.32,7.66,4.68,7.45,7.45,5.11,,,,,,,,,,,,,,
1799999993944315546,2027-01-15T07:59:53.944315546Z,-0.43,-0.85,0.43,1.28,2.13,1.70,2.13,4.26,3.40,4.26,4.26,7.45,5.74,6.38,,,,,,,,,,,,,,
1799999993955916474,2027-01-15T07:59:53.955916474Z,-0.64,-0.21,0.64,0.64,2.34,0.64,2.55,3.62,2.77,4.89,4.68,6.81,5.96,8.51,,,,,,,,,,,,,,
1799999993967517402,2027-01-15T07:59:53.967517402Z,1.28,0.64,1.91,0.43,2.98,1.91,4.04,3.62,3.19,7.87,7.02,6.17,5.11,10.64,,,,,,,,,,,,,,
1799999993979118330,2027-01-15T07:59:53.979118330Z,0.21,-0.43,1.91,0.21,1.70,1.70,4.47,5.53,2.98,4.47,7.23,6.38,6.81,9.15,,,,,,,,,,,,,,
1799999993990719258,2027-01-15T07:59:53.990719258Z,-0.85,-1.28,1.70,-1.49,1.28,1.70,4.68,4.68,3.40,3.62,7.02,5.11,6.81,8.09,,,,,,,,,,,,,,
1799999994002320186,2027-01-15T07:59:54.002320186Z,0.43,-1.06,1.49,-0.85,2.13,-0.21,4.47,3.40,3.83,6.60,6.38,4.47,5.11,7.02,,,,,,,,,,,,,,
1799999994013921114,2027-01-15T07:59:54.013921114Z,0.00,-1.49,0.85,0.43,2.55,-0.43,4.26,4.68,3.62,5.74,5.53,4.89,5.32,7.87,,,,,,,,,,,,,,
1799999994025522042,2027-01-15T07:59:54.025522042Z,0.43,-0.64,-1.70,-1.06,1.91,3.40,2.98,5.32,4.47,4.04,6.17,5.53,6.38,9.15,,,,,,,,,,,,,,
1799999994037122970,2027-01-15T07:59:54.037122970Z,-0.21,-0.21,-2.55,-0.85,2.34,3.19,2.55,3.40,4.68,4.68,6.17,5.96,5.53,8.51,,,,,,,,,,,,,,
1799999994048723898,2027-01-15T07:59:54.048723898Z,-0.21,-0.85,-2.34,1.28,2.77,1.28,3.19,3.19,5.53,6.17,4.47,7.02,6.81,8.72,,,,,,,,,,,,,,
1799999994060324826,2027-01-15T07:59:54.060324826Z,-0.85,-1.91,-1.70,1.70,3.40,1.28,3.19,4.04,5.96,3.19,4.47,6.38,7.87,8.94,,,,,,,,,,,,,,
1799999994071925755,2027-01-15T07:59:54.071925755Z,-1.49,-1.06,-1.70,2.34,2.34,0.85,3.40,5.11,4.26,1.91,6.38,4.89,7.66,7.66,,,,,,,,,,,,,,
1799999994083526683,2027-01-15T07:59:54.083526683Z,-1.91,0.21,-1.70,2.13,1.70,1.28,2.34,3.62,2.55,3.62,6.38,4.68,6.81,7.02,,,,,,,,,,,,,,
1799999994095127611,2027-01-15T07:59:54.095127611Z,-2.34,0.64,-0.85,2.77,2.77,1.49,0.64,3.19,3.19,5.53,5.11,7.66,6.17,6.81,,,,,,,,,,,,,,
1799999994106728539,2027-01-15T07:59:54.106728539Z,-0.43,0.64,-1.28,1.06,2.13,1.28,0.85,3.19,4.26,3.83,4.47,6.81,5.96,6.60,,,,,,,,,,,,,,
1799999994118329467,2027-01-15T07:59:54.118329467Z,-1.06,0.64,-0.21,-0.43,1.06,2.13,3.40,1.49,3.62,3.62,3.40,5.96,5.32,7.45,,,,,,,,,,,,,,
1799999994129930395,2027-01-15T07:59:54.129930395Z,-0.21,0.00,0.21,-0.21,1.49,1.91,4.04,1.70,3.40,2.55,3.62,6.81,5.74,7.87,,,,,,,,,,,,,,
1799999994141531323,2027-01-15T07:59:54.141531323Z,-2.55,-1.06,-1.70,1.49,1.49,0.43,3.40,2.34,4.04,4.89,4.89,6.60,5.53,8.72,,,,,,,,,,,,,,
1799999994153132251,2027-01-15T07:59:54.153132251Z,-0.64,-2.13,-1.91,2.13,0.64,0.00,3.19,1.28,4.26,6.81,4.89,5.53,4.68,7.66,,,,,,,,,,,,,,
1799999994164733179,2027-01-15T07:59:54.164733179Z,0.21,-3.19,-1.06,0.85,1.06,1.49,2.77,1.49,3.83,3.83,4.26,5.74,6.38,7.66,,,,,,,,,,,,,,
1799999994176334107,2027-01-15T07:59:54.176334107Z,0.85,-1.70,-1.70,1.28,1.28,2.55,2.34,2.13,4.68,4.89,5.53,5.74,7.02,7.66,,,,,,,,,,,,,,
1799999994187935035,2027-01-15T07:59:54.187935035Z,1.28,0.85,-2.34,1.28,-0.21,3.62,3.62,2.13,4.89,5.96,7.02,4.89,7.66,8.30,,,,,,,,,,,,,,
1799999994199535963,2027-01-15T07:59:54.199535963Z,-1.49,-0.43,-0.43,1.06,-0.64,2.98,3.19,2.77,4.68,4.89,7.23,5.53,8.30,8.09,,,,,,,,,,,,,,
1799999994211136891,2027-01-15T07:59:54.211136891Z,0.43,0.43,0.64,1.91,0.85,1.49,2.55,3.62,4.89,4.04,7.02,5.74,7.66,6.81,,,,,,,,,,,,,,
1799999994222737820,2027-01-15T07:59:54.222737820Z,0.00,0.00,0.00,2.34,2.13,1.70,3.62,2.77,4.68,5.74,6.17,6.38,5.32,6.81,,,,,,,,,,,,,,
1799999994234338748,2027-01-15T07:59:54.234338748Z,-1.28,-0.64,-1.49,2.55,2.55,2.98,3.40,2.55,5.11,3.83,4.89,7.66,6.38,7.23,,,,,,,,,,,,,,
1799999994245939676,2027-01-15T07:59:54.245939676Z,-1.49,0.00,-1.28,1.91,2.77,2.34,3.40,2.34,5.11,2.98,5.53,7.45,7.23,6.60,,,,,,,,,,,,,,
1799999994257540604,2027-01-15T07:59:54.257540604Z,-0.43,-0.21,0.21,0.21,1.28,1.49,3.19,2.55,4.04,2.98,6.81,6.60,7.45,7.23,,,,,,,,,,,,,,
1799999994269141532,2027-01-15T07:59:54.269141532Z,-1.28,-1.28,1.06,0.21,0.85,2.34,3.19,2.98,4.68,2.98,7.45,6.38,7.45,7.45,,,,,,,,,,,,,,
1799999994280742460,2027-01-15T07:59:54.280742460Z,0.43,-2.13,1.70,1.28,1.28,3.83,3.62,2.34,3.40,5.96,5.32,7.23,6.60,6.81,,,,,,,,,,,,,,
1799999994292343388,2027-01-15T07:59:54.292343388Z,0.64,-1.70,2.13,1.70,0.43,2.77,4.26,2.13,2.98,5.74,4.04,7.66,7.45,6.38,,,,,,,,,,,,,,
1799999994303944316,2027-01-15T07:59:54.303944316Z,-0.21,-1.91,1.06,0.21,1.06,1.28,3.40,0.64,5.32,3.19,5.74,7.02,9.15,4.89,,,,,,,,,,,,,,
1799999994315545244,2027-01-15T07:59:54.315545244Z,-0.85,-1.28,0.21,0.43,2.13,0.64,3.40,0.43,4.04,4.04,4.47,6.81,8.51,5.53,,,,,,,,,,,,,,
1799999994327146172,2027-01-15T07:59:54.327146172Z,-1.70,0.00,-1.49,-0.43,0.85,1.91,2.98,2.34,2.34,7.66,3.83,6.38,6.38,7.87,,,,,,,,,,,,,,
1799999994338747100,2027-01-15T07:59:54.338747100Z,-0.85,1.06,-1.70,-1.06,0.85,2.77,2.98,2.98,2.77,7.87,4.26,6.38,6.17,7.87,,,,,,,,,,,,,,
1799999994350348028,2027-01-15T07:59:54.350348028Z,-2.77,0.21,-0.21,0.64,1.49,1.91,1.70,2.98,2.55,7.02,5.53,4.26,6.38,7.87,,,,,,,,,,,,,,
1799999994361948956,2027-01-15T07:59:54.361948956Z,-2.77,-0.43,0.85,0.43,1.49,2.13,0.21,1.28,2.98,5.74,5.96,5.96,6.17,8.09,,,,,,,,,,,,,,
1799999994373549884,2027-01-15T07:59:54.373549884Z,0.21,-0.43,1.28,-0.21,2.55,2.55,1.28,1.70,4.04,4.26,5.74,9.57,6.17,6.81,,,,,,,,,,,,,,
1799999994385150813,2027-01-15T07:59:54.385150813Z,-0.85,0.64,1.06,-0.21,1.70,1.28,3.19,2.13,5.11,4.68,4.26,7.66,6.38,5.74,,,,,,,,,,,,,,
1799999994396751741,2027-01-15T07:59:54.396751741Z,-1.28,0.64,0.64,-0.64,1.70,2.13,2.98,2.34,4.89,4.47,4.47,6.38,6.17,5.32,,,,,,,,,,,,,,
1799999994408352669,2027-01-15T07:59:54.408352669Z,-2.34,-1.49,0.43,-0.85,2.13,2.34,2.77,2.34,2.55,4.04,5.11,6.60,7.87,5.74,,,,,,,,,,,,,,
1799999994419953597,2027-01-15T07:59:54.419953597Z,1.91,-1.49,0.43,0.64,1.91,1.70,2.77,2.98,2.13,2.77,4.68,6.38,7.87,6.60,,,,,,,,,,,,,,
1799999994431554525,2027-01-15T07:59:54.431554525Z,1.28,1.06,-0.21,-0.21,2.13,1.28,2.34,3.40,4.26,2.34,4.68,5.96,6.81,5.74,,,,,,,,,,,,,,
1799999994443155453,2027-01-15T07:59:54.443155453Z,-2.34,0.43,-0.64,-1.06,1.91,1.06,1.28,2.77,4.89,4.47,4.68,5.74,5.74,5.32,,,,,,,,,,,,,,
1799999994454756381,2027-01-15T07:59:54.454756381Z,-1.91,0.00,-2.13,1.70,1.06,1.49,2.34,2.98,5.53,5.53,3.83,5.74,5.74,7.02,,,,,,,,,,,,,,
1799999994466357309,2027-01-15T07:59:54.466357309Z,-0.43,0.64,-0.85,2.77,1.70,1.49,1.49,3.40,4.89,4.47,4.68,5.96,6.81,8.09,,,,,,,,,,,,,,
1799999994477958237,2027-01-15T07:59:54.477958237Z,-0.64,1.06,0.64,1.28,2.13,1.91,2.55,3.83,3.62,4.26,5.32,4.47,6.60,6.81,,,,,,,,,,,,,,
1799999994489559165,2027-01-15T07:59:54.489559165Z,-2.77,1.28,0.21,0.21,1.06,2.13,4.47,2.77,2.55,5.96,5.11,6.17,6.38,6.81,,,,,,,,,,,,,,
1799999994501160093,2027-01-15T07:59:54.501160093Z,-2.34,1.06,-0.64,0.43,0.21,2.13,3.40,2.34,3.40,2.13,7.45,8.51,5.11,7.66,,,,,,,,,,,,,,
1799999994512761021,2027-01-15T07:59:54.512761021Z,-2.77,0.21,-0.43,0.85,0.64,2.77,3.40,2.98,5.11,2.55,6.60,7.45,5.53,8.30,,,,,,,,,,,,,,
1799999994524361949,2027-01-15T07:59:54.524361949Z,-2.77,-1.70,-0.21,1.49,0.21,1.28,3.83,4.89,2.77,5.74,4.26,5.74,6.81,8.72,,,,,,,,,,,,,,
1799999994535962878,2027-01-15T07:59:54.535962878Z,-2.77,-1.70,-0.64,0.43,-0.43,2.77,4.04,4.68,2.13,5.53,4.47,5.53,7.66,7.66,,,,,,,,,,,,,,
1799999994547563806,2027-01-15T07:59:54.547563806Z,-0.85,-0.21,-1.28,1.49,1.06,4.26,3.40,3.83,3.19,5.74,5.53,5.74,7.23,7.45,,,,,,,,,,,,,,
1799999994559164734,2027-01-15T07:59:54.559164734Z,-1.28,-0.85,-1.06,1.70,1.28,2.55,2.55,3.40,2.98,6.60,6.81,5.74,5.96,8.09,,,,,,,,,,,,,,
1799999994570765662,2027-01-15T07:59:54.570765662Z,-1.49,-1.91,0.64,-0.21,0.00,0.43,1.06,5.53,3.40,4.68,6.17,6.17,4.68,7.23,,,,,,,,,,,,,,
1799999994582366590,2027-01-15T07:59:54.582366590Z,-1.91,-1.70,0.43,-0.85,-0.43,0.64,1.91,5.74,4.04,5.11,4.47,6.81,4.04,7.23,,,,,,,,,,,,,,
1799999994593967518,2027-01-15T07:59:54.593967518Z,-0.43,0.43,-0.85,-0.64,1.91,2.34,2.77,3.62,3.62,5.96,2.55,6.38,5.32,7.45,,,,,,,,,,,,,,
1799999994605568446,2027-01-15T07:59:54.605568446Z,-0.21,1.28,-0.64,0.00,1.91,2.77,2.55,1.91,4.47,5.96,3.83,6.60,5.32,7.45,,,,,,,,,,,,,,
1799999994617169374,2027-01-15T07:59:54.617169374Z,-0.21,0.21,-0.21,1.06,-0.21,3.40,2.34,2.34,5.32,5.32,6.81,5.11,5.96,7.45,,,,,,,,,,,,,,
1799999994628770302,2027-01-15T07:59:54.628770302Z,-0.64,-1.28,-0.64,0.64,-0.21,2.34,3.19,3.19,4.89,5.11,7.45,4.26,7.23,7.23,,,,,,,,,,,,,,
1799999994640371230,2027-01-15T07:59:54.640371230Z,-0.64,-2.34,-1.70,-1.70,0.64,0.21,2.55,4.26,4.89,4.89,2.55,6.17,8.72,8.72,,,,,,,,,,,,,,
1799999994651972158,2027-01-15T07:59:54.651972158Z,0.21,-1.91,-1.49,-2.77,1.28,1.70,2.55,4.68,5.74,4.68,2.98,7.23,7.45,8.30,,,,,,,,,,,,,,
1799999994663573086,2027-01-15T07:59:54.663573086Z,-2.77,-1.49,0.85,-3.19,1.91,2.98,3.19,5.96,5.32,5.32,5.96,6.17,5.11,6.60,,,,,,,,,,,,,,
1799999994675174014,2027-01-15T07:59:54.675174014Z,-2.34,-0.43,-0.21,-3.19,2.55,1.70,4.04,4.68,6.17,7.02,5.32,5.74,4.89,6.38,,,,,,,,,,,,,,
1799999994686774942,2027-01-15T07:59:54.686774942Z,-0.43,1.06,-1.06,-1.06,1.28,3.40,4.89,2.34,4.04,5.32,5.96,5.96,6.38,6.60,,,,,,,,,,,,,,
1799999994698375871,2027-01-15T07:59:54.698375871Z,-0.64,0.21,0.21,0.00,0.64,2.77,4.89,2.34,2.13,4.26,5.32,6.17,6.60,6.17,,,,,,,,,,,,,,
1799999994709976799,2027-01-15T07:59:54.709976799Z,0.00,-0.64,0.64,-0.43,1.91,1.70,3.83,1.91,1.28,3.83,4.26,4.47,6.81,4.89,,,,,,,,,,,,,,
1799999994721577727,2027-01-15T07:59:54.721577727Z,-0.43,0.00,0.64,0.21,2.34,2.13,2.77,3.40,1.06,3.19,5.32,4.47,7.23,5.32,,,,,,,,,,,,,,
1799999994733178655,2027-01-15T07:59:54.733178655Z,-1.28,-1.28,-0.64,1.06,0.43,2.34,2.77,5.32,2.34,2.34,7.45,5.32,5.32,7.45,,,,,,,,,,,,,,
1799999994744779583,2027-01-15T07:59:54.744779583Z,-1.06,-2.77,-0.43,1.06,0.21,1.70,3.19,4.26,2.55,4.04,6.38,6.38,5.32,7.87,,,,,,,,,,,,,,
1799999994756380511,2027-01-15T07:59:54.756380511Z,-1.06,-2.55,1.91,1.28,0.85,1.49,3.40,3.62,4.89,6.60,5.96,7.66,8.94,8.94,,,,,,,,,,,,,,
1799999994767981439,2027-01-15T07:59:54.767981439Z,-1.28,-1.70,2.55,1.28,1.28,1.06,2.55,4.04,6.17,5.74,6.60,7.02,8.30,9.36,,,,,,,,,,,,,,
1799999994779582367,2027-01-15T07:59:54.779582367Z,,1.06,0.85,1.28,1.06,1.49,1.70,3.40,5.32,4.04,5.53,6.17,5.32,8.51,,,,,,,,,,,,,,
1799999994791183295,2027-01-15T07:59:54.791183295Z,,1.91,0.00,1.06,1.06,2.34,1.49,3.19,4.04,3.83,6.81,6.60,5.96,8.72,,,,,,,,,,,,,,
1799999994802784223,2027-01-15T07:59:54.802784223Z,-1.91,-0.43,-1.49,0.43,1.70,2.77,0.64,4.04,2.34,4.47,8.94,5.53,7.23,8.30,,,,,,,,,,,,,,
1799999994814385151,2027-01-15T07:59:54.814385151Z,-0.85,-1.06,-2.13,0.43,4.26,1.91,1.91,2.98,3.62,3.40,6.81,6.17,6.81,6.38,,,,,,,,,,,,,,
1799999994825986079,2027-01-15T07:59:54.825986079Z,-1.70,-1.28,-1.28,0.64,4.68,1.91,2.77,2.34,4.04,2.34,5.32,6.38,6.81,7.45,,,,,,,,,,,,,,
1799999994837587007,2027-01-15T07:59:54.837587007Z,-0.43,-1.91,0.21,2.34,1.91,1.70,3.40,2.34,3.19,2.34,3.83,5.11,6.81,7.66,,,,,,,,,,,,,,
1799999994849187936,2027-01-15T07:59:54.849187936Z,0.64,-0.21,0.21,2.13,1.49,1.06,4.04,2.34,3.19,3.40,5.11,5.96,6.81,7.45,,,,,,,,,,,,,,
1799999994860788864,2027-01-15T07:59:54.860788864Z,-0.21,0.00,-1.28,1.70,0.21,1.91,2.55,0.64,3.83,5.96,7.02,7.66,8.09,9.15,,,,,,,,,,,,,,
1799999994872389792,2027-01-15T07:59:54.872389792Z,-0.21,-0.64,-2.13,2.13,-1.06,2.55,3.19,0.64,2.98,6.17,7.02,6.60,8.30,8.51,,,,,,,,,,,,,,
1799999994883990720,2027-01-15T07:59:54.883990720Z,-0.21,-1.70,-0.85,1.70,0.43,2.55,4.47,2.34,2.98,4.26,6.81,5.32,7.66,7.45,,,,,,,,,,,,,,
1799999994895591648,2027-01-15T07:59:54.895591648Z,-0.21,-0.64,0.64,1.49,0.43,2.13,3.62,2.34,4.04,4.26,6.38,5.32,7.66,8.30,,,,,,,,,,,,,,
1799999994907192576,2027-01-15T07:59:54.907192576Z,-0.43,1.70,0.00,1.49,1.06,3.19,2.55,1.91,5.53,6.38,6.17,5.74,6.60,6.60,,,,,,,,,,,,,,
1799999994918793504,2027-01-15T07:59:54.918793504Z,-0.64,1.91,-0.64,1.49,1.70,3.62,2.34,1.91,4.89,5.11,5.32,6.17,6.17,6.38,,,,,,,,,,,,,,
1799999994930394432,2027-01-15T07:59:54.930394432Z,0.00,-0.64,-0.64,1.49,2.55,3.83,2.77,2.34,4.68,3.19,5.11,7.66,7.23,4.89,,,,,,,,,,,,,,
1799999994941995360,2027-01-15T07:59:54.941995360Z,0.43,-1.28,0.85,1.28,2.34,2.77,3.40,1.91,4.26,3.83,5.11,7.23,7.87,4.26,,,,,,,,,,,,,,
1799999994953596288,2027-01-15T07:59:54.953596288Z,-0.64,-1.70,0.64,1.70,0.64,1.49,3.83,2.77,1.91,3.40,4.89,4.68,8.51,5.96,,,,,,,,,,,,,,
1799999994965197216,2027-01-15T07:59:54.965197216Z,0.00,-1.06,0.21,1.49,0.85,1.49,3.62,3.83,0.85,3.83,5.11,4.89,7.23,6.38,,,,,,,,,,,,,,
1799999994976798144,2027-01-15T07:59:54.976798144Z,0.43,-1.28,-1.49,1.28,0.64,1.28,1.49,1.91,2.34,3.62,5.74,5.96,4.89,6.17,,,,,,,,,,,,,,
1799999994988399072,2027-01-15T07:59:54.988399072Z,-1.91,-1.06,-2.13,1.49,0.85,0.85,0.64,1.91,2.77,3.83,4.89,5.96,4.68,6.81,,,,,,,,,,,,,,
1799999995000000000,2027-01-15T07:59:55.000000000Z,-1.06,1.49,-0.43,0.43,1.49,1.91,-0.85,2.77,4.04,3.83,4.89,7.23,7.02,7.66,,,,,,,,,,,,,,
1799999995011600929,2027-01-15T07:59:55.011600929Z,-1.70,1.28,-0.21,0.43,1.49,2.13,0.85,2.98,4.68,4.47,5.53,6.60,7.23,8.30,,,,,,,,,,,,,,
1799999995023201857,2027-01-15T07:59:55.023201857Z,-2.13,-0.43,-0.43,0.64,2.13,2.34,3.19,4.47,3.62,5.96,6.17,5.96,6.17,7.45,,,,,,,,,,,,,,
1799999995034802785,2027-01-15T07:59:55.034802785Z,-0.43,0.21,0.64,1.28,1.91,3.19,3.62,4.89,4.04,5.32,4.89,6.60,6.81,6.60,,,,,,,,,,,,,,
1799999995046403713,2027-01-15T07:59:55.046403713Z,-0.21,0.43,1.06,0.43,0.64,1.70,1.28,4.89,4.89,4.68,3.40,6.81,6.81,6.17,,,,,,,,,,,,,,
1799999995058004641,2027-01-15T07:59:55.058004641Z,-0.43,-0.21,0.21,-0.85,0.21,1.28,0.64,4.04,5.32,5.53,3.83,5.96,5.53,6.38,,,,,,,,,,,,,,
1799999995069605569,2027-01-15T07:59:55.069605569Z,-0.43,-0.64,-0.21,0.21,-0.64,0.21,1.49,2.55,5.53,5.11,5.96,5.74,5.53,7.66,,,,,,,,,,,,,,
1799999995081206497,2027-01-15T07:59:55.081206497Z,1.28,-0.21,-0.85,1.70,0.64,2.34,1.06,2.34,4.68,4.04,6.17,5.11,6.60,7.66,,,,,,,,,,,,,,
1799999995092807425,2027-01-15T07:59:55.092807425Z,1.28,-1.06,-1.49,1.28,1.91,2.55,0.85,4.04,3.40,5.32,4.47,5.53,5.74,8.30,,,,,,,,,,,,,,
1799999995104408353,2027-01-15T07:59:55.104408353Z,-0.64,-1.06,-0.64,0.00,0.43,1.91,1.49,3.19,3.62,6.38,5.11,6.38,5.96,8.72,,,,,,,,,,,,,,
1799999995116009281,2027-01-15T07:59:55.116009281Z,-1.06,-2.13,0.64,-0.21,0.43,0.85,1.91,3.40,3.62,4.89,6.17,6.17,5.96,7.23,,,,,,,,,,,,,,
1799999995127610209,2027-01-15T07:59:55.127610209Z,-0.43,-1.49,0.85,-0.64,0.00,1.49,2.34,3.83,3.19,4.68,6.38,5.74,4.68,6.81,,,,,,,,,,,,,,
1799999995139211137,2027-01-15T07:59:55.139211137Z,-0.85,0.00,2.55,0.43,-0.64,1.91,3.40,2.55,5.11,3.62,5.96,5.53,5.74,5.53,,,,,,,,,,,,,,
1799999995150812065,2027-01-15T07:59:55.150812065Z,-1.06,0.21,2.77,0.64,-0.21,2.77,3.62,2.77,5.74,4.47,5.53,6.17,6.60,5.32,,,,,,,,,,,,,,
1799999995162412994,2027-01-15T07:59:55.162412994Z,-1.28,0.00,1.91,-0.43,1.06,2.77,2.55,2.98,4.26,5.96,5.96,5.96,6.17,7.87,,,,,,,,,,,,,,
1799999995174013922,2027-01-15T07:59:55.174013922Z,-1.49,-1.06,0.21,0.43,1.91,2.34,2.55,3.19,3.19,5.53,6.17,6.38,5.74,7.66,,,,,,,,,,,,,,
1799999995185614850,2027-01-15T07:59:55.185614850Z,-1.49,-0.85,0.21,-0.43,2.13,2.34,4.04,3.83,3.62,4.68,5.74,7.87,7.02,6.81,,,,,,,,,,,,,,
1799999995197215778,2027-01-15T07:59:55.197215778Z,-0.85,-0.43,-0.64,-2.13,1.06,1.91,4.89,4.47,4.04,4.47,5.53,7.45,7.23,7.23,,,,,,,,,,,,,,
1799999995208816706,2027-01-15T07:59:55.208816706Z,-0.85,0.43,-0.85,-1.06,1.28,0.85,5.32,5.11,4.26,4.04,5.11,5.96,6.38,5.96,,,,,,,,,,,,,,
1799999995220417634,2027-01-15T07:59:55.220417634Z,-0.85,-1.28,-2.13,-0.64,1.06,0.64,3.83,2.98,2.98,4.47,5.11,5.32,6.38,4.89,,,,,,,,,,,,,,
1799999995232018562,2027-01-15T07:59:55.232018562Z,-0.85,-0.85,-2.13,-0.64,1.49,0.21,2.77,2.55,3.62,5.32,5.53,5.53,6.60,5.53,,,,,,,,,,,,,,
1799999995243619490,2027-01-15T07:59:55.243619490Z,-1.28,-1.49,-1.28,-0.21,2.13,0.00,2.13,2.34,4.89,5.74,5.74,6.17,6.81,7.23,,,,,,,,,,,,,,
1799999995255220418,2027-01-15T07:59:55.255220418Z,-1.28,-2.13,0.00,0.21,2.55,0.43,2.34,2.13,4.89,4.89,5.53,7.02,4.89,7.87,,,,,,,,,,,,,,
1799999995266821346,2027-01-15T07:59:55.266821346Z,-1.06,0.85,-0.43,1.28,3.83,1.49,2.77,3.19,4.26,5.11,4.89,7.02,4.04,8.09,,,,,,,,,,,,,,
1799999995278422274,2027-01-15T07:59:55.278422274Z,,0.21,-0.64,1.91,2.34,2.55,2.77,2.98,4.26,4.47,4.47,6.60,4.89,7.66,,,,,,,,,,,,,,
1799999995290023202,2027-01-15T07:59:55.290023202Z,-0.21,-0.21,0.00,1.91,1.06,2.98,1.91,2.34,4.68,4.47,5.53,6.81,7.02,7.45,,,,,,,,,,,,,,
1799999995301624130,2027-01-15T07:59:55.301624130Z,0.00,1.06,1.06,1.06,1.70,2.55,1.28,2.77,5.74,5.11,5.53,7.45,6.60,7.02,,,,,,,,,,,,,,
1799999995313225059,2027-01-15T07:59:55.313225059Z,-0.43,-0.43,1.06,0.21,1.70,2.55,0.85,3.19,6.38,4.89,4.89,7.45,6.81,7.02,,,,,,,,,,,,,,
1799999995324825987,2027-01-15T07:59:55.324825987Z,-3.19,-0.64,-0.64,0.00,1.91,2.34,2.34,3.83,5.74,4.26,5.11,7.23,7.45,6.81,,,,,,,,,,,,,,
1799999995336426915,2027-01-15T07:59:55.336426915Z,-5.11,-2.34,-0.85,1.28,0.85,1.91,2.77,4.68,3.62,4.47,6.17,7.23,6.38,6.81,,,,,,,,,,,,,,
1799999995348027843,2027-01-15T07:59:55.348027843Z,-5.11,-2.55,-0.43,1.70,-0.21,1.70,2.77,3.62,3.40,5.11,5.96,6.17,5.11,7.02,,,,,,,,,,,,,,
1799999995359628771,2027-01-15T07:59:55.359628771Z,-2.77,-2.55,-1.49,0.43,0.43,1.49,3.19,2.34,3.62,5.53,4.68,6.17,6.60,7.87,,,,,,,,,,,,,,
1799999995371229699,2027-01-15T07:59:55.371229699Z,-2.77,-1.91,-1.70,-0.43,1.28,1.28,3.83,2.98,4.68,4.47,3.83,6.38,6.60,7.66,,,,,,,,,,,,,,
1799999995382830627,2027-01-15T07:59:55.382830627Z,-2.13,-0.64,-0.85,-1.06,1.49,1.06,3.62,4.04,3.83,3.62,3.62,7.02,7.02,7.23,,,,,,,,,,,,,,
1799999995394431555,2027-01-15T07:59:55.394431555Z,-1.06,-0.21,-0.64,-1.28,0.85,1.49,1.91,3.62,2.98,3.19,3.83,7.45,7.45,7.45,,,,,,,,,,,,,,
1799999995406032483,2027-01-15T07:59:55.406032483Z,-1.06,0.00,-0.21,-0.85,-0.43,2.34,2.77,2.34,2.13,6.38,4.47,8.09,7.02,6.81,,,,,,,,,,,,,,
1799999995417633411,2027-01-15T07:59:55.417633411Z,-1.06,-0.64,-0.64,-0.85,0.00,2.55,3.83,1.49,2.77,7.66,4.68,8.09,7.45,6.17,,,,,,,,,,,,,,
1799999995429234339,2027-01-15T07:59:55.429234339Z,-2.34,-0.85,0.85,0.00,1.91,2.34,3.19,2.34,3.19,4.47,4.68,5.96,7.87,7.45,,,,,,,,,,,,,,
1799999995440835267,2027-01-15T07:59:55.440835267Z,-2.13,0.00,1.28,0.00,0.85,2.55,1.49,3.19,4.04,3.62,4.47,4.89,7.45,8.09,,,,,,,,,,,,,,
1799999995452436195,2027-01-15T07:59:55.452436195Z,-2.98,1.49,-0.43,1.70,-0.43,2.55,1.91,3.40,3.62,4.47,6.38,6.17,6.81,8.72,,,,,,,,,,,,,,
1799999995464037123,2027-01-15T07:59:55.464037123Z,-2.55,0.21,-0.85,2.34,1.28,1.91,3.19,3.40,2.77,4.68,7.23,7.23,5.74,9.15,,,,,,,,,,,,,,
1799999995475638052,2027-01-15T07:59:55.475638052Z,-1.28,-0.64,-0.64,1.06,3.62,2.55,5.96,1.70,1.91,5.74,5.74,5.96,5.96,9.15,,,,,,,,,,,,,,
1799999995487238980,2027-01-15T07:59:55.487238980Z,-0.85,0.43,-0.43,1.49,2.34,1.91,5.53,0.85,2.55,4.47,4.47,4.26,6.81,8.09,,,,,,,,,,,,,,
1799999995498839908,2027-01-15T07:59:55.498839908Z,-0.43,0.85,-0.64,1.28,0.64,2.98,3.62,2.13,4.89,4.04,4.47,4.68,7.66,7.23,,,,,,,,,,,,,,
1799999995510440836,2027-01-15T07:59:55.510440836Z,-0.64,0.21,-0.85,0.43,1.28,3.40,2.98,2.55,5.32,4.68,4.47,5.11,7.02,7.66,,,,,,,,,,,,,,
1799999995522041764,2027-01-15T07:59:55.522041764Z,-0.21,-1.28,-0.64,1.49,2.13,0.85,3.83,3.19,3.62,4.68,5.32,5.11,5.32,7.45,,,,,,,,,,,,,,
1799999995533642692,2027-01-15T07:59:55.533642692Z,-0.64,-0.64,-0.85,1.06,2.34,0.64,3.83,3.62,2.13,3.40,4.89,4.47,4.89,7.02,,,,,,,,,,,,,,
1799999995545243620,2027-01-15T07:59:55.545243620Z,-0.21,-0.85,-0.43,0.64,1.70,2.98,2.77,3.83,3.19,5.11,4.47,5.53,6.17,5.74,,,,,,,,,,,,,,
1799999995556844548,2027-01-15T07:59:55.556844548Z,-1.06,-0.85,0.00,1.28,1.49,3.40,2.55,3.19,3.83,5.53,5.32,5.96,6.17,7.23,,,,,,,,,,,,,,
1799999995568445476,2027-01-15T07:59:55.568445476Z,-0.43,-0.43,-1.70,1.06,0.43,1.70,3.62,4.26,4.89,2.77,6.17,6.38,7.66,9.15,,,,,,,,,,,,,,
1799999995580046404,2027-01-15T07:59:55.580046404Z,-0.43,-0.85,-2.34,0.64,-0.21,0.85,3.62,4.04,5.11,2.34,5.32,5.96,7.02,8.30,,,,,,,,,,,,,,
1799999995591647332,2027-01-15T07:59:55.591647332Z,-0.21,-1.28,-1.70,0.21,1.06,1.49,1.49,4.04,3.40,5.32,5.74,5.96,5.32,7.02,,,,,,,,,,,,,,
1799999995603248260,2027-01-15T07:59:55.603248260Z,0.43,0.43,-1.70,-0.21,1.49,1.91,1.06,4.26,3.40,4.47,6.17,6.17,5.32,7.87,,,,,,,,,,,,,,
1799999995614849188,2027-01-15T07:59:55.614849188Z,0.00,0.85,-0.43,1.06,1.91,1.49,3.19,2.77,4.26,5.11,5.32,6.17,4.89,8.30,,,,,,,,,,,,,,
1799999995626450117,2027-01-15T07:59:55.626450117Z,0.85,-0.85,0.21,2.13,1.06,1.70,3.19,2.55,4.26,6.38,4.89,6.60,5.53,7.66,,,,,,,,,,,,,,
1799999995638051045,2027-01-15T07:59:55.638051045Z,-0.85,-3.19,0.21,2.55,0.85,1.91,2.98,2.98,4.26,4.04,5.74,6.81,6.60,7.23,,,,,,,,,,,,,,
1799999995649651973,2027-01-15T07:59:55.649651973Z,0.43,0.00,1.91,2.13,3.19,3.62,2.55,3.40,2.77,5.11,6.17,5.11,6.38,7.02,,,,,,,,,,,,,,
1799999995661252901,2027-01-15T07:59:55.661252901Z,-0.64,1.70,2.13,1.49,2.77,4.26,2.13,3.40,3.19,5.74,6.60,4.47,6.60,6.60,,,,,,,,,,,,,,
1799999995672853829,2027-01-15T07:59:55.672853829Z,-1.28,-0.21,0.64,0.43,3.19,2.77,2.13,2.13,5.11,3.40,5.32,5.11,5.74,5.74,,,,,,,,,,,,,,
1799999995684454757,2027-01-15T07:59:55.684454757Z,-2.34,-0.43,0.64,1.28,3.83,2.77,2.13,1.70,3.83,3.40,4.68,5.74,5.96,6.38,,,,,,,,,,,,,,
1799999995696055685,2027-01-15T07:59:55.696055685Z,1.28,-0.85,-0.85,1.70,1.28,3.62,1.91,2.34,1.70,4.04,4.89,6.38,6.17,7.02,,,,,,,,,,,,,,
1799999995707656613,2027-01-15T07:59:55.707656613Z,0.85,-1.06,-1.70,0.43,0.85,3.62,2.34,3.40,2.34,3.40,5.74,5.96,5.11,7.45,,,,,,,,,,,,,,
1799999995719257541,2027-01-15T07:59:55.719257541Z,0.85,-0.85,0.00,-0.43,2.34,3.62,3.19,3.19,4.04,1.91,5.96,4.68,4.89,8.30,,,,,,,,,,,,,,
1799999995730858469,2027-01-15T07:59:55.730858469Z,-0.43,0.00,-0.43,-0.43,1.70,3.83,3.19,2.77,4.26,2.77,6.17,4.47,5.53,8.30,,,,,,,,,,,,,,
1799999995742459397,2027-01-15T07:59:55.742459397Z,-0.21,-1.91,0.85,-1.49,2.98,4.26,2.77,2.98,4.04,5.11,5.74,6.60,7.02,7.23,,,,,,,,,,,,,,
1799999995754060325,2027-01-15T07:59:55.754060325Z,-0.43,-2.34,1.70,-0.64,4.04,4.47,2.77,3.62,4.26,4.47,4.89,7.23,7.23,6.60,,,,,,,,,,,,,,
1799999995765661253,2027-01-15T07:59:55.765661253Z,-3.40,-0.64,0.00,1.49,4.26,2.77,2.55,2.77,5.32,4.89,4.26,7.02,7.66,6.81,,,,,,,,,,,,,,
1799999995777262181,2027-01-15T07:59:55.777262181Z,-3.19,0.00,0.00,1.06,3.83,1.28,2.98,2.98,6.17,6.17,4.68,7.23,6.81,6.81,,,,,,,,,,,,,,
1799999995788863110,2027-01-15T07:59:55.788863110Z,-1.28,0.64,-0.43,1.70,2.77,0.85,5.11,2.98,6.38,4.04,5.53,6.60,6.60,6.38,,,,,,,,,,,,,,
1799999995800464038,2027-01-15T07:59:55.800464038Z,-1.70,1.06,-0.43,2.34,1.49,1.06,4.68,2.55,3.83,4.04,5.32,7.45,7.23,5.74,,,,,,,,,,,,,,
1799999995812064966,2027-01-15T07:59:55.812064966Z,-1.70,-0.21,-0.21,0.64,-0.21,1.06,3.19,2.77,1.49,5.74,5.96,7.45,8.72,6.38,,,,,,,,,,,,,,
1799999995823665894,2027-01-15T07:59:55.823665894Z,-1.49,-0.43,-0.21,-1.06,0.00,1.70,2.34,2.55,1.91,5.11,4.68,6.81,8.09,7.02,,,,,,,,,,,,,,
1799999995835266822,2027-01-15T07:59:55.835266822Z,-0.21,-0.43,-0.64,-0.21,-1.06,1.06,1.70,3.83,3.62,5.53,5.11,6.60,6.60,7.87,,,,,,,,,,,,,,
1799999995846867750,2027-01-15T07:59:55.846867750Z,-0.21,-0.21,0.64,0.00,-0.85,-0.43,1.49,3.62,3.83,5.96,5.74,6.81,6.60,8.09,,,,,,,,,,,,,,
1799999995858468678,2027-01-15T07:59:55.858468678Z,0.00,0.64,-0.64,-0.43,-1.49,0.43,1.49,3.40,4.26,4.47,4.89,6.38,7.02,7.45,,,,,,,,,,,,,,
1799999995870069606,2027-01-15T07:59:55.870069606Z,-0.64,0.43,-0.43,0.21,0.00,0.43,1.91,2.55,3.40,4.89,4.47,5.74,6.60,7.45,,,,,,,,,,,,,,
1799999995881670534,2027-01-15T07:59:55.881670534Z,0.64,-0.21,-1.49,-0.21,2.77,0.64,2.77,2.55,4.68,6.17,4.89,5.53,6.81,8.30,,,,,,,,,,,,,,
1799999995893271462,2027-01-15T07:59:55.893271462Z,-1.28,-0.43,-1.70,0.85,2.77,0.64,2.77,2.98,4.89,5.53,4.47,5.53,7.66,8.30,,,,,,,,,,,,,,
1799999995904872390,2027-01-15T07:59:55.904872390Z,-1.49,-0.85,0.21,1.70,5.11,1.49,4.89,1.70,4.04,5.53,4.89,5.53,7.45,7.45,,,,,,,,,,,,,,
1799999995916473318,2027-01-15T07:59:55.916473318Z,1.28,-1.91,0.64,1.91,3.62,2.34,5.11,1.28,3.19,5.74,4.47,5.53,6.60,7.02,,,,,,,,,,,,,,
1799999995928074246,2027-01-15T07:59:55.928074246Z,-0.43,-2.98,0.21,2.77,1.70,1.28,3.62,2.34,4.04,5.74,3.83,6.81,5.96,7.87,,,,,,,,,,,,,,
1799999995939675175,2027-01-15T07:59:55.939675175Z,-0.43,-2.55,0.21,2.34,1.49,0.85,2.34,1.91,3.62,5.32,3.83,6.81,6.17,7.66,,,,,,,,,,,,,,
1799999995951276103,2027-01-15T07:59:55.951276103Z,-1.06,-0.64,0.21,0.64,1.91,1.28,2.77,2.98,3.62,5.32,2.98,5.96,6.17,6.17,,,,,,,,,,,,,,
1799999995962877031,2027-01-15T07:59:55.962877031Z,0.85,-0.43,0.85,0.21,2.55,1.70,3.40,3.62,3.19,4.47,3.40,6.38,7.02,6.38,,,,,,,,,,,,,,
1799999995974477959,2027-01-15T07:59:55.974477959Z,1.06,-1.28,1.28,0.21,3.83,1.49,3.19,3.40,3.40,4.68,4.47,7.02,8.09,6.60,,,,,,,,,,,,,,
1799999995986078887,2027-01-15T07:59:55.986078887Z,-2.98,-2.13,0.21,0.00,3.40,1.91,2.55,2.77,3.83,5.11,5.11,7.02,7.87,6.38,,,,,,,,,,,,,,
1799999995997679815,2027-01-15T07:59:55.997679815Z,-0.64,-1.91,-1.06,0.21,1.28,1.91,3.19,4.26,4.68,4.68,5.11,6.60,8.94,6.81,,,,,,,,,,,,,,
1799999996009280743,2027-01-15T07:59:56.009280743Z,-0.21,-1.28,-0.43,0.43,-0.64,2.55,3.19,4.89,4.04,4.26,5.11,6.38,8.30,7.45,,,,,,,,,,,,,,
1799999996020881671,2027-01-15T07:59:56.020881671Z,0.21,-0.43,0.00,-0.43,-1.06,2.34,2.55,3.40,4.47,4.47,7.45,7.23,5.53,7.02,,,,,,,,,,,,,,
1799999996032482599,2027-01-15T07:59:56.032482599Z,0.00,-0.43,-0.43,0.43,0.43,1.49,1.91,3.40,4.89,4.04,7.02,7.66,4.04,7.66,,,,,,,,,,,,,,
1799999996044083527,2027-01-15T07:59:56.044083527Z,-4.26,1.70,0.64,2.98,-1.28,0.85,2.13,2.77,3.62,5.11,4.68,8.94,4.89,8.51,,,,,,,,,,,,,,
1799999996055684455,2027-01-15T07:59:56.055684455Z,-0.85,0.00,1.49,2.13,-0.43,1.49,3.40,4.04,1.49,4.89,5.53,8.09,6.81,8.09,,,,,,,,,,,,,,
1799999996067285383,2027-01-15T07:59:56.067285383Z,-0.43,-1.28,1.28,0.21,-0.43,2.13,4.26,4.89,1.49,4.68,5.11,7.02,7.45,7.45,,,,,,,,,,,,,,
1799999996078886311,2027-01-15T07:59:56.078886311Z,0.85,-0.21,-0.64,-2.55,0.64,3.83,3.19,4.68,1.70,3.62,5.96,5.11,6.17,7.02,,,,,,,,,,,,,,
1799999996090487239,2027-01-15T07:59:56.090487239Z,-0.43,-0.21,-1.70,-0.43,1.28,4.47,2.34,5.32,2.55,2.77,6.60,4.26,6.38,7.87,,,,,,,,,,,,,,
1799999996102088168,2027-01-15T07:59:56.102088168Z,-0.85,0.21,-1.28,1.70,1.91,3.83,2.55,6.38,5.11,3.40,7.02,5.32,6.81,9.15,,,,,,,,,,,,,,
1799999996113689096,2027-01-15T07:59:56.113689096Z,-0.64,0.00,-0.85,0.85,1.91,3.19,1.49,5.96,5.74,4.26,7.02,5.96,5.74,8.09,,,,,,,,,,,,,,
1799999996125290024,2027-01-15T07:59:56.125290024Z,-1.28,-1.91,-0.85,-0.64,-0.43,1.91,2.77,4.68,3.62,3.62,6.38,6.60,4.68,7.02,,,,,,,,,,,,,,
1799999996136890952,2027-01-15T07:59:56.136890952Z,-0.64,-1.49,-1.06,-0.43,-1.06,1.28,3.62,4.04,2.98,3.40,6.17,5.74,4.89,6.38,,,,,,,,,,,,,,
1799999996148491880,2027-01-15T07:59:56.148491880Z,-1.49,0.21,-0.43,0.43,0.85,1.70,1.28,2.98,3.83,5.11,6.17,4.26,5.74,7.23,,,,,,,,,,,,,,
1799999996160092808,2027-01-15T07:59:56.160092808Z,-0.85,0.64,0.00,-1.06,1.70,2.55,1.91,3.19,3.83,5.11,6.17,3.83,5.96,7.66,,,,,,,,,,,,,,
1799999996171693736,2027-01-15T07:59:56.171693736Z,-2.55,-0.85,-0.43,-1.49,0.21,2.55,3.83,2.34,5.74,4.89,5.11,5.53,5.96,7.87,,,,,,,,,,,,,,
1799999996183294664,2027-01-15T07:59:56.183294664Z,-2.34,-1.91,-0.43,-1.06,-1.49,2.13,2.98,2.13,5.53,3.62,4.89,6.38,5.74,6.81,,,,,,,,,,,,,,
1799999996194895592,2027-01-15T07:59:56.194895592Z,-0.43,-2.34,-1.28,-2.13,-0.43,2.34,1.91,1.49,4.26,3.62,5.96,5.11,6.60,6.38,,,,,,,,,,,,,,
1799999996206496520,2027-01-15T07:59:56.206496520Z,-1.06,-2.55,-1.06,-1.28,-0.21,2.98,1.49,1.49,4.89,4.89,6.38,4.26,7.02,6.60,,,,,,,,,,,,,,
1799999996218097448,2027-01-15T07:59:56.218097448Z,-1.06,-1.28,-0.21,0.00,-1.70,2.77,1.91,3.40,4.47,6.17,6.38,3.83,7.23,8.51,,,,,,,,,,,,,,
1799999996229698376,2027-01-15T07:59:56.229698376Z,-2.13,-1.49,-0.21,-0.43,-1.49,2.77,1.70,2.77,3.83,5.53,5.53,4.26,7.87,8.30,,,,,,,,,,,,,,
1799999996241299304,2027-01-15T07:59:56.241299304Z,-2.13,-1.06,0.64,-1.91,1.06,2.98,2.13,1.28,3.19,5.32,5.11,4.47,7.23,8.09,,,,,,,,,,,,,,
1799999996252900233,2027-01-15T07:59:56.252900233Z,-2.98,-0.21,-0.85,-0.43,1.28,3.19,4.04,2.13,3.62,5.11,5.53,5.32,5.96,8.30,,,,,,,,,,,,,,
1799999996264501161,2027-01-15T07:59:56.264501161Z,-2.34,-1.49,-1.06,0.85,0.00,3.62,4.47,5.11,3.83,3.83,5.32,5.74,5.53,6.81,,,,,,,,,,,,,,
1799999996276102089,2027-01-15T07:59:56.276102089Z,-0.64,-2.55,-0.21,1.49,1.06,1.70,3.83,5.32,3.62,4.04,5.53,6.17,5.53,6.81,,,,,,,,,,,,,,
1799999996287703017,2027-01-15T07:59:56.287703017Z,-0.85,-3.40,-1.70,2.13,0.43,0.43,1.70,3.62,4.26,5.53,4.89,7.02,6.60,8.51,,,,,,,,,,,,,,
1799999996299303945,2027-01-15T07:59:56.299303945Z,-0.85,-2.34,-1.49,1.91,-1.06,1.06,2.98,3.19,4.04,5.11,4.68,6.38,7.23,7.45,,,,,,,,,,,,,,
1799999996310904873,2027-01-15T07:59:56.310904873Z,1.06,-0.21,-0.21,0.85,1.06,1.91,4.26,4.04,4.47,3.62,4.89,5.53,7.66,7.45,,,,,,,,,,,,,,
1799999996322505801,2027-01-15T07:59:56.322505801Z,-0.43,-0.21,0.64,0.64,2.98,2.98,4.89,4.47,5.11,4.04,4.47,5.53,6.81,7.87,,,,,,,,,,,,,,
1799999996334106729,2027-01-15T07:59:56.334106729Z,-2.34,0.21,0.85,0.85,1.28,2.98,2.13,3.83,3.83,4.89,4.47,5.11,5.74,8.09,,,,,,,,,,,,,,
1799999996345707657,2027-01-15T07:59:56.345707657Z,1.06,0.00,0.21,1.28,0.21,2.34,1.70,3.19,4.04,5.32,5.53,5.96,5.32,7.23,,,,,,,,,,,,,,
1799999996357308585,2027-01-15T07:59:56.357308585Z,-0.43,-0.64,-0.85,1.49,1.06,2.34,4.68,2.13,5.11,4.89,5.96,6.81,5.53,7.87,,,,,,,,,,,,,,
1799999996368909513,2027-01-15T07:59:56.368909513Z,-0.43,-0.43,0.21,1.70,2.55,1.70,3.62,1.49,4.68,4.04,5.53,6.60,5.96,7.02,,,,,,,,,,,,,,
1799999996380510441,2027-01-15T07:59:56.380510441Z,-1.28,-0.21,0.43,0.21,2.13,1.28,1.70,3.19,3.83,3.83,4.26,8.09,6.38,6.60,,,,,,,,,,,,,,
1799999996392111369,2027-01-15T07:59:56.392111369Z,0.00,0.21,0.00,-0.64,1.70,1.28,2.13,4.26,3.62,3.62,4.68,8.09,6.38,7.45,,,,,,,,,,,,,,
1799999996403712297,2027-01-15T07:59:56.403712297Z,-0.43,1.70,-0.21,0.43,3.62,0.85,2.13,2.98,4.04,4.04,6.38,7.87,5.74,8.51,,,,,,,,,,,,,,
1799999996415313226,2027-01-15T07:59:56.415313226Z,-0.43,1.28,-0.43,1.06,4.04,0.43,2.34,1.70,4.68,4.04,5.74,7.23,6.38,7.66,,,,,,,,,,,,,,
1799999996426914154,2027-01-15T07:59:56.426914154Z,-0.21,-0.64,-1.28,1.28,1.70,1.28,4.26,2.34,4.04,6.38,5.11,6.60,5.53,5.74,,,,,,,,,,,,,,
1799999996438515082,2027-01-15T07:59:56.438515082Z,-0.64,-0.85,-0.21,1.91,0.85,2.13,4.04,3.19,4.47,7.02,5.53,5.96,6.38,6.60,,,,,,,,,,,,,,
1799999996450116010,2027-01-15T07:59:56.450116010Z,0.43,0.43,0.00,3.19,2.34,2.98,2.55,2.55,3.62,6.38,5.11,5.53,8.51,7.66,,,,,,,,,,,,,,
1799999996461716938,2027-01-15T07:59:56.461716938Z,0.64,0.64,-1.28,2.77,4.47,2.34,2.34,2.55,3.40,3.83,4.68,5.74,8.30,6.81,,,,,,,,,,,,,,
1799999996473317866,2027-01-15T07:59:56.473317866Z,0.21,0.43,-2.77,1.70,3.19,1.06,3.62,2.55,4.26,6.38,4.68,5.11,6.81,5.32,,,,,,,,,,,,,,
1799999996484918794,2027-01-15T07:59:56.484918794Z,-0.43,0.64,-0.43,2.55,2.98,1.06,4.26,2.77,4.68,5.53,5.74,5.74,7.02,6.81,,,,,,,,,,,,,,
1799999996496519722,2027-01-15T07:59:56.496519722Z,-0.21,0.85,0.85,1.91,2.98,1.28,4.47,3.19,4.47,4.47,5.53,5.74,6.81,7.45,,,,,,,,,,,,,,
1799999996508120650,2027-01-15T07:59:56.508120650Z,-0.43,0.43,0.43,1.91,2.77,0.21,4.04,2.55,4.04,4.26,4.68,6.81,5.96,6.38,,,,,,,,,,,,,,
1799999996519721578,2027-01-15T07:59:56.519721578Z,-3.19,-0.85,-0.43,2.55,3.19,0.00,3.62,2.55,4.04,4.47,5.96,7.66,6.81,5.32,,,,,,,,,,,,,,
1799999996531322506,2027-01-15T07:59:56.531322506Z,-2.77,-0.64,0.43,1.91,4.26,0.43,2.77,1.91,3.19,4.47,6.38,6.81,8.51,4.26,,,,,,,,,,,,,,
1799999996542923434,2027-01-15T07:59:56.542923434Z,,0.64,1.28,1.49,2.55,1.91,2.55,2.55,3.40,3.62,5.53,6.17,8.30,4.04,,,,,,,,,,,,,,
1799999996554524362,2027-01-15T07:59:56.554524362Z,-1.91,-1.49,0.21,-0.21,1.91,1.70,2.13,3.19,3.40,3.83,5.74,7.45,7.02,7.02,,,,,,,,,,,,,,
1799999996566125291,2027-01-15T07:59:56.566125291Z,0.21,-0.85,0.21,-0.21,2.13,1.91,2.55,2.77,3.19,5.53,5.96,7.23,5.11,8.72,,,,,,,,,,,,,,
1799999996577726219,2027-01-15T07:59:56.577726219Z,0.43,0.00,0.21,0.21,0.43,1.49,1.91,3.40,3.62,6.38,6.81,6.17,5.53,8.94,,,,,,,,,,,,,,
1799999996589327147,2027-01-15T07:59:56.589327147Z,-0.85,-0.64,0.00,0.43,0.43,1.91,2.55,5.11,3.19,4.68,7.02,6.81,6.38,9.15,,,,,,,,,,,,,,
1799999996600928075,2027-01-15T07:59:56.600928075Z,0.43,0.43,0.64,0.21,0.85,2.77,2.55,4.68,2.77,6.17,5.96,7.23,7.45,7.02,,,,,,,,,,,,,,
1799999996612529003,2027-01-15T07:59:56.612529003Z,-0.85,0.21,0.00,-0.43,1.70,2.55,2.34,3.83,2.34,7.45,5.96,6.60,6.38,6.38,,,,,,,,,,,,,,
1799999996624129931,2027-01-15T07:59:56.624129931Z,-1.70,-0.21,-0.85,0.64,3.19,2.13,3.40,4.04,3.40,1.49,5.74,6.38,6.60,8.30,,,,,,,,,,,,,,
1799999996635730859,2027-01-15T07:59:56.635730859Z,-0.85,-1.06,-0.64,1.06,2.98,1.06,3.19,3.62,3.40,1.70,4.47,6.60,6.81,8.72,,,,,,,,,,,,,,
1799999996647331787,2027-01-15T07:59:56.647331787Z,-0.21,-1.49,-0.64,0.21,1.06,1.28,0.85,2.34,1.06,4.68,4.47,7.02,7.87,7.66,,,,,,,,,,,,,,
1799999996658932715,2027-01-15T07:59:56.658932715Z,0.21,-1.28,-0.64,0.64,-0.21,1.49,0.43,2.55,1.06,3.83,5.53,7.45,7.66,7.02,,,,,,,,,,,,,,
1799999996670533643,2027-01-15T07:59:56.670533643Z,1.49,-0.21,-0.85,1.28,1.06,1.28,0.64,3.83,3.83,3.40,6.38,7.23,5.74,5.74,,,,,,,,,,,,,,
1799999996682134571,2027-01-15T07:59:56.682134571Z,-2.34,-0.85,-0.64,2.77,1.06,1.91,1.49,4.04,4.89,4.89,6.17,5.74,5.32,5.74,,,,,,,,,,,,,,
1799999996693735499,2027-01-15T07:59:56.693735499Z,-2.13,0.43,-0.43,1.06,-2.34,3.83,2.13,2.55,4.89,4.68,4.89,6.81,5.74,6.81,,,,,,,,,,,,,,
1799999996705336427,2027-01-15T07:59:56.705336427Z,0.64,0.00,-0.85,0.43,-1.49,3.19,2.55,1.70,3.40,3.19,5.11,7.45,6.17,8.72,,,,,,,,,,,,,,
1799999996716937355,2027-01-15T07:59:56.716937355Z,0.00,-1.06,-2.13,-0.64,0.43,4.47,4.47,1.91,2.13,3.19,6.81,7.23,6.81,8.30,,,,,,,,,,,,,,
1799999996728538284,2027-01-15T07:59:56.728538284Z,-0.64,-0.85,-2.13,0.64,0.64,4.68,4.26,1.70,2.55,5.32,6.17,6.17,6.17,7.66,,,,,,,,,,,,,,
1799999996740139212,2027-01-15T07:59:56.740139212Z,-0.64,0.64,-0.85,-0.85,1.91,3.83,2.55,2.77,4.04,5.96,5.32,5.74,5.32,7.02,,,,,,,,,,,,,,
1799999996751740140,2027-01-15T07:59:56.751740140Z,-0.64,-0.21,0.00,-1.06,1.06,3.19,2.34,3.62,4.04,4.47,5.96,6.60,6.60,7.87,,,,,,,,,,,,,,
1799999996763341068,2027-01-15T07:59:56.763341068Z,-1.28,-1.28,2.13,-0.21,0.43,2.77,3.40,3.19,4.26,5.32,5.96,6.17,6.81,8.09,,,,,,,,,,,,,,
1799999996774941996,2027-01-15T07:59:56.774941996Z,-0.85,-0.85,2.34,0.21,-0.21,2.34,3.62,2.98,4.26,6.38,5.11,5.32,6.17,8.09,,,,,,,,,,,,,,
1799999996786542924,2027-01-15T07:59:56.786542924Z,-0.43,0.21,-0.85,-1.91,-0.43,3.19,4.68,4.04,4.68,6.17,5.96,5.32,5.74,8.51,,,,,,,,,,,,,,
1799999996798143852,2027-01-15T07:59:56.798143852Z,-0.85,0.00,-1.49,-1.70,1.06,2.98,4.47,4.26,5.53,4.26,5.32,5.32,5.32,8.09,,,,,,,,,,,,,,
1799999996809744780,2027-01-15T07:59:56.809744780Z,-0.21,-1.49,1.06,-1.28,1.28,1.91,4.04,1.91,7.02,6.17,4.89,5.53,7.02,7.02,,,,,,,,,,,,,,
1799999996821345708,2027-01-15T07:59:56.821345708Z,-3.62,-1.49,0.43,0.00,1.49,1.06,3.19,1.70,6.38,6.17,4.47,5.32,6.81,6.38,,,,,,,,,,,,,,
1799999996832946636,2027-01-15T07:59:56.832946636Z,-2.13,-0.64,-1.91,3.19,1.70,2.34,3.83,2.34,5.32,5.53,4.68,4.68,6.38,5.11,,,,,,,,,,,,,,
1799999996844547564,2027-01-15T07:59:56.844547564Z,-2.13,0.64,-0.21,2.13,1.49,2.98,4.04,2.98,4.47,5.74,4.89,5.53,7.02,6.81,,,,,,,,,,,,,,
1799999996856148492,2027-01-15T07:59:56.856148492Z,-0.64,-0.21,1.28,0.00,-0.85,1.91,2.77,3.40,4.04,3.83,5.74,7.45,7.45,7.66,,,,,,,,,,,,,,
1799999996867749420,2027-01-15T07:59:56.867749420Z,-0.21,-1.06,0.00,0.00,-2.13,2.34,2.77,3.19,4.26,3.62,4.89,7.23,7.02,6.81,,,,,,,,,,,,,,
1799999996879350349,2027-01-15T07:59:56.879350349Z,0.00,-2.55,-1.28,-1.91,-2.55,3.19,2.55,3.83,3.19,8.51,4.47,4.47,6.60,5.96,,,,,,,,,,,,,,
1799999996890951277,2027-01-15T07:59:56.890951277Z,-1.28,-2.77,0.00,-1.70,0.85,2.55,3.19,3.40,3.62,6.81,5.53,6.81,7.45,5.53,,,,,,,,,,,,,,
1799999996902552205,2027-01-15T07:59:56.902552205Z,0.00,-1.49,-0.21,-1.06,1.06,2.98,3.83,4.04,3.83,5.53,5.96,8.30,7.66,5.96,,,,,,,,,,,,,,
1799999996914153133,2027-01-15T07:59:56.914153133Z,-2.34,-1.49,-1.28,-0.85,0.64,2.77,0.85,4.04,3.19,3.19,6.17,5.74,7.23,7.45,,,,,,,,,,,,,,
1799999996925754061,2027-01-15T07:59:56.925754061Z,-3.62,-2.13,-0.21,-0.21,0.64,1.70,-0.85,3.19,3.19,3.19,6.81,5.32,7.87,7.87,,,,,,,,,,,,,,
1799999996937354989,2027-01-15T07:59:56.937354989Z,-2.98,-1.06,-0.21,0.43,1.49,1.49,0.43,2.98,3.19,4.26,5.32,4.04,7.23,7.45,,,,,,,,,,,,,,
1799999996948955917,2027-01-15T07:59:56.948955917Z,-1.49,-1.06,-0.43,-0.43,2.34,1.49,0.00,2.77,3.40,4.04,5.11,4.04,8.30,6.81,,,,,,,,,,,,,,
1799999996960556845,2027-01-15T07:59:56.960556845Z,-2.13,-0.21,0.43,-0.43,1.49,1.28,0.43,1.28,3.19,2.98,6.38,6.81,8.72,7.66,,,,,,,,,,,,,,
1799999996972157773,2027-01-15T07:59:56.972157773Z,-2.13,0.64,1.70,0.00,1.70,1.49,1.70,1.70,2.98,3.40,5.96,6.81,7.45,6.60,,,,,,,,,,,,,,
1799999996983758701,2027-01-15T07:59:56.983758701Z,-1.28,1.28,0.00,2.13,1.06,1.91,1.49,3.40,4.26,4.04,3.62,5.32,4.26,7.02,,,,,,,,,,,,,,
1799999996995359629,2027-01-15T07:59:56.995359629Z,-0.85,-0.21,-0.43,2.77,-0.21,2.13,1.70,3.40,4.04,3.40,4.47,5.32,5.11,6.17,,,,,,,,,,,,,,
1799999997006960557,2027-01-15T07:59:57.006960557Z,-0.64,-1.06,-1.06,2.77,0.00,2.13,2.77,4.47,4.26,2.77,6.38,4.68,6.60,5.96,,,,,,,,,,,,,,
1799999997018561485,2027-01-15T07:59:57.018561485Z,-0.21,-0.43,-1.91,0.64,0.64,2.13,2.34,3.19,5.32,2.98,5.96,4.26,6.60,5.96,,,,,,,,,,,,,,
1799999997030162413,2027-01-15T07:59:57.030162413Z,-0.21,-1.49,-1.49,-1.06,2.55,3.83,2.55,2.34,4.68,3.62,5.32,8.09,5.53,7.02,,,,,,,,,,,,,,
1799999997041763342,2027-01-15T07:59:57.041763342Z,0.64,-1.49,-0.21,-0.43,3.19,2.98,2.98,2.77,4.47,4.04,4.89,9.79,5.32,7.23,,,,,,,,,,,,,,
1799999997053364270,2027-01-15T07:59:57.053364270Z,-1.28,-1.49,-0.85,2.13,2.55,0.64,2.13,2.55,5.32,4.68,4.68,8.30,6.81,7.87,,,,,,,,,,,,,,
1799999997064965198,2027-01-15T07:59:57.064965198Z,0.00,-2.77,-0.43,1.70,1.49,1.06,2.77,1.28,4.68,4.47,5.32,6.17,6.81,7.87,,,,,,,,,,,,,,
1799999997076566126,2027-01-15T07:59:57.076566126Z,0.00,-1.70,0.00,1.06,1.49,1.49,4.26,2.55,3.40,4.47,4.68,5.11,5.53,9.15,,,,,,,,,,,,,,
1799999997088167054,2027-01-15T07:59:57.088167054Z,0.21,0.00,-0.43,1.91,1.91,1.49,4.89,3.19,2.98,4.26,4.04,5.32,5.32,8.72,,,,,,,,,,,,,,
1799999997099767982,2027-01-15T07:59:57.099767982Z,-1.49,0.64,-0.64,2.98,2.77,0.64,3.83,4.26,2.77,4.68,5.32,5.32,5.53,7.87,,,,,,,,,,,,,,
1799999997111368910,2027-01-15T07:59:57.111368910Z,-1.91,0.21,-0.43,2.34,2.98,0.43,3.62,3.19,3.62,5.11,5.32,6.81,5.11,6.81,,,,,,,,,,,,,,
1799999997122969838,2027-01-15T07:59:57.122969838Z,0.00,-1.49,-0.85,1.28,1.28,0.85,4.47,1.91,3.62,4.26,3.62,7.45,6.60,7.23,,,,,,,,,,,,,,
1799999997134570766,2027-01-15T07:59:57.134570766Z,0.21,-1.91,-0.64,1.28,0.64,0.85,3.62,1.91,3.19,5.96,4.26,6.81,8.09,7.87,,,,,,,,,,,,,,
1799999997146171694,2027-01-15T07:59:57.146171694Z,-1.28,0.00,-0.43,2.55,0.43,0.64,1.91,3.62,3.40,7.23,6.38,6.17,6.38,7.66,,,,,,,,,,,,,,
1799999997157772622,2027-01-15T07:59:57.157772622Z,-1.28,0.43,-0.64,1.91,1.06,1.49,1.91,4.47,3.83,5.96,6.38,5.74,5.96,5.96,,,,,,,,,,,,,,
1799999997169373550,2027-01-15T07:59:57.169373550Z,0.00,0.43,0.21,0.21,2.34,2.55,1.06,5.53,3.40,4.68,6.17,4.89,7.23,5.32,,,,,,,,,,,,,,
1799999997180974478,2027-01-15T07:59:57.180974478Z,-0.64,-0.21,-0.21,0.43,2.34,2.34,2.55,4.68,2.98,5.96,6.17,5.74,6.38,6.17,,,,,,,,,,,,,,
1799999997192575407,2027-01-15T07:59:57.192575407Z,-2.13,-0.85,-1.49,0.43,2.13,0.85,3.83,2.98,4.26,5.96,5.53,7.66,5.32,7.45,,,,,,,,,,,,,,
1799999997204176335,2027-01-15T07:59:57.204176335Z,0.21,-1.06,-0.43,0.00,1.49,-0.21,3.19,2.34,4.04,4.47,5.74,7.23,5.96,8.30,,,,,,,,,,,,,,
1799999997215777263,2027-01-15T07:59:57.215777263Z,-0.85,0.85,0.64,0.21,1.28,1.28,3.83,4.26,4.26,7.87,5.32,6.81,7.02,7.66,,,,,,,,,,,,,,
1799999997227378191,2027-01-15T07:59:57.227378191Z,-1.28,0.85,0.64,0.00,1.91,1.49,4.47,4.26,4.89,10.85,4.89,6.81,6.60,7.02,,,,,,,,,,,,,,
1799999997238979119,2027-01-15T07:59:57.238979119Z,-1.49,-1.28,1.70,-0.85,1.91,3.19,2.55,3.62,4.26,7.66,6.17,6.81,7.45,7.23,,,,,,,,,,,,,,
1799999997250580047,2027-01-15T07:59:57.250580047Z,-1.49,0.64,1.49,-0.21,1.49,3.62,2.13,3.40,3.19,3.19,6.38,7.23,7.87,7.66,,,,,,,,,,,,,,
1799999997262180975,2027-01-15T07:59:57.262180975Z,-1.49,0.64,0.21,-0.43,1.28,2.98,3.19,3.40,2.98,5.32,6.17,6.81,7.87,8.72,,,,,,,,,,,,,,
1799999997273781903,2027-01-15T07:59:57.273781903Z,-0.21,-1.06,0.21,-0.85,1.70,2.34,3.62,4.04,3.40,5.32,6.17,6.17,8.09,8.30,,,,,,,,,,,,,,
1799999997285382831,2027-01-15T07:59:57.285382831Z,-0.64,-1.49,-0.43,1.06,1.70,2.13,1.70,4.47,5.32,7.23,5.96,5.74,5.96,8.94,,,,,,,,,,,,,,
1799999997296983759,2027-01-15T07:59:57.296983759Z,0.21,-1.70,-0.64,1.06,2.13,1.70,2.34,4.47,5.53,7.66,5.53,4.68,5.32,9.15,,,,,,,,,,,,,,
1799999997308584687,2027-01-15T07:59:57.308584687Z,0.43,-1.28,0.43,0.64,3.62,1.70,3.83,2.98,4.26,4.26,6.81,4.68,6.38,7.66,,,,,,,,,,,,,,
1799999997320185615,2027-01-15T07:59:57.320185615Z,-0.21,-0.85,0.85,1.06,1.28,1.91,2.13,2.77,3.62,7.23,6.81,6.17,5.96,9.15,,,,,,,,,,,,,,
1799999997331786543,2027-01-15T07:59:57.331786543Z,-0.21,-1.28,0.43,0.21,0.21,1.91,1.49,3.40,3.40,5.74,6.38,5.96,5.11,10.00,,,,,,,,,,,,,,
1799999997343387471,2027-01-15T07:59:57.343387471Z,-2.34,0.00,0.43,1.28,1.49,2.13,1.91,3.83,4.04,5.53,5.74,5.11,5.32,7.02,,,,,,,,,,,,,,
1799999997354988400,2027-01-15T07:59:57.354988400Z,-1.70,0.43,0.21,2.34,1.06,2.34,2.77,3.83,4.47,7.66,5.96,6.17,6.38,5.74,,,,,,,,,,,,,,
1799999997366589328,2027-01-15T07:59:57.366589328Z,-1.28,0.64,-2.77,0.21,1.06,1.91,2.34,4.47,4.89,3.62,5.74,6.17,6.38,7.02,,,,,,,,,,,,,,
1799999997378190256,2027-01-15T07:59:57.378190256Z,0.43,0.21,-2.13,-0.64,0.85,1.28,2.13,4.47,4.89,1.91,5.32,5.96,5.96,7.45,,,,,,,,,,,,,,
1799999997389791184,2027-01-15T07:59:57.389791184Z,0.21,-0.43,-0.21,-0.43,0.00,2.34,2.13,2.98,3.62,2.98,5.11,6.38,4.26,7.02,,,,,,,,,,,,,,
1799999997401392112,2027-01-15T07:59:57.401392112Z,-0.64,-0.85,-0.21,0.43,1.06,3.83,4.04,3.19,2.77,1.70,5.53,6.38,5.96,8.51,,,,,,,,,,,,,,
1799999997412993040,2027-01-15T07:59:57.412993040Z,-0.64,0.85,-1.28,1.49,1.91,4.89,5.96,3.83,3.40,3.40,6.38,4.68,7.45,7.45,,,,,,,,,,,,,,
1799999997424593968,2027-01-15T07:59:57.424593968Z,1.06,1.70,-1.49,1.49,1.28,4.26,4.89,3.40,3.19,5.74,6.38,4.68,7.23,6.81,,,,,,,,,,,,,,
1799999997436194896,2027-01-15T07:59:57.436194896Z,-2.98,-0.43,0.21,1.06,1.91,1.91,2.34,3.19,3.19,2.55,5.11,5.53,7.45,6.81,,,,,,,,,,,,,,
1799999997447795824,2027-01-15T07:59:57.447795824Z,-3.83,0.43,0.85,1.06,2.98,2.55,2.55,2.55,3.40,1.91,4.47,5.53,7.45,6.60,,,,,,,,,,,,,,
1799999997459396752,2027-01-15T07:59:57.459396752Z,-3.40,1.06,0.21,3.62,1.91,3.19,1.91,2.55,4.26,5.32,4.47,4.89,4.89,5.32,,,,,,,,,,,,,,
1799999997470997680,2027-01-15T07:59:57.470997680Z,-1.70,-0.64,0.21,2.77,1.49,2.77,1.91,2.98,3.83,4.89,5.32,5.32,4.89,5.11,,,,,,,,,,,,,,
1799999997482598608,2027-01-15T07:59:57.482598608Z,-2.13,-1.49,-0.85,0.43,0.64,1.70,3.40,2.34,3.62,2.13,3.83,5.74,6.60,5.74,,,,,,,,,,,,,,
1799999997494199536,2027-01-15T07:59:57.494199536Z,-2.13,-2.13,-0.43,-0.21,0.64,1.06,4.68,2.13,4.04,2.77,2.98,6.17,8.09,7.87,,,,,,,,,,,,,,
1799999997505800465,2027-01-15T07:59:57.505800465Z,0.00,-2.34,0.21,-2.13,1.06,2.13,2.98,3.19,3.83,4.04,5.53,7.45,7.45,8.30,,,,,,,,,,,,,,
1799999997517401393,2027-01-15T07:59:57.517401393Z,-3.19,-1.06,-0.64,-1.70,1.06,2.55,2.34,3.19,3.62,5.32,5.32,7.45,7.87,8.09,,,,,,,,,,,,,,
1799999997529002321,2027-01-15T07:59:57.529002321Z,-1.70,-1.70,-0.43,-1.70,1.70,2.77,2.98,3.40,4.47,3.83,5.53,6.81,7.66,7.45,,,,,,,,,,,,,,
1799999997540603249,2027-01-15T07:59:57.540603249Z,-1.28,-2.34,0.21,-2.34,1.91,1.70,2.55,3.83,4.47,2.77,6.17,6.60,7.45,7.87,,,,,,,,,,,,,,
1799999997552204177,2027-01-15T07:59:57.552204177Z,-1.70,-1.06,1.91,-1.49,1.91,2.34,3.19,4.26,4.26,4.04,4.89,5.32,7.23,6.81,,,,,,,,,,,,,,
1799999997563805105,2027-01-15T07:59:57.563805105Z,-2.77,0.00,2.34,-1.06,1.70,2.55,2.98,3.19,3.83,6.81,5.53,4.89,6.17,6.60,,,,,,,,,,,,,,
1799999997575406033,2027-01-15T07:59:57.575406033Z,-1.70,-0.43,1.49,0.43,0.64,3.19,0.64,3.83,2.98,3.83,7.02,5.74,5.53,7.45,,,,,,,,,,,,,,
1799999997587006961,2027-01-15T07:59:57.587006961Z,-0.43,0.21,0.43,1.06,0.85,2.98,1.49,4.26,3.19,3.83,6.60,6.38,6.38,6.60,,,,,,,,,,,,,,
1799999997598607889,2027-01-15T07:59:57.598607889Z,-0.43,-0.64,-0.43,1.28,-0.21,0.64,4.47,2.34,3.62,5.96,5.32,7.02,6.81,5.53,,,,,,,,,,,,,,
1799999997610208817,2027-01-15T07:59:57.610208817Z,-0.43,-1.70,-0.64,1.91,-0.43,1.91,4.89,0.85,3.83,8.51,4.89,7.45,6.38,6.81,,,,,,,,,,,,,,
1799999997621809745,2027-01-15T07:59:57.621809745Z,-0.85,0.00,-0.85,1.49,2.13,5.11,3.19,3.40,3.83,8.51,4.68,7.45,7.66,8.09,,,,,,,,,,,,,,
1799999997633410673,2027-01-15T07:59:57.633410673Z,-2.55,1.06,-1.06,0.21,3.62,3.40,1.70,3.40,3.19,4.47,4.89,7.02,6.81,7.45,,,,,,,,,,,,,,
1799999997645011601,2027-01-15T07:59:57.645011601Z,0.85,-0.64,-1.06,-2.13,1.91,0.00,2.13,0.21,2.77,3.83,4.68,6.60,7.23,5.96,,,,,,,,,,,,,,
1799999997656612530,2027-01-15T07:59:57.656612530Z,-0.21,-1.06,-0.85,-2.55,1.06,-0.85,1.49,2.34,2.98,1.91,5.11,7.02,7.87,6.17,,,,,,,,,,,,,,
1799999997668213458,2027-01-15T07:59:57.668213458Z,0.21,-1.28,0.00,0.43,0.43,1.91,1.91,2.98,2.98,3.83,5.32,7.66,7.66,8.51,,,,,,,,,,,,,,
1799999997679814386,2027-01-15T07:59:57.679814386Z,-0.64,-0.85,-0.43,1.49,0.21,3.19,2.55,1.70,3.62,8.30,5.32,7.23,6.17,8.51,,,,,,,,,,,,,,
1799999997691415314,2027-01-15T07:59:57.691415314Z,-0.64,-1.70,0.21,0.21,1.28,3.62,2.77,5.11,3.40,2.77,5.96,6.17,5.74,7.66,,,,,,,,,,,,,,
1799999997703016242,2027-01-15T07:59:57.703016242Z,0.85,-1.70,1.06,0.64,1.28,2.55,1.70,4.26,2.77,0.64,5.11,6.17,5.11,7.23,,,,,,,,,,,,,,
1799999997714617170,2027-01-15T07:59:57.714617170Z,0.21,-1.06,0.64,1.49,-1.28,2.13,0.21,1.06,3.62,5.74,3.40,7.23,4.47,5.74,,,,,,,,,,,,,,
1799999997726218098,2027-01-15T07:59:57.726218098Z,-2.55,0.00,-0.64,0.43,-0.43,1.28,1.06,2.13,4.26,8.30,2.55,5.96,6.17,5.74,,,,,,,,,,,,,,
1799999997737819026,2027-01-15T07:59:57.737819026Z,-0.85,0.64,-0.64,0.85,0.85,2.13,1.06,2.77,5.11,5.96,3.19,5.74,5.53,7.02,,,,,,,,,,,,,,
1799999997749419954,2027-01-15T07:59:57.749419954Z,-1.06,0.21,0.64,1.28,0.43,3.19,3.19,4.04,5.96,0.64,4.47,5.53,6.17,8.09,,,,,,,,,,,,,,
1799999997761020882,2027-01-15T07:59:57.761020882Z,0.43,-0.43,0.64,0.64,1.28,1.28,4.68,4.04,5.53,3.19,5.11,5.11,7.02,7.87,,,,,,,,,,,,,,
1799999997772621810,2027-01-15T07:59:57.772621810Z,-0.85,-0.85,-1.70,0.00,0.43,-2.13,2.34,0.64,4.04,9.15,6.17,4.04,5.32,6.60,,,,,,,,,,,,,,
1799999997784222738,2027-01-15T07:59:57.784222738Z,-0.64,-1.06,-1.91,0.64,0.00,-1.49,1.91,1.28,4.04,9.15,7.02,4.04,5.53,6.60,,,,,,,,,,,,,,
1799999997795823666,2027-01-15T07:59:57.795823666Z,0.64,0.43,0.21,1.06,0.00,1.91,4.26,5.11,4.89,7.02,5.53,6.60,6.17,7.02,,,,,,,,,,,,,,
1799999997807424594,2027-01-15T07:59:57.807424594Z,-0.85,0.00,1.06,1.28,1.06,2.77,3.19,5.53,4.04,8.72,4.89,8.30,6.17,6.81,,,,,,,,,,,,,,
1799999997819025523,2027-01-15T07:59:57.819025523Z,0.00,0.43,1.06,-0.85,0.21,1.49,1.49,3.83,4.26,5.32,5.32,7.23,6.60,6.38,,,,,,,,,,,,,,
1799999997830626451,2027-01-15T07:59:57.830626451Z,-1.06,0.43,1.49,-1.49,1.28,1.06,2.34,3.40,5.74,3.83,5.32,6.60,6.38,5.96,,,,,,,,,,,,,,
1799999997842227379,2027-01-15T07:59:57.842227379Z,-0.43,-0.64,0.21,0.64,3.83,2.77,3.19,2.55,4.26,7.02,4.68,6.38,6.38,7.45,,,,,,,,,,,,,,
1799999997853828307,2027-01-15T07:59:57.853828307Z,-1.06,-0.64,0.21,0.85,3.19,2.55,3.83,2.34,4.04,2.98,5.96,6.38,6.38,8.72,,,,,,,,,,,,,,
1799999997865429235,2027-01-15T07:59:57.865429235Z,0.85,-1.70,-0.43,0.43,1.06,2.55,2.34,4.47,4.04,-1.28,6.60,5.96,7.66,8.94,,,,,,,,,,,,,,
1799999997877030163,2027-01-15T07:59:57.877030163Z,-3.40,-1.91,-0.43,1.06,1.06,4.04,1.91,3.62,3.83,1.06,5.96,5.11,7.02,7.23,,,,,,,,,,,,,,
1799999997888631091,2027-01-15T07:59:57.888631091Z,-1.28,-1.49,-0.85,2.77,1.49,4.04,4.04,1.28,5.53,8.30,4.47,6.38,5.96,6.81,,,,,,,,,,,,,,
1799999997900232019,2027-01-15T07:59:57.900232019Z,-0.85,-1.06,-1.91,2.55,1.49,3.83,4.89,1.91,4.89,5.53,5.53,7.45,6.17,7.23,,,,,,,,,,,,,,
1799999997911832947,2027-01-15T07:59:57.911832947Z,1.06,-0.43,-1.06,0.43,2.55,2.55,2.77,4.47,4.47,1.28,7.87,7.02,5.96,7.23,,,,,,,,,,,,,,
1799999997923433875,2027-01-15T07:59:57.923433875Z,1.06,-1.06,1.49,-1.70,1.49,1.28,2.34,3.83,4.26,3.83,8.94,7.02,5.74,7.45,,,,,,,,,,,,,,
1799999997935034803,2027-01-15T07:59:57.935034803Z,0.43,-2.34,-0.85,1.06,0.64,1.49,2.55,2.98,2.55,7.87,6.17,5.74,8.30,7.23,,,,,,,,,,,,,,
1799999997946635731,2027-01-15T07:59:57.946635731Z,-1.91,-1.91,-2.55,2.34,1.49,2.13,2.34,3.19,3.19,6.60,4.68,4.47,8.51,5.74,,,,,,,,,,,,,,
1799999997958236659,2027-01-15T07:59:57.958236659Z,-2.13,0.00,0.00,-0.21,2.55,2.34,3.62,2.13,4.47,3.83,4.47,4.47,8.09,7.02,,,,,,,,,,,,,,
1799999997969837588,2027-01-15T07:59:57.969837588Z,-1.06,0.21,1.06,-1.49,1.70,1.28,3.62,1.91,4.68,4.26,5.32,5.53,7.45,7.87,,,,,,,,,,,,,,
1799999997981438516,2027-01-15T07:59:57.981438516Z,-0.43,0.43,0.21,1.49,0.64,1.70,3.62,2.13,3.83,2.77,5.11,6.38,5.96,8.51,,,,,,,,,,,,,,
1799999997993039444,2027-01-15T07:59:57.993039444Z,-0.21,0.43,0.43,2.34,0.64,2.13,5.11,1.91,4.04,2.34,4.89,6.17,5.53,9.36,,,,,,,,,,,,,,
1799999998004640372,2027-01-15T07:59:58.004640372Z,1.70,-0.85,0.21,1.06,3.19,2.34,6.17,2.34,5.11,5.53,3.83,6.81,6.38,7.87,,,,,,,,,,,,,,
1799999998016241300,2027-01-15T07:59:58.016241300Z,0.21,-1.49,-0.43,0.00,4.04,2.13,4.26,2.34,4.47,2.55,4.68,6.38,7.02,6.81,,,,,,,,,,,,,,
1799999998027842228,2027-01-15T07:59:58.027842228Z,-1.49,-2.55,0.64,-0.21,0.64,2.98,0.64,3.19,2.34,0.85,7.45,6.38,6.38,7.66,,,,,,,,,,,,,,
1799999998039443156,2027-01-15T07:59:58.039443156Z,-0.43,-1.91,0.43,0.43,0.43,3.83,1.91,3.62,2.98,4.04,6.38,7.23,5.53,8.72,,,,,,,,,,,,,,
1799999998051044084,2027-01-15T07:59:58.051044084Z,1.06,-0.21,0.21,1.70,1.06,4.47,2.13,3.62,3.19,6.38,5.74,7.23,6.17,8.09,,,,,,,,,,,,,,
1799999998062645012,2027-01-15T07:59:58.062645012Z,-0.21,-1.06,0.64,1.91,0.85,3.19,1.49,3.83,2.55,3.40,6.17,6.81,7.66,7.45,,,,,,,,,,,,,,
1799999998074245940,2027-01-15T07:59:58.074245940Z,-2.13,-1.49,0.00,0.64,0.43,1.70,2.34,2.34,2.34,2.55,6.17,5.96,8.30,6.81,,,,,,,,,,,,,,
1799999998085846868,2027-01-15T07:59:58.085846868Z,-2.13,-0.64,-1.28,0.21,0.00,1.28,2.34,2.98,2.77,5.11,5.32,5.11,7.66,7.66,,,,,,,,,,,,,,
1799999998097447796,2027-01-15T07:59:58.097447796Z,-2.98,-0.21,-1.49,-0.21,0.64,2.77,4.68,3.19,2.98,4.47,7.02,6.17,7.23,8.94,,,,,,,,,,,,,,
1799999998109048724,2027-01-15T07:59:58.109048724Z,-0.64,0.00,-0.64,0.00,1.70,1.91,4.04,2.55,3.62,2.34,7.23,6.81,6.17,9.15,,,,,,,,,,,,,,
1799999998120649652,2027-01-15T07:59:58.120649652Z,,-1.49,0.00,0.43,-0.43,-1.28,1.70,2.34,4.89,3.62,6.17,6.38,4.68,7.45,,,,,,,,,,,,,,
1799999998132250581,2027-01-15T07:59:58.132250581Z,,-1.28,-1.06,-0.64,-0.43,1.49,2.34,3.62,4.26,9.36,5.11,5.96,7.02,6.17,,,,,,,,,,,,,,
1799999998143851509,2027-01-15T07:59:58.143851509Z,,-0.43,-1.28,-0.21,0.43,4.26,2.34,3.83,3.83,9.36,5.74,6.17,7.87,5.74,,,,,,,,,,,,,,
1799999998155452437,2027-01-15T07:59:58.155452437Z,,-0.21,-1.28,0.64,1.28,4.89,2.77,3.40,4.04,8.72,6.38,5.74,5.74,6.38,,,,,,,,,,,,,,
1799999998167053365,2027-01-15T07:59:58.167053365Z,,-0.64,-1.28,1.49,1.06,4.47,2.77,2.77,4.26,3.40,6.17,5.74,5.53,7.02,,,,,,,,,,,,,,
1799999998178654293,2027-01-15T07:59:58.178654293Z,,0.21,-0.64,1.28,-0.21,1.28,2.55,3.62,3.62,0.85,5.53,6.17,7.02,7.02,,,,,,,,,,,,,,
1799999998190255221,2027-01-15T07:59:58.190255221Z,,0.43,-0.85,0.21,-0.21,1.28,3.40,3.19,2.55,1.49,4.68,5.74,7.23,6.81,,,,,,,,,,,,,,
1799999998201856149,2027-01-15T07:59:58.201856149Z,,-0.43,0.43,-0.64,1.06,1.49,4.68,1.70,3.83,2.13,5.11,4.89,5.74,6.17,,,,,,,,,,,,,,
1799999998213457077,2027-01-15T07:59:58.213457077Z,,-0.85,0.85,-0.21,1.49,2.13,4.04,2.98,4.47,0.64,5.53,5.53,4.89,7.45,,,,,,,,,,,,,,
1799999998225058005,2027-01-15T07:59:58.225058005Z,,0.21,0.00,1.28,2.77,2.98,2.55,5.11,3.62,5.32,4.89,6.38,4.47,7.66,,,,,,,,,,,,,,
1799999998236658933,2027-01-15T07:59:58.236658933Z,,0.43,0.64,1.49,3.40,2.55,2.55,4.89,2.34,7.45,4.26,6.38,5.11,7.45,,,,,,,,,,,,,,
1799999998248259861,2027-01-15T07:59:58.248259861Z,,-0.85,1.06,0.64,2.13,1.06,3.62,3.19,4.26,8.72,5.96,6.81,6.38,8.94,,,,,,,,,,,,,,
1799999998259860789,2027-01-15T07:59:58.259860789Z,,-1.06,0.64,1.06,0.85,2.55,3.62,2.77,5.96,8.72,5.96,7.02,6.38,8.51,,,,,,,,,,,,,,
1799999998271461717,2027-01-15T07:59:58.271461717Z,,-0.21,-0.64,1.06,-0.21,0.85,1.49,3.19,4.89,2.98,6.60,6.17,6.17,7.02,,,,,,,,,,,,,,
1799999998283062646,2027-01-15T07:59:58.283062646Z,,0.00,-1.06,0.21,-0.21,-0.21,0.64,3.62,2.98,3.83,6.81,5.32,6.38,6.60,,,,,,,,,,,,,,
1799999998294663574,2027-01-15T07:59:58.294663574Z,,0.43,-0.85,0.21,1.91,0.43,-0.21,2.34,2.55,6.81,4.26,5.53,5.74,6.81,,,,,,,,,,,,,,
1799999998306264502,2027-01-15T07:59:58.306264502Z,,1.06,-0.64,-0.64,2.34,2.13,1.28,2.55,3.19,6.17,3.62,5.74,5.53,7.45,,,,,,,,,,,,,,
1799999998317865430,2027-01-15T07:59:58.317865430Z,,0.64,0.00,-0.43,1.06,2.34,3.19,4.89,4.68,7.02,4.47,5.96,6.17,7.45,,,,,,,,,,,,,,
1799999998329466358,2027-01-15T07:59:58.329466358Z,,0.21,-0.43,0.43,0.85,1.49,2.77,5.32,5.11,6.60,4.89,6.81,5.74,6.17,,,,,,,,,,,,,,
1799999998341067286,2027-01-15T07:59:58.341067286Z,,1.06,-1.70,1.91,1.91,0.43,2.13,4.68,5.53,5.32,6.38,6.81,4.47,5.11,,,,,,,,,,,,,,
1799999998352668214,2027-01-15T07:59:58.352668214Z,,0.21,-1.70,1.91,1.91,0.64,1.49,3.40,4.68,5.74,6.60,5.96,4.26,5.74,,,,,,,,,,,,,,
1799999998364269142,2027-01-15T07:59:58.364269142Z,,-0.64,-1.91,2.55,2.13,1.91,1.49,2.34,3.62,4.47,6.38,5.53,4.68,7.45,,,,,,,,,,,,,,
1799999998375870070,2027-01-15T07:59:58.375870070Z,,-0.85,-1.28,1.28,1.06,0.85,1.91,2.98,4.26,3.19,5.96,6.17,5.11,7.87,,,,,,,,,,,,,,
1799999998387470998,2027-01-15T07:59:58.387470998Z,,-1.06,-0.85,-0.43,-0.43,0.43,1.49,4.26,4.26,1.49,4.89,6.38,5.74,7.23,,,,,,,,,,,,,,
1799999998399071926,2027-01-15T07:59:58.399071926Z,,-0.85,-1.06,-0.43,0.21,1.28,1.91,4.26,3.83,0.85,5.53,5.74,6.38,6.81,,,,,,,,,,,,,,
1799999998410672854,2027-01-15T07:59:58.410672854Z,,-2.34,-1.28,0.43,0.21,1.70,2.98,2.55,4.89,2.77,7.45,6.38,7.02,6.81,,,,,,,,,,,,,,
1799999998422273782,2027-01-15T07:59:58.422273782Z,,-1.91,-0.43,0.43,-0.85,1.06,3.40,2.13,5.11,4.26,5.53,6.60,7.45,6.60,,,,,,,,,,,,,,
1799999998433874710,2027-01-15T07:59:58.433874710Z,,0.64,1.28,-0.85,-0.64,0.64,1.70,4.47,4.26,1.70,4.26,6.17,6.60,6.38,,,,,,,,,,,,,,
1799999998445475639,2027-01-15T07:59:58.445475639Z,,0.43,1.28,-1.28,0.21,-0.64,1.28,4.68,3.40,2.13,4.89,6.60,6.17,6.81,,,,,,,,,,,,,,
1799999998457076567,2027-01-15T07:59:58.457076567Z,,-0.85,-0.43,1.06,2.55,1.06,2.13,4.68,2.55,5.74,4.89,6.38,6.17,7.45,,,,,,,,,,,,,,
1799999998468677495,2027-01-15T07:59:58.468677495Z,,0.00,-1.70,1.28,3.62,2.34,2.77,5.32,2.98,7.02,4.47,5.53,5.96,7.87,,,,,,,,,,,,,,
1799999998480278423,2027-01-15T07:59:58.480278423Z,,0.64,-3.40,0.64,2.34,-0.64,3.40,4.04,4.47,1.70,4.68,5.53,6.38,7.45,,,,,,,,,,,,,,
1799999998491879351,2027-01-15T07:59:58.491879351Z,,-0.64,-0.43,0.85,0.85,-0.64,2.34,3.62,4.68,0.21,5.11,5.32,7.87,7.87,,,,,,,,,,,,,,
1799999998503480279,2027-01-15T07:59:58.503480279Z,,-1.49,4.26,1.28,1.28,1.28,0.64,3.62,2.55,3.83,4.26,5.96,8.51,8.30,,,,,,,,,,,,,,
1799999998515081207,2027-01-15T07:59:58.515081207Z,,-1.49,3.83,0.85,2.13,1.70,1.49,3.62,4.04,5.11,4.04,5.74,8.30,7.87,,,,,,,,,,,,,,
1799999998526682135,2027-01-15T07:59:58.526682135Z,,-1.49,2.13,-0.85,2.13,3.19,4.26,3.62,4.26,4.26,4.26,6.81,8.30,7.87,,,,,,,,,,,,,,
1799999998538283063,2027-01-15T07:59:58.538283063Z,,-1.91,1.06,-0.64,2.13,1.91,4.04,3.83,3.19,6.17,5.74,7.45,7.87,7.66,,,,,,,,,,,,,,
1799999998549883991,2027-01-15T07:59:58.549883991Z,,-2.55,0.43,1.06,3.19,1.06,4.04,2.55,5.32,7.66,7.23,6.81,7.87,6.38,,,,,,,,,,,,,,
1799999998561484919,2027-01-15T07:59:58.561484919Z,,-0.21,-0.21,2.55,3.19,2.55,4.04,1.49,6.60,5.53,7.02,6.38,8.09,8.72,,,,,,,,,,,,,,
1799999998573085847,2027-01-15T07:59:58.573085847Z,,0.64,-0.21,3.19,3.40,2.55,3.62,1.91,5.74,4.04,5.96,5.96,7.66,9.79,,,,,,,,,,,,,,
1799999998584686775,2027-01-15T07:59:58.584686775Z,,-1.70,1.06,1.28,2.77,2.34,2.98,1.70,3.40,3.83,5.96,6.17,7.66,7.87,,,,,,,,,,,,,,
1799999998596287704,2027-01-15T07:59:58.596287704Z,,-1.28,1.70,0.21,2.34,2.98,2.77,1.28,2.34,3.19,6.38,7.02,8.51,8.72,,,,,,,,,,,,,,
1799999998607888632,2027-01-15T07:59:58.607888632Z,,0.21,3.19,0.21,2.77,3.62,1.91,2.13,1.91,4.68,6.17,6.81,7.66,9.15,,,,,,,,,,,,,,
1799999998619489560,2027-01-15T07:59:58.619489560Z,,0.43,3.19,0.21,2.55,2.55,2.55,4.04,2.77,5.96,5.32,6.38,6.60,8.09,,,,,,,,,,,,,,
1799999998631090488,2027-01-15T07:59:58.631090488Z,,0.85,0.43,0.64,1.70,1.70,3.83,5.32,5.53,6.60,4.04,6.17,5.96,6.60,,,,,,,,,,,,,,
1799999998642691416,2027-01-15T07:59:58.642691416Z,,0.64,-1.28,0.85,0.43,1.49,3.19,5.11,6.60,6.60,4.26,6.60,5.96,5.96,,,,,,,,,,,,,,
1799999998654292344,2027-01-15T07:59:58.654292344Z,,-1.06,0.64,3.19,0.64,3.19,3.19,3.62,6.60,5.96,4.89,6.17,5.96,7.23,,,,,,,,,,,,,,
1799999998665893272,2027-01-15T07:59:58.665893272Z,,-0.64,0.85,2.55,1.70,3.40,4.04,2.77,5.96,4.68,4.47,5.74,6.38,7.87,,,,,,,,,,,,,,
1799999998677494200,2027-01-15T07:59:58.677494200Z,,0.21,-2.13,0.85,1.06,4.04,4.04,2.13,5.96,1.49,4.68,5.74,5.96,7.45,,,,,,,,,,,,,,
1799999998689095128,2027-01-15T07:59:58.689095128Z,,-0.21,-2.34,0.64,0.21,3.19,4.89,2.55,4.89,2.34,4.68,5.74,5.53,6.81,,,,,,,,,,,,,,
1799999998700696056,2027-01-15T07:59:58.700696056Z,,-1.06,-0.21,-0.43,0.43,1.91,4.47,2.13,2.13,5.53,5.32,5.74,6.38,5.74,,,,,,,,,,,,,,
1799999998712296984,2027-01-15T07:59:58.712296984Z,,-1.28,-0.21,0.21,0.85,2.77,2.98,1.70,1.70,6.81,5.53,6.17,8.30,5.11,,,,,,,,,,,,,,
1799999998723897912,2027-01-15T07:59:58.723897912Z,,-1.70,0.64,0.85,2.34,2.55,4.04,2.98,2.55,6.60,4.68,5.74,8.09,7.23,,,,,,,,,,,,,,
1799999998735498840,2027-01-15T07:59:58.735498840Z,,-1.91,1.70,1.91,1.49,2.34,3.83,2.77,1.91,6.60,4.04,5.96,7.45,8.72,,,,,,,,,,,,,,
1799999998747099768,2027-01-15T07:59:58.747099768Z,,-1.70,0.21,1.28,1.28,2.77,4.68,1.49,3.19,5.32,4.04,7.23,5.96,8.30,,,,,,,,,,,,,,
1799999998758700697,2027-01-15T07:59:58.758700697Z,,-1.28,-0.85,-0.21,2.34,2.77,5.32,1.49,3.83,4.68,4.26,7.23,6.38,7.45,,,,,,,,,,,,,,
1799999998770301625,2027-01-15T07:59:58.770301625Z,,-1.91,-1.91,0.21,2.98,0.64,3.83,3.62,4.68,5.53,5.53,6.38,7.45,6.81,,,,,,,,,,,,,,
1799999998781902553,2027-01-15T07:59:58.781902553Z,,-3.19,-2.77,0.00,2.77,0.00,2.77,4.04,4.68,5.32,6.38,6.17,8.09,6.81,,,,,,,,,,,,,,
1799999998793503481,2027-01-15T07:59:58.793503481Z,,-1.49,-2.77,0.85,2.13,1.06,1.49,4.04,4.04,4.89,6.38,7.23,6.38,7.02,,,,,,,,,,,,,,
1799999998805104409,2027-01-15T07:59:58.805104409Z,,-0.43,-2.98,0.64,1.91,2.55,1.91,4.04,4.04,4.68,6.81,7.87,5.74,6.81,,,,,,,,,,,,,,
1799999998816705337,2027-01-15T07:59:58.816705337Z,,0.21,-2.13,-1.28,1.06,4.47,3.19,3.62,2.55,3.40,6.17,7.23,6.17,6.17,,,,,,,,,,,,,,
1799999998828306265,2027-01-15T07:59:58.828306265Z,,0.64,-2.13,-0.43,0.43,3.83,4.89,2.98,2.34,3.19,5.53,7.23,5.96,6.60,,,,,,,,,,,,,,
1799999998839907193,2027-01-15T07:59:58.839907193Z,,0.43,-2.34,0.43,-0.64,2.55,4.04,3.83,1.70,0.64,4.26,7.66,6.17,7.23,,,,,,,,,,,,,,
1799999998851508121,2027-01-15T07:59:58.851508121Z,,-0.85,-1.70,-0.21,0.43,1.70,3.40,3.40,2.13,2.34,4.47,7.45,7.02,7.23,,,,,,,,,,,,,,
1799999998863109049,2027-01-15T07:59:58.863109049Z,,-1.70,-2.13,0.43,1.28,0.43,2.13,3.40,3.62,5.53,5.96,8.09,8.51,7.02,,,,,,,,,,,,,,
1799999998874709977,2027-01-15T07:59:58.874709977Z,,-1.28,-2.34,0.00,1.70,0.43,1.70,3.62,2.77,5.32,7.23,8.30,7.66,5.53,,,,,,,,,,,,,,
1799999998886310905,2027-01-15T07:59:58.886310905Z,,-1.06,-1.06,-0.21,1.49,1.70,2.34,3.19,2.34,6.17,7.02,8.09,6.17,5.11,,,,,,,,,,,,,,
1799999998897911833,2027-01-15T07:59:58.897911833Z,,-1.49,-0.85,0.00,1.91,2.34,3.40,3.19,2.55,5.11,6.60,8.09,6.60,5.53,,,,,,,,,,,,,,
1799999998909512762,2027-01-15T07:59:58.909512762Z,,-1.28,-1.49,0.00,3.40,1.70,3.83,1.49,3.62,4.04,5.32,5.53,5.53,6.60,,,,,,,,,,,,,,
1799999998921113690,2027-01-15T07:59:58.921113690Z,,-1.70,-2.13,-0.64,2.34,1.91,3.83,2.55,3.62,5.32,4.89,4.26,5.96,7.02,,,,,,,,,,,,,,
1799999998932714618,2027-01-15T07:59:58.932714618Z,,-3.19,-3.40,-0.21,0.64,2.13,3.40,5.53,2.55,5.96,6.17,5.53,5.11,8.09,,,,,,,,,,,,,,
1799999998944315546,2027-01-15T07:59:58.944315546Z,,-3.40,-1.91,0.21,0.00,2.13,2.77,5.11,2.13,4.89,7.45,6.81,4.47,7.66,,,,,,,,,,,,,,
1799999998955916474,2027-01-15T07:59:58.955916474Z,,-1.28,0.43,0.43,-0.43,3.40,2.77,2.55,2.77,5.74,6.81,6.38,5.53,6.60,,,,,,,,,,,,,,
1799999998967517402,2027-01-15T07:59:58.967517402Z,,1.06,0.43,-0.64,1.91,2.13,2.98,2.13,2.98,5.32,5.32,6.17,5.96,6.38,,,,,,,,,,,,,,
1799999998979118330,2027-01-15T07:59:58.979118330Z,,1.49,0.43,-0.64,2.13,0.85,2.77,2.98,2.77,5.11,5.96,5.96,5.32,6.60,,,,,,,,,,,,,,
1799999998990719258,2027-01-15T07:59:58.990719258Z,,1.49,0.00,-0.21,2.13,2.13,2.98,4.26,2.77,5.53,4.68,5.53,4.47,6.38,,,,,,,,,,,,,,
1799999999002320186,2027-01-15T07:59:59.002320186Z,,0.85,-0.21,0.43,1.91,2.55,2.77,3.83,3.19,5.11,2.77,5.53,4.68,7.23,,,,,,,,,,,,,,
1799999999013921114,2027-01-15T07:59:59.013921114Z,,0.21,-0.64,0.85,-0.43,-0.43,1.49,3.40,4.04,4.47,4.26,5.32,7.45,6.81,,,,,,,,,,,,,,
1799999999025522042,2027-01-15T07:59:59.025522042Z,,-0.43,-0.21,-0.21,-0.21,0.00,1.28,2.77,3.83,4.89,4.68,5.74,7.66,6.17,,,,,,,,,,,,,,
1799999999037122970,2027-01-15T07:59:59.037122970Z,,-0.43,0.21,0.85,0.64,1.70,1.91,0.21,2.55,4.47,5.96,5.32,4.89,7.45,,,,,,,,,,,,,,
1799999999048723898,2027-01-15T07:59:59.048723898Z,,-0.21,0.21,1.49,0.64,2.34,1.91,0.00,2.55,4.47,6.60,4.89,4.68,7.23,,,,,,,,,,,,,,
1799999999060324826,2027-01-15T07:59:59.060324826Z,,0.21,0.85,1.49,0.85,2.34,1.06,2.55,3.40,4.47,5.32,5.53,6.60,6.81,,,,,,,,,,,,,,
1799999999071925755,2027-01-15T07:59:59.071925755Z,,-0.21,0.21,1.49,0.21,1.06,1.06,2.77,3.62,4.89,4.26,5.53,7.87,7.23,,,,,,,,,,,,,,
1799999999083526683,2027-01-15T07:59:59.083526683Z,,0.64,0.21,1.06,-0.64,2.77,1.70,3.83,5.53,3.40,4.89,5.74,8.51,7.45,,,,,,,,,,,,,,
1799999999095127611,2027-01-15T07:59:59.095127611Z,,0.43,1.06,1.06,-0.21,3.62,2.55,5.32,6.17,3.19,5.53,5.74,8.09,7.45,,,,,,,,,,,,,,
1799999999106728539,2027-01-15T07:59:59.106728539Z,,0.64,2.13,2.98,1.06,2.34,3.40,5.11,4.47,3.40,4.26,5.74,7.23,8.30,,,,,,,,,,,,,,
1799999999118329467,2027-01-15T07:59:59.118329467Z,,-0.43,3.19,2.55,1.28,1.28,3.40,4.47,3.19,3.19,5.53,5.96,7.66,9.36,,,,,,,,,,,,,,
1799999999129930395,2027-01-15T07:59:59.129930395Z,,-1.49,1.06,0.00,0.85,0.43,1.70,2.98,2.13,5.53,7.87,5.74,6.38,8.51,,,,,,,,,,,,,,
1799999999141531323,2027-01-15T07:59:59.141531323Z,,-0.64,0.64,-1.28,0.21,0.64,1.06,2.13,3.19,5.32,7.23,5.53,5.32,7.45,,,,,,,,,,,,,,
1799999999153132251,2027-01-15T07:59:59.153132251Z,,0.21,0.00,-0.64,0.64,2.13,0.64,3.62,5.32,4.68,4.89,6.17,6.17,6.17,,,,,,,,,,,,,,
1799999999164733179,2027-01-15T07:59:59.164733179Z,,0.85,0.00,0.43,1.06,2.98,1.70,3.83,5.96,5.53,5.32,6.38,7.02,7.66,,,,,,,,,,,,,,
1799999999176334107,2027-01-15T07:59:59.176334107Z,,0.64,0.00,2.13,2.34,1.91,2.98,3.40,6.38,5.53,5.96,5.96,5.74,9.36,,,,,,,,,,,,,,
1799999999187935035,2027-01-15T07:59:59.187935035Z,,0.64,-0.21,1.49,2.98,1.28,2.34,3.83,5.11,5.32,6.81,6.17,6.60,9.15,,,,,,,,,,,,,,
1799999999199535963,2027-01-15T07:59:59.199535963Z,,-0.21,-0.43,1.28,0.64,2.98,1.70,4.68,3.62,5.32,6.81,5.32,8.09,8.09,,,,,,,,,,,,,,
1799999999211136891,2027-01-15T07:59:59.211136891Z,,-0.85,-0.64,1.49,-0.85,2.98,3.19,4.47,3.62,5.32,6.60,6.38,7.87,8.30,,,,,,,,,,,,,,
1799999999222737820,2027-01-15T07:59:59.222737820Z,,-0.85,1.06,-0.43,0.85,1.91,4.04,4.89,4.47,5.11,8.09,5.96,6.81,7.87,,,,,,,,,,,,,,
1799999999234338748,2027-01-15T07:59:59.234338748Z,,0.00,0.21,0.00,0.85,1.28,4.89,5.53,5.32,5.32,6.60,5.53,6.17,8.09,,,,,,,,,,,,,,
1799999999245939676,2027-01-15T07:59:59.245939676Z,,-0.21,-1.49,1.49,0.85,0.85,3.19,5.11,4.68,4.89,4.26,5.96,6.38,8.30,,,,,,,,,,,,,,
1799999999257540604,2027-01-15T07:59:59.257540604Z,,-0.85,-1.06,0.64,1.49,1.06,1.06,4.26,4.89,4.47,4.89,5.74,7.45,7.87,,,,,,,,,,,,,,
1799999999269141532,2027-01-15T07:59:59.269141532Z,,-1.28,0.43,0.21,2.77,1.49,3.62,3.62,4.89,4.68,5.96,4.26,7.23,7.87,,,,,,,,,,,,,,
1799999999280742460,2027-01-15T07:59:59.280742460Z,,-1.91,0.43,-0.64,3.40,2.13,3.62,4.04,4.47,4.47,6.17,5.32,6.17,8.51,,,,,,,,,,,,,,
1799999999292343388,2027-01-15T07:59:59.292343388Z,,-2.13,-1.70,-1.91,1.91,4.26,3.83,3.62,3.62,4.04,4.89,6.17,7.02,9.15,,,,,,,,,,,,,,
1799999999303944316,2027-01-15T07:59:59.303944316Z,,-1.70,-1.91,-0.85,1.06,4.47,3.83,3.62,4.47,4.04,4.68,5.53,6.81,7.87,,,,,,,,,,,,,,
1799999999315545244,2027-01-15T07:59:59.315545244Z,,-1.28,1.06,1.70,1.06,2.55,2.34,2.77,5.96,4.89,5.11,7.23,7.02,6.60,,,,,,,,,,,,,,
1799999999327146172,2027-01-15T07:59:59.327146172Z,,-1.70,1.28,1.91,0.00,2.13,1.70,1.49,6.17,4.68,4.68,7.23,4.89,7.23,,,,,,,,,,,,,,
1799999999338747100,2027-01-15T07:59:59.338747100Z,,-0.85,0.64,2.34,0.64,3.19,1.28,2.13,4.47,4.47,4.89,6.60,5.11,6.38,,,,,,,,,,,,,,
1799999999350348028,2027-01-15T07:59:59.350348028Z,,-0.43,0.43,1.91,1.06,3.19,2.34,3.40,4.26,4.68,4.68,7.02,5.74,6.38,,,,,,,,,,,,,,
1799999999361948956,2027-01-15T07:59:59.361948956Z,,0.21,0.64,0.43,2.13,2.13,4.04,3.19,5.53,3.83,4.04,7.66,7.87,7.66,,,,,,,,,,,,,,
1799999999373549884,2027-01-15T07:59:59.373549884Z,,0.64,0.64,0.43,1.06,1.91,4.68,2.77,5.32,4.89,4.68,6.60,6.17,8.09,,,,,,,,,,,,,,
1799999999385150813,2027-01-15T07:59:59.385150813Z,,-0.43,-0.43,-0.85,0.21,2.13,4.89,4.68,4.47,6.17,6.17,5.53,6.60,8.72,,,,,,,,,,,,,,
1799999999396751741,2027-01-15T07:59:59.396751741Z,,-0.85,0.43,0.00,1.70,1.06,2.98,2.34,3.83,4.47,5.53,6.38,8.09,7.66,,,,,,,,,,,,,,
1799999999408352669,2027-01-15T07:59:59.408352669Z,,-0.43,0.43,1.06,1.91,1.70,2.13,0.43,3.40,4.89,4.89,7.02,6.38,6.38,,,,,,,,,,,,,,
1799999999419953597,2027-01-15T07:59:59.419953597Z,,-1.28,-1.28,0.43,1.28,2.98,3.19,1.06,3.83,5.32,4.89,7.23,4.47,6.38,,,,,,,,,,,,,,
1799999999431554525,2027-01-15T07:59:59.431554525Z,,-1.91,-1.28,0.00,0.21,2.34,4.26,1.28,3.62,4.89,5.32,7.87,4.47,7.23,,,,,,,,,,,,,,
1799999999443155453,2027-01-15T07:59:59.443155453Z,,-1.06,0.43,0.21,1.06,1.91,4.04,1.06,3.19,4.68,4.89,7.45,5.32,7.02,,,,,,,,,,,,,,
1799999999454756381,2027-01-15T07:59:59.454756381Z,,0.00,0.64,0.43,2.34,2.55,3.19,1.49,2.98,4.26,5.32,6.60,5.74,6.17,,,,,,,,,,,,,,
1799999999466357309,2027-01-15T07:59:59.466357309Z,,1.06,0.00,0.85,2.34,2.98,2.13,2.98,2.55,4.26,5.74,6.17,6.38,7.45,,,,,,,,,,,,,,
1799999999477958237,2027-01-15T07:59:59.477958237Z,,0.43,-0.64,0.43,2.55,3.40,1.91,3.19,1.91,4.68,6.60,7.23,7.45,7.87,,,,,,,,,,,,,,
1799999999489559165,2027-01-15T07:59:59.489559165Z,,-1.91,-0.21,0.21,0.64,2.77,2.77,1.70,2.13,5.32,6.17,8.51,8.30,8.51,,,,,,,,,,,,,,
1799999999501160093,2027-01-15T07:59:59.501160093Z,,-2.77,-1.06,0.21,1.28,2.34,2.34,1.70,2.77,4.47,5.11,7.23,7.66,8.09,,,,,,,,,,,,,,
1799999999512761021,2027-01-15T07:59:59.512761021Z,,-3.40,-2.34,0.85,1.70,2.77,2.55,3.19,2.55,4.04,5.32,5.11,7.66,7.02,,,,,,,,,,,,,,
1799999999524361949,2027-01-15T07:59:59.524361949Z,,-2.98,-2.13,0.00,1.06,3.40,2.77,3.19,3.19,4.47,5.11,5.53,7.02,6.60,,,,,,,,,,,,,,
1799999999535962878,2027-01-15T07:59:59.535962878Z,,-1.06,-0.21,0.43,0.00,1.70,1.70,3.40,4.89,4.47,5.11,6.60,5.96,6.60,,,,,,,,,,,,,,
1799999999547563806,2027-01-15T07:59:59.547563806Z,,-1.28,-0.21,1.06,0.21,1.06,2.77,4.04,4.47,4.04,4.89,5.96,7.02,7.23,,,,,,,,,,,,,,
1799999999559164734,2027-01-15T07:59:59.559164734Z,,-1.06,-1.49,1.49,1.49,1.70,2.77,2.34,3.40,4.26,4.89,4.68,7.02,7.23,,,,,,,,,,,,,,
1799999999570765662,2027-01-15T07:59:59.570765662Z,,0.64,-1.06,1.49,2.13,1.70,1.70,1.91,3.19,4.04,4.89,5.53,7.02,7.45,,,,,,,,,,,,,,
1799999999582366590,2027-01-15T07:59:59.582366590Z,,0.85,0.43,0.64,2.34,2.34,3.19,3.83,4.04,4.68,5.32,5.53,5.96,7.23,,,,,,,,,,,,,,
1799999999593967518,2027-01-15T07:59:59.593967518Z,,-0.21,-1.06,0.00,2.34,1.70,3.40,4.68,4.04,4.89,4.26,5.74,5.53,6.38,,,,,,,,,,,,,,
1799999999605568446,2027-01-15T07:59:59.605568446Z,,-2.98,-0.64,-0.21,1.49,1.49,3.62,2.34,3.40,3.83,4.47,5.96,7.23,7.02,,,,,,,,,,,,,,
1799999999617169374,2027-01-15T07:59:59.617169374Z,,-2.13,-0.64,1.06,2.34,2.34,4.26,1.49,2.98,4.47,4.68,5.74,8.30,7.23,,,,,,,,,,,,,,
1799999999628770302,2027-01-15T07:59:59.628770302Z,,0.85,-1.06,1.70,1.49,3.40,3.19,3.19,3.40,5.74,6.60,5.11,8.09,7.02,,,,,,,,,,,,,,
1799999999640371230,2027-01-15T07:59:59.640371230Z,,1.06,-2.13,1.49,1.28,4.04,2.34,3.83,4.47,5.11,6.60,5.11,6.81,7.02,,,,,,,,,,,,,,
1799999999651972158,2027-01-15T07:59:59.651972158Z,,-0.64,-1.49,1.06,1.91,4.04,1.91,3.62,4.26,4.47,7.66,4.47,4.68,6.17,,,,,,,,,,,,,,
1799999999663573086,2027-01-15T07:59:59.663573086Z,,-1.28,-0.43,1.06,1.49,3.62,1.06,3.19,3.40,4.68,7.66,4.89,5.11,5.96,,,,,,,,,,,,,,
1799999999675174014,2027-01-15T07:59:59.675174014Z,,-0.85,0.85,-0.85,-0.64,1.49,2.77,3.40,2.34,3.62,5.32,5.32,5.96,6.38,,,,,,,,,,,,,,
1799999999686774942,2027-01-15T07:59:59.686774942Z,,-0.21,0.21,-1.70,-0.64,1.28,3.62,4.04,3.19,3.83,3.83,5.96,7.45,6.17,,,,,,,,,,,,,,
1799999999698375871,2027-01-15T07:59:59.698375871Z,,1.49,-1.28,-1.06,0.43,2.98,2.34,4.89,4.47,4.68,2.98,8.09,7.66,7.23,,,,,,,,,,,,,,
1799999999709976799,2027-01-15T07:59:59.709976799Z,,2.13,-1.06,0.43,1.28,2.55,3.19,4.89,5.11,4.26,2.77,7.66,5.96,8.09,,,,,,,,,,,,,,
1799999999721577727,2027-01-15T07:59:59.721577727Z,,0.85,0.21,-0.43,0.85,1.70,4.26,2.55,3.62,4.26,4.47,5.32,5.11,7.87,,,,,,,,,,,,,,
1799999999733178655,2027-01-15T07:59:59.733178655Z,,-0.21,0.43,-0.21,0.64,1.06,3.40,1.91,3.83,4.68,5.96,4.89,5.96,6.81,,,,,,,,,,,,,,
1799999999744779583,2027-01-15T07:59:59.744779583Z,,1.06,1.28,1.49,1.28,0.85,2.98,2.34,6.17,4.47,5.96,4.26,5.74,6.38,,,,,,,,,,,,,,
1799999999756380511,2027-01-15T07:59:59.756380511Z,,0.85,-0.43,1.91,1.91,1.28,1.49,4.26,6.81,4.26,6.81,4.68,5.11,6.81,,,,,,,,,,,,,,
1799999999767981439,2027-01-15T07:59:59.767981439Z,,1.06,-2.55,1.06,1.70,1.91,1.06,4.47,4.89,4.68,5.53,5.53,6.81,7.45,,,,,,,,,,,,,,
1799999999779582367,2027-01-15T07:59:59.779582367Z,,0.85,-2.13,0.85,0.85,1.06,1.28,3.62,3.40,4.68,4.89,5.32,8.51,7.66,,,,,,,,,,,,,,
1799999999791183295,2027-01-15T07:59:59.791183295Z,,0.64,0.00,1.06,0.00,0.64,0.64,5.11,3.40,5.53,5.32,5.53,8.72,7.87,,,,,,,,,,,,,,
1799999999802784223,2027-01-15T07:59:59.802784223Z,,-1.28,0.64,0.43,0.85,0.85,1.28,4.47,4.68,5.53,5.32,5.53,7.02,7.02,,,,,,,,,,,,,,
1799999999814385151,2027-01-15T07:59:59.814385151Z,,-2.55,0.21,0.00,1.06,1.28,2.34,3.83,4.68,4.89,4.89,5.32,7.02,7.45,,,,,,,,,,,,,,
1799999999825986079,2027-01-15T07:59:59.825986079Z,,-2.34,1.28,1.28,0.00,1.28,4.68,3.62,3.40,3.83,5.96,6.17,5.53,8.09,,,,,,,,,,,,,,
1799999999837587007,2027-01-15T07:59:59.837587007Z,,-1.28,2.77,0.85,0.43,0.64,4.47,2.77,3.83,3.40,7.02,6.60,6.60,8.09,,,,,,,,,,,,,,
1799999999849187936,2027-01-15T07:59:59.849187936Z,,0.00,2.34,-0.21,1.06,-0.21,4.68,3.40,5.32,4.47,8.72,6.81,6.17,7.45,,,,,,,,,,,,,,
1799999999860788864,2027-01-15T07:59:59.860788864Z,,0.00,2.34,-0.21,1.49,-0.85,4.26,4.04,6.60,5.32,7.02,5.11,4.89,7.23,,,,,,,,,,,,,,
1799999999872389792,2027-01-15T07:59:59.872389792Z,,-0.21,2.13,-0.43,1.06,1.70,1.91,3.62,5.11,4.68,5.96,5.32,5.96,7.23,,,,,,,,,,,,,,
1799999999883990720,2027-01-15T07:59:59.883990720Z,,0.00,1.91,-0.43,0.64,2.98,2.34,2.98,4.47,4.04,5.96,6.60,7.02,7.45,,,,,,,,,,,,,,
1799999999895591648,2027-01-15T07:59:59.895591648Z,,-0.64,1.91,-0.64,1.28,1.28,4.89,2.34,4.26,4.47,7.87,7.66,7.45,7.87,,,,,,,,,,,,,,
1799999999907192576,2027-01-15T07:59:59.907192576Z,,-0.85,1.70,0.43,2.13,0.64,4.68,1.49,4.04,4.26,7.87,8.30,7.66,8.72,,,,,,,,,,,,,,
1799999999918793504,2027-01-15T07:59:59.918793504Z,,-0.43,-0.64,1.70,2.77,1.28,2.34,1.91,4.68,4.89,5.53,7.87,5.11,8.72,,,,,,,,,,,,,,
1799999999930394432,2027-01-15T07:59:59.930394432Z,,0.21,-1.70,1.49,2.77,1.49,2.34,3.62,4.89,5.11,5.53,6.81,4.26,8.09,,,,,,,,,,,,,,
1799999999941995360,2027-01-15T07:59:59.941995360Z,,-1.06,-0.43,1.28,2.98,2.77,0.85,4.26,3.83,4.47,5.11,6.60,5.96,7.66,,,,,,,,,,,,,,
1799999999953596288,2027-01-15T07:59:59.953596288Z,,-1.49,-0.85,-0.21,2.34,3.40,1.28,4.04,3.83,4.47,3.83,5.74,5.96,6.81,,,,,,,,,,,,,,
1799999999965197216,2027-01-15T07:59:59.965197216Z,,-2.13,-1.70,-1.49,1.49,2.34,3.19,2.55,4.26,5.11,2.98,6.38,5.32,6.81,,,,,,,,,,,,,,
1799999999976798144,2027-01-15T07:59:59.976798144Z,,-2.13,-1.70,-0.64,1.91,1.49,3.62,2.13,4.89,5.53,4.47,8.09,5.74,7.87,,,,,,,,,,,,,,
1799999999988399072,2027-01-15T07:59:59.988399072Z,,1.06,-0.43,1.91,1.28,0.43,3.40,3.62,3.83,5.32,5.96,8.30,7.02,8.09,,,,,,,,,,,,,,
