# spacing_uv=20.0
timestamp_ns,timestamp_iso,AF3,F7,F3,FC5,T7,P7,O1,O2,P8,T8,FC6,F4,F8,AF4,AF3_q,F7_q,F3_q,FC5_q,T7_q,P7_q,O1_q,O2_q,P8_q,T8_q,FC6_q,F4_q,F8_q,AF4_q
1799999990000000000,2027-01-15T07:59:50.000000000Z,,,,,,,,,,,,,,,,,,,,,,,,,,,,
1799999990006761326,2027-01-15T07:59:50.006761326Z,,,,,1.86,1.43,,,,,,,2.86,5.86,,,,,,,,,,,,,,
1799999990013522651,2027-01-15T07:59:50.013522651Z,-1.86,1.14,-0.43,1.29,-0.29,0.57,2.71,6.43,3.00,1.14,5.86,3.57,1.86,7.00,,,,,,,,,,,,,,
1799999990020283976,2027-01-15T07:59:50.020283976Z,-1.00,-0.29,-1.14,1.29,-2.00,0.43,2.14,4.00,3.00,2.00,4.71,4.57,1.86,7.29,,,,,,,,,,,,,,
1799999990027045301,2027-01-15T07:59:50.027045301Z,-0.57,-1.43,-1.14,0.86,-0.71,2.00,1.71,1.57,3.71,3.43,4.00,5.57,3.00,5.86,,,,,,,,,,,,,,
1799999990033806627,2027-01-15T07:59:50.033806627Z,0.14,-0.86,-0.29,0.00,1.29,3.57,1.86,1.29,4.29,4.43,4.57,6.00,3.14,4.86,,,,,,,,,,,,,,
1799999990040567952,2027-01-15T07:59:50.040567952Z,0.14,-1.29,0.71,-0.43,2.29,4.00,2.71,2.86,3.43,4.00,5.14,5.29,2.71,5.14,,,,,,,,,,,,,,
1799999990047329277,2027-01-15T07:59:50.047329277Z,0.71,-3.14,0.14,-0.14,1.43,2.29,3.14,4.71,1.57,3.14,4.00,4.00,2.71,6.14,,,,,,,,,,,,,,
1799999990054090602,2027-01-15T07:59:50.054090602Z,0.71,-2.57,-0.43,0.00,0.71,0.57,1.57,5.14,2.71,3.71,2.43,3.57,3.57,6.43,,,,,,,,,,,,,,
1799999990060851927,2027-01-15T07:59:50.060851927Z,1.71,1.29,0.29,-0.57,1.00,0.29,1.43,4.14,4.00,4.14,3.00,4.43,4.29,6.43,,,,,,,,,,,,,,
1799999990067613253,2027-01-15T07:59:50.067613253Z,-2.57,2.43,0.14,-0.57,1.57,1.86,4.00,3.29,1.71,3.86,3.71,4.71,4.43,6.00,,,,,,,,,,,,,,
1799999990074374578,2027-01-15T07:59:50.074374578Z,-2.14,0.57,-0.14,0.43,2.14,3.43,4.57,3.14,0.00,3.71,3.00,4.71,4.43,6.29,,,,,,,,,,,,,,
1799999990081135903,2027-01-15T07:59:50.081135903Z,0.43,-1.00,0.57,1.71,2.57,4.43,2.71,3.00,1.00,3.71,2.43,5.29,4.86,7.14,,,,,,,,,,,,,,
1799999990087897228,2027-01-15T07:59:50.087897228Z,0.86,-1.29,1.29,3.00,2.00,3.43,1.00,2.43,2.71,3.71,2.86,4.71,6.14,7.43,,,,,,,,,,,,,,
1799999990094658554,2027-01-15T07:59:50.094658554Z,-0.71,0.29,1.86,2.14,1.14,1.71,2.29,2.14,3.00,3.71,3.86,3.14,7.14,6.14,,,,,,,,,,,,,,
1799999990101419879,2027-01-15T07:59:50.101419879Z,-1.14,1.14,1.14,-0.14,2.00,1.29,2.86,2.71,3.14,3.71,3.71,2.71,6.29,4.71,,,,,,,,,,,,,,
1799999990108181204,2027-01-15T07:59:50.108181204Z,-0.57,0.00,0.43,-0.71,1.14,2.29,-0.14,1.86,5.43,3.43,2.00,5.29,5.71,4.71,,,,,,,,,,,,,,
1799999990114942529,2027-01-15T07:59:50.114942529Z,-1.00,0.29,0.71,0.57,-1.14,3.43,-0.29,-0.14,4.43,3.57,1.14,7.00,6.29,4.14,,,,,,,,,,,,,,
1799999990121703854,2027-01-15T07:59:50.121703854Z,-1.14,1.86,1.00,1.57,0.57,4.29,3.29,0.86,1.00,3.43,2.14,5.14,5.57,2.29,,,,,,,,,,,,,,
1799999990128465180,2027-01-15T07:59:50.128465180Z,-2.57,2.14,1.14,2.14,3.29,4.29,4.29,3.14,-0.14,2.71,2.86,3.43,4.14,2.00,,,,,,,,,,,,,,
1799999990135226505,2027-01-15T07:59:50.135226505Z,-2.29,1.14,1.14,3.00,3.86,3.57,2.14,4.00,1.43,2.43,2.57,4.00,3.43,4.00,,,,,,,,,,,,,,
1799999990141987830,2027-01-15T07:59:50.141987830Z,-1.43,-0.14,0.86,3.86,2.00,2.71,0.71,3.29,2.71,2.57,2.57,4.71,3.43,6.00,,,,,,,,,,,,,,
1799999990148749155,2027-01-15T07:59:50.148749155Z,-1.57,-1.00,0.14,3.43,0.71,2.00,1.71,2.29,2.86,2.57,2.86,4.14,4.86,5.57,,,,,,,,,,,,,,
1799999990155510481,2027-01-15T07:59:50.155510481Z,-0.71,-0.71,-0.29,2.57,2.14,1.14,3.43,2.57,2.43,1.71,3.14,3.14,6.00,2.86,,,,,,,,,,,,,,
1799999990162271806,2027-01-15T07:59:50.162271806Z,-0.71,-1.00,0.14,2.43,2.71,0.71,4.00,1.29,3.00,1.57,3.57,3.86,5.29,2.71,,,,,,,,,,,,,,
1799999990169033131,2027-01-15T07:59:50.169033131Z,-0.57,-1.57,-0.14,0.14,1.86,1.29,4.14,-0.29,2.57,2.43,4.29,5.00,4.57,4.14,,,,,,,,,,,,,,
1799999990175794456,2027-01-15T07:59:50.175794456Z,-2.00,-1.14,-0.57,-2.43,2.00,2.29,3.43,-0.43,1.43,2.71,5.00,4.71,5.00,4.00,,,,,,,,,,,,,,
1799999990182555781,2027-01-15T07:59:50.182555781Z,-1.71,0.00,0.00,-3.43,2.00,3.00,2.43,0.57,1.00,2.14,5.14,4.43,4.86,2.86,,,,,,,,,,,,,,
1799999990189317107,2027-01-15T07:59:50.189317107Z,-0.14,-0.14,1.43,-2.00,2.00,2.71,1.43,1.71,1.43,1.57,4.14,4.43,3.14,3.00,,,,,,,,,,,,,,
1799999990196078432,2027-01-15T07:59:50.196078432Z,-0.14,-1.86,2.57,0.00,2.14,1.43,1.29,2.29,1.57,2.00,2.86,5.14,2.29,4.71,,,,,,,,,,,,,,
1799999990202839757,2027-01-15T07:59:50.202839757Z,-1.29,-1.57,1.00,0.71,1.43,1.57,1.86,1.57,0.14,2.57,3.29,5.86,4.71,5.29,,,,,,,,,,,,,,
1799999990209601082,2027-01-15T07:59:50.209601082Z,-2.14,0.57,-0.86,0.71,0.14,3.00,1.43,2.14,-0.14,1.57,4.14,5.29,6.14,4.57,,,,,,,,,,,,,,
1799999990216362408,2027-01-15T07:59:50.216362408Z,-1.00,-0.43,0.14,0.00,0.14,2.57,1.86,3.43,1.86,2.86,4.14,3.71,5.29,5.57,,,,,,,,,,,,,,
1799999990223123733,2027-01-15T07:59:50.223123733Z,-0.57,-2.86,1.43,-0.43,-0.29,1.71,3.00,3.00,2.57,5.86,4.14,2.86,5.71,5.71,,,,,,,,,,,,,,
1799999990229885058,2027-01-15T07:59:50.229885058Z,-0.29,-2.14,1.00,0.14,-1.86,2.71,3.71,1.43,1.29,6.43,4.14,3.57,6.29,4.29,,,,,,,,,,,,,,
1799999990236646383,2027-01-15T07:59:50.236646383Z,-1.29,0.14,1.00,0.71,-2.71,3.86,3.57,0.86,0.57,4.86,3.71,4.14,5.71,3.00,,,,,,,,,,,,,,
1799999990243407708,2027-01-15T07:59:50.243407708Z,-2.29,1.29,1.00,0.71,-1.57,4.14,3.14,2.43,1.57,3.00,3.00,4.43,4.29,3.14,,,,,,,,,,,,,,
1799999990250169034,2027-01-15T07:59:50.250169034Z,-2.71,0.14,0.86,0.71,-1.29,3.14,2.14,3.71,3.14,2.14,3.43,4.43,3.29,4.57,,,,,,,,,,,,,,
1799999990256930359,2027-01-15T07:59:50.256930359Z,-3.00,-1.00,0.86,1.43,-3.57,2.71,0.86,1.71,3.43,2.14,3.86,4.00,3.57,4.71,,,,,,,,,,,,,,
1799999990263691684,2027-01-15T07:59:50.263691684Z,-1.57,-1.43,-0.14,1.29,-2.29,2.43,-0.29,-0.29,2.57,2.43,2.43,4.00,4.14,3.57,,,,,,,,,,,,,,
1799999990270453009,2027-01-15T07:59:50.270453009Z,-1.14,-2.14,-2.14,1.71,1.86,1.57,-0.86,0.29,1.57,3.29,2.43,5.00,5.29,3.71,,,,,,,,,,,,,,
1799999990277214335,2027-01-15T07:59:50.277214335Z,0.14,-2.14,-3.14,3.00,3.14,1.00,-0.86,1.00,1.71,3.00,3.71,5.86,5.86,4.71,,,,,,,,,,,,,,
1799999990283975660,2027-01-15T07:59:50.283975660Z,0.00,-1.57,-2.43,3.86,1.29,1.00,-0.57,1.43,3.00,1.57,4.14,5.86,4.71,5.43,,,,,,,,,,,,,,
1799999990290736985,2027-01-15T07:59:50.290736985Z,-2.29,-1.14,-0.86,2.14,-0.86,-0.14,0.71,1.14,4.14,1.00,3.71,5.00,2.71,5.71,,,,,,,,,,,,,,
1799999990297498310,2027-01-15T07:59:50.297498310Z,-3.00,-0.57,0.43,-0.71,-1.43,-0.43,2.14,0.43,4.29,3.43,3.29,3.57,1.57,5.14,,,,,,,,,,,,,,
1799999990304259635,2027-01-15T07:59:50.304259635Z,-2.57,0.71,0.29,-1.43,-1.29,1.29,1.57,0.43,3.57,5.57,3.71,3.00,2.86,5.71,,,,,,,,,,,,,,
1799999990311020961,2027-01-15T07:59:50.311020961Z,,1.29,0.00,-0.86,-1.43,1.57,0.43,1.14,4.14,3.71,3.14,4.29,4.14,7.29,,,,,,,,,,,,,,
1799999990317782286,2027-01-15T07:59:50.317782286Z,,0.00,0.43,-0.29,-0.71,0.14,1.43,2.57,4.86,1.43,2.71,4.86,4.14,7.57,,,,,,,,,,,,,,
1799999990324543611,2027-01-15T07:59:50.324543611Z,-2.14,-0.29,0.71,1.86,-0.43,0.29,2.86,4.00,5.29,1.43,4.14,4.00,4.43,5.86,,,,,,,,,,,,,,
1799999990331304936,2027-01-15T07:59:50.331304936Z,-1.71,0.29,1.14,3.86,-0.57,1.14,2.43,4.14,4.71,2.29,4.86,3.71,5.14,4.29,,,,,,,,,,,,,,
1799999990338066261,2027-01-15T07:59:50.338066261Z,0.14,0.14,2.14,4.43,-0.29,1.00,1.29,3.29,3.14,2.00,4.14,4.29,5.86,3.86,,,,,,,,,,,,,,
1799999990344827587,2027-01-15T07:59:50.344827587Z,0.43,-0.43,3.14,2.43,-0.29,0.29,1.29,3.00,1.86,1.43,3.29,4.43,5.29,4.71,,,,,,,,,,,,,,
1799999990351588912,2027-01-15T07:59:50.351588912Z,-0.43,-0.14,1.43,-0.43,-0.86,0.00,2.57,3.57,2.57,2.57,4.43,3.71,4.71,6.29,,,,,,,,,,,,,,
1799999990358350237,2027-01-15T07:59:50.358350237Z,,0.43,-2.43,-1.00,0.29,0.14,2.14,3.29,4.14,4.57,6.43,4.00,6.29,6.14,,,,,,,,,,,,,,
1799999990365111562,2027-01-15T07:59:50.365111562Z,-0.71,-1.71,-3.29,-0.29,2.43,0.29,0.71,2.14,4.29,4.29,5.29,5.29,6.57,4.29,,,,,,,,,,,,,,
1799999990371872888,2027-01-15T07:59:50.371872888Z,0.29,-3.43,-0.29,-1.29,2.00,1.57,2.00,1.43,3.71,3.86,3.57,6.14,5.43,4.43,,,,,,,,,,,,,,
1799999990378634213,2027-01-15T07:59:50.378634213Z,0.86,-2.14,1.71,-2.00,0.43,2.00,4.29,1.57,4.00,6.00,4.43,6.29,8.43,6.29,,,,,,,,,,,,,,
1799999990385395538,2027-01-15T07:59:50.385395538Z,6.00,-0.14,1.00,-1.29,0.57,0.57,5.71,1.57,3.86,8.71,6.71,5.86,13.29,7.86,,,,,,,,,,,,,,
1799999990392156863,2027-01-15T07:59:50.392156863Z,9.43,0.43,-0.57,0.57,1.86,-1.29,4.57,1.57,2.43,7.86,6.71,3.71,15.57,8.14,,,,,,,,,,,,,,
1799999990398918188,2027-01-15T07:59:50.398918188Z,2.29,-1.43,-1.14,1.86,2.29,-1.71,2.57,1.57,0.29,3.00,3.71,1.00,9.71,5.71,,,,,,,,,,,,,,
1799999990405679514,2027-01-15T07:59:50.405679514Z,1.14,-1.71,-0.43,0.43,1.00,1.14,3.14,1.43,0.14,-0.14,1.71,0.71,2.00,1.43,,,,,,,,,,,,,,
1799999990412440839,2027-01-15T07:59:50.412440839Z,1.14,1.00,-0.14,0.43,1.14,3.71,2.86,1.14,1.43,2.29,2.86,2.43,-0.57,-0.71,,,,,,,,,,,,,,
1799999990419202164,2027-01-15T07:59:50.419202164Z,1.00,2.00,1.00,3.00,1.86,3.14,-0.86,1.14,2.00,6.86,3.43,3.71,1.00,2.57,,,,,,,,,,,,,,
1799999990425963489,2027-01-15T07:59:50.425963489Z,-0.43,1.00,2.14,4.14,1.86,1.86,-2.57,1.57,2.29,8.86,3.00,4.57,3.29,5.71,,,,,,,,,,,,,,
1799999990432724815,2027-01-15T07:59:50.432724815Z,-0.71,1.00,2.29,2.57,1.57,1.86,0.14,2.14,2.86,7.00,3.00,5.14,6.00,6.29,,,,,,,,,,,,,,
1799999990439486140,2027-01-15T07:59:50.439486140Z,-0.57,2.57,1.86,0.71,1.29,2.14,3.86,2.29,3.71,3.14,3.00,5.57,7.29,3.71,,,,,,,,,,,,,,
1799999990446247465,2027-01-15T07:59:50.446247465Z,-0.14,3.29,1.71,-0.14,1.86,1.43,3.86,2.00,3.71,-0.43,2.86,4.71,4.00,0.29,,,,,,,,,,,,,,
1799999990453008790,2027-01-15T07:59:50.453008790Z,0.00,0.00,1.00,0.14,1.86,0.00,0.86,1.71,2.57,0.86,3.00,3.71,0.29,0.71,,,,,,,,,,,,,,
1799999990459770115,2027-01-15T07:59:50.459770115Z,-1.57,-3.71,-1.43,-0.71,0.71,0.29,2.00,1.86,0.71,3.43,3.71,3.71,1.00,3.14,,,,,,,,,,,,,,
1799999990466531441,2027-01-15T07:59:50.466531441Z,0.86,-3.00,-1.43,-1.29,1.86,1.86,4.14,1.86,-1.14,4.29,4.57,5.14,1.29,4.43,,,,,,,,,,,,,,
1799999990473292766,2027-01-15T07:59:50.473292766Z,-0.57,-1.43,1.71,-0.71,3.14,1.71,3.43,1.14,-1.00,3.43,5.57,5.29,0.14,4.14,,,,,,,,,,,,,,
1799999990480054091,2027-01-15T07:59:50.480054091Z,-0.86,-2.43,3.14,-0.43,2.57,1.14,2.71,0.43,0.71,3.14,5.29,3.86,0.43,4.14,,,,,,,,,,,,,,
1799999990486815416,2027-01-15T07:59:50.486815416Z,-3.43,-3.57,2.00,-0.14,2.00,1.14,3.00,0.29,2.57,3.43,3.71,3.14,2.00,4.43,,,,,,,,,,,,,,
1799999990493576742,2027-01-15T07:59:50.493576742Z,-4.29,-2.00,0.29,0.29,2.00,0.57,1.43,0.43,3.14,4.00,2.00,4.43,3.29,5.00,,,,,,,,,,,,,,
1799999990500338067,2027-01-15T07:59:50.500338067Z,-2.86,1.14,-1.29,0.57,2.43,0.14,-1.00,0.86,2.57,2.71,2.00,5.43,4.43,5.57,,,,,,,,,,,,,,
1799999990507099392,2027-01-15T07:59:50.507099392Z,-2.57,0.86,-1.57,0.29,1.86,0.57,-2.14,0.86,3.29,1.14,3.86,3.71,5.43,6.29,,,,,,,,,,,,,,
1799999990513860717,2027-01-15T07:59:50.513860717Z,-3.00,-1.00,-0.86,0.71,0.86,0.57,-1.00,0.43,4.43,1.57,4.14,2.29,4.86,5.71,,,,,,,,,,,,,,
1799999990520622042,2027-01-15T07:59:50.520622042Z,0.00,-0.43,0.29,0.14,0.14,1.00,1.14,1.43,4.29,1.86,2.57,3.43,3.43,4.29,,,,,,,,,,,,,,
1799999990527383368,2027-01-15T07:59:50.527383368Z,0.14,0.57,1.00,-1.29,0.14,2.14,3.14,3.00,4.29,1.43,1.29,3.57,3.43,3.71,,,,,,,,,,,,,,
1799999990534144693,2027-01-15T07:59:50.534144693Z,0.00,0.00,0.43,-2.00,0.71,3.00,4.29,4.00,4.86,1.86,1.29,2.00,4.00,4.57,,,,,,,,,,,,,,
1799999990540906018,2027-01-15T07:59:50.540906018Z,-0.14,-1.43,0.43,-0.86,0.29,2.14,3.14,3.71,5.29,2.57,2.14,0.57,4.29,5.43,,,,,,,,,,,,,,
1799999990547667343,2027-01-15T07:59:50.547667343Z,-0.57,-1.71,1.57,1.43,-0.29,0.29,0.43,2.71,4.14,3.29,3.29,1.57,3.86,5.86,,,,,,,,,,,,,,
1799999990554428669,2027-01-15T07:59:50.554428669Z,-0.57,0.00,1.71,3.29,1.00,1.14,0.14,2.14,3.14,3.00,3.29,4.29,3.86,5.43,,,,,,,,,,,,,,
1799999990561189994,2027-01-15T07:59:50.561189994Z,-0.29,0.43,-0.43,2.86,2.14,3.00,1.86,2.57,3.57,2.43,2.57,4.71,4.29,4.71,,,,,,,,,,,,,,
1799999990567951319,2027-01-15T07:59:50.567951319Z,-0.86,-0.71,-1.86,1.71,1.14,2.43,1.57,4.00,3.29,2.71,2.57,4.57,3.86,5.00,,,,,,,,,,,,,,
1799999990574712644,2027-01-15T07:59:50.574712644Z,-1.57,-0.86,-1.14,1.57,1.29,1.57,1.14,4.57,2.29,3.00,3.14,5.86,3.14,5.86,,,,,,,,,,,,,,
1799999990581473969,2027-01-15T07:59:50.581473969Z,-3.00,-0.29,-1.00,1.43,1.71,2.00,1.57,3.71,2.29,2.43,3.43,5.57,2.71,5.71,,,,,,,,,,,,,,
1799999990588235295,2027-01-15T07:59:50.588235295Z,-2.86,-0.29,-1.43,0.43,0.14,2.29,1.71,3.00,3.14,2.14,3.71,3.86,2.71,4.71,,,,,,,,,,,,,,
1799999990594996620,2027-01-15T07:59:50.594996620Z,0.14,-0.43,-0.14,-0.86,-2.29,1.43,1.57,3.14,2.57,1.86,4.29,2.71,2.71,3.00,,,,,,,,,,,,,,
1799999990601757945,2027-01-15T07:59:50.601757945Z,0.43,0.57,2.00,-0.57,-2.86,0.71,2.57,3.86,0.71,1.71,4.29,3.14,3.71,2.57,,,,,,,,,,,,,,
1799999990608519270,2027-01-15T07:59:50.608519270Z,0.57,1.29,1.71,0.86,0.00,1.29,4.57,3.71,0.57,1.57,4.14,2.43,4.29,4.00,,,,,,,,,,,,,,
1799999990615280595,2027-01-15T07:59:50.615280595Z,-1.71,0.71,0.14,0.00,1.71,-0.14,4.86,3.00,3.29,1.86,4.14,2.14,3.29,4.14,,,,,,,,,,,,,,
1799999990622041921,2027-01-15T07:59:50.622041921Z,-1.71,0.14,0.29,-1.00,1.57,-1.00,3.71,2.43,5.43,2.43,2.86,3.71,2.57,3.29,,,,,,,,,,,,,,
1799999990628803246,2027-01-15T07:59:50.628803246Z,-1.57,0.29,0.71,-0.14,2.14,1.14,4.00,2.43,5.43,2.71,2.00,4.29,3.43,3.86,,,,,,,,,,,,,,
1799999990635564571,2027-01-15T07:59:50.635564571Z,-1.71,0.29,0.29,1.00,2.57,3.86,5.14,2.43,4.43,2.71,2.57,3.14,4.86,5.29,,,,,,,,,,,,,,
1799999990642325896,2027-01-15T07:59:50.642325896Z,-1.29,-0.29,-1.00,0.43,2.00,4.14,5.29,2.71,3.57,2.71,4.00,3.00,5.71,6.43,,,,,,,,,,,,,,
1799999990649087222,2027-01-15T07:59:50.649087222Z,-0.14,-1.29,-1.57,-1.57,1.43,0.86,2.29,2.14,3.14,2.71,4.86,4.29,5.00,5.14,,,,,,,,,,,,,,
1799999990655848547,2027-01-15T07:59:50.655848547Z,-0.43,-1.43,-0.43,-1.57,2.57,-1.57,-1.00,0.71,3.29,2.86,3.71,3.14,2.86,4.00,,,,,,,,,,,,,,
1799999990662609872,2027-01-15T07:59:50.662609872Z,-0.57,-1.00,0.57,0.00,2.14,-0.43,0.00,0.71,3.57,3.00,2.29,0.86,1.14,5.43,,,,,,,,,,,,,,
1799999990669371197,2027-01-15T07:59:50.669371197Z,-1.43,-1.14,1.43,1.00,0.00,0.14,2.00,2.57,4.29,2.71,1.00,2.43,2.29,6.14,,,,,,,,,,,,,,
1799999990676132522,2027-01-15T07:59:50.676132522Z,-1.14,-1.00,0.43,1.43,-0.43,-0.14,1.43,2.57,5.00,3.00,2.14,5.57,5.14,4.57,,,,,,,,,,,,,,
1799999990682893848,2027-01-15T07:59:50.682893848Z,-0.71,-0.71,-0.71,1.29,1.00,0.14,0.14,1.00,5.43,3.71,4.43,5.71,6.14,3.14,,,,,,,,,,,,,,
1799999990689655173,2027-01-15T07:59:50.689655173Z,-0.71,-0.43,-0.43,0.57,2.57,0.29,-0.86,-0.29,5.29,4.14,6.43,4.00,5.43,2.57,,,,,,,,,,,,,,
1799999990696416498,2027-01-15T07:59:50.696416498Z,-1.00,0.00,0.43,-0.29,3.00,0.00,-0.71,1.00,4.29,4.14,6.14,3.14,5.14,3.57,,,,,,,,,,,,,,
1799999990703177823,2027-01-15T07:59:50.703177823Z,-1.29,0.57,-0.43,-1.14,1.57,0.14,0.71,3.57,3.29,3.57,3.71,4.00,5.14,5.29,,,,,,,,,,,,,,
1799999990709939149,2027-01-15T07:59:50.709939149Z,-0.29,0.43,-2.71,-1.57,1.00,1.00,1.71,4.29,3.57,2.86,2.43,4.14,4.57,5.14,,,,,,,,,,,,,,
1799999990716700474,2027-01-15T07:59:50.716700474Z,-0.29,0.43,-3.14,-0.29,2.71,1.43,1.14,4.29,3.00,3.43,3.57,3.71,4.29,4.14,,,,,,,,,,,,,,
1799999990723461799,2027-01-15T07:59:50.723461799Z,-1.29,0.71,-1.14,1.14,3.86,1.29,1.43,5.14,1.86,4.71,3.86,4.71,4.14,4.71,,,,,,,,,,,,,,
1799999990730223124,2027-01-15T07:59:50.730223124Z,-1.86,0.29,0.57,1.29,2.71,1.00,2.71,5.43,1.14,5.29,3.29,5.43,4.00,5.14,,,,,,,,,,,,,,
1799999990736984449,2027-01-15T07:59:50.736984449Z,-1.14,-0.57,1.43,0.71,1.43,0.57,3.71,4.86,1.43,4.57,2.86,4.71,4.14,4.29,,,,,,,,,,,,,,
1799999990743745775,2027-01-15T07:59:50.743745775Z,0.00,-1.43,1.29,0.14,0.29,-0.43,3.00,4.14,1.57,3.57,3.57,3.86,5.00,2.71,,,,,,,,,,,,,,
1799999990750507100,2027-01-15T07:59:50.750507100Z,0.14,-0.86,-0.29,0.29,0.00,-0.14,1.14,3.29,0.86,2.71,4.14,4.14,5.29,3.00,,,,,,,,,,,,,,
1799999990757268425,2027-01-15T07:59:50.757268425Z,0.86,0.57,-1.86,1.14,0.57,1.86,0.00,1.86,0.43,2.57,3.43,4.57,3.71,5.43,,,,,,,,,,,,,,
1799999990764029750,2027-01-15T07:59:50.764029750Z,0.29,0.57,-1.14,1.71,0.57,2.57,0.86,1.86,1.00,2.57,3.86,3.71,2.86,5.86,,,,,,,,,,,,,,
1799999990770791076,2027-01-15T07:59:50.770791076Z,-1.71,-1.14,1.00,1.86,0.86,1.29,1.71,3.86,1.57,3.14,5.43,3.14,5.86,4.29,,,,,,,,,,,,,,
1799999990777552401,2027-01-15T07:59:50.777552401Z,-0.14,-2.00,1.86,2.14,1.14,0.00,0.71,4.71,1.71,3.29,5.43,3.14,8.14,4.43,,,,,,,,,,,,,,
1799999990784313726,2027-01-15T07:59:50.784313726Z,0.00,-1.14,0.86,2.00,0.57,-0.14,-0.29,3.86,1.71,2.86,4.29,3.29,6.57,6.00,,,,,,,,,,,,,,
1799999990791075051,2027-01-15T07:59:50.791075051Z,-1.29,0.00,-0.86,1.14,-0.29,0.57,0.00,3.14,2.00,2.57,3.57,3.71,3.71,7.57,,,,,,,,,,,,,,
1799999990797836376,2027-01-15T07:59:50.797836376Z,-2.43,0.29,-1.86,-0.57,-0.71,2.00,0.29,3.00,2.14,3.57,3.29,5.14,2.57,7.29,,,,,,,,,,,,,,
1799999990804597702,2027-01-15T07:59:50.804597702Z,-0.14,-0.71,-1.14,-2.14,0.00,2.71,0.71,3.43,2.43,4.00,3.71,5.43,4.71,4.71,,,,,,,,,,,,,,
1799999990811359027,2027-01-15T07:59:50.811359027Z,0.43,-1.43,-0.14,-1.29,1.14,1.43,1.57,3.29,2.71,1.86,4.71,3.14,6.00,4.14,,,,,,,,,,,,,,
1799999990818120352,2027-01-15T07:59:50.818120352Z,2.29,-1.71,-1.14,0.29,0.29,1.00,2.71,3.14,2.29,1.29,5.00,2.43,4.43,6.57,,,,,,,,,,,,,,
1799999990824881677,2027-01-15T07:59:50.824881677Z,0.71,-2.14,-2.14,-0.43,-1.43,2.43,2.86,2.86,1.57,3.29,4.14,5.43,4.29,6.71,,,,,,,,,,,,,,
1799999990831643003,2027-01-15T07:59:50.831643003Z,0.29,-1.71,-1.00,-1.57,-0.71,3.00,2.86,2.14,1.43,4.29,3.86,7.29,5.57,5.43,,,,,,,,,,,,,,
1799999990838404328,2027-01-15T07:59:50.838404328Z,-0.43,-0.71,0.43,-1.14,1.29,2.00,3.57,1.86,1.43,4.43,4.14,6.29,5.71,6.00,,,,,,,,,,,,,,
1799999990845165653,2027-01-15T07:59:50.845165653Z,-0.29,1.00,0.57,1.00,2.71,0.29,4.29,2.29,1.57,5.57,4.00,4.71,4.57,7.00,,,,,,,,,,,,,,
1799999990851926978,2027-01-15T07:59:50.851926978Z,-0.29,1.57,-0.71,2.57,1.00,-0.14,2.86,3.43,1.43,6.86,3.29,3.14,4.29,6.71,,,,,,,,,,,,,,
1799999990858688303,2027-01-15T07:59:50.858688303Z,0.43,-1.29,-0.71,1.14,-0.57,1.14,0.14,4.29,2.43,4.86,3.71,2.57,5.86,5.57,,,,,,,,,,,,,,
1799999990865449629,2027-01-15T07:59:50.865449629Z,1.29,-3.00,1.14,0.14,1.57,1.29,0.29,2.71,3.71,1.43,4.86,2.43,5.29,5.29,,,,,,,,,,,,,,
1799999990872210954,2027-01-15T07:59:50.872210954Z,-0.14,0.14,2.00,0.14,2.71,1.29,1.14,0.71,4.71,3.14,5.00,1.71,2.43,4.43,,,,,,,,,,,,,,
1799999990878972279,2027-01-15T07:59:50.878972279Z,-0.43,2.43,0.43,-0.71,1.00,1.57,0.14,0.00,5.29,7.57,4.14,2.14,1.29,3.71,,,,,,,,,,,,,,
1799999990885733604,2027-01-15T07:59:50.885733604Z,-0.71,0.00,-1.43,-0.43,0.71,0.29,-0.43,0.29,5.00,7.57,3.71,4.00,3.43,4.00,,,,,,,,,,,,,,
1799999990892494930,2027-01-15T07:59:50.892494930Z,-1.29,-2.71,-2.86,1.00,2.57,-1.43,0.14,0.29,4.71,3.86,3.71,5.86,6.00,4.29,,,,,,,,,,,,,,
1799999990899256255,2027-01-15T07:59:50.899256255Z,-1.86,-2.71,-2.29,2.00,4.00,-2.00,-0.14,0.71,4.14,0.71,3.00,6.00,8.00,4.14,,,,,,,,,,,,,,
1799999990906017580,2027-01-15T07:59:50.906017580Z,,0.29,-0.29,1.71,2.57,-0.29,-1.00,2.14,3.57,1.29,2.00,4.57,7.71,5.14,,,,,,,,,,,,,,
1799999990912778905,2027-01-15T07:59:50.912778905Z,-1.43,0.57,0.43,1.43,-0.14,-0.71,-0.43,2.14,2.86,4.00,2.86,5.29,5.57,6.57,,,,,,,,,,,,,,
1799999990919540230,2027-01-15T07:59:50.919540230Z,-0.29,-2.86,0.00,0.00,-1.14,-1.43,0.57,0.29,1.86,5.43,4.57,6.71,4.71,5.57,,,,,,,,,,,,,,
1799999990926301556,2027-01-15T07:59:50.926301556Z,-0.29,-3.86,0.86,-2.57,-1.29,2.14,0.00,0.00,1.43,5.43,3.71,5.71,6.14,4.00,,,,,,,,,,,,,,
1799999990933062881,2027-01-15T07:59:50.933062881Z,-1.14,-1.43,1.86,-2.43,-1.43,5.00,-0.86,1.00,1.14,5.00,2.29,4.43,6.71,4.00,,,,,,,,,,,,,,
1799999990939824206,2027-01-15T07:59:50.939824206Z,-2.00,0.57,2.43,0.14,-0.57,4.00,-0.29,1.43,0.57,5.00,1.71,4.43,5.71,4.86,,,,,,,,,,,,,,
1799999990946585531,2027-01-15T07:59:50.946585531Z,-2.00,0.14,3.14,2.86,1.14,1.57,1.29,1.29,0.14,5.00,2.14,5.14,4.86,5.43,,,,,,,,,,,,,,
1799999990953346856,2027-01-15T07:59:50.953346856Z,-1.29,-1.57,3.43,2.57,1.00,1.00,2.14,1.71,1.71,4.86,2.43,5.57,3.86,5.14,,,,,,,,,,,,,,
1799999990960108182,2027-01-15T07:59:50.960108182Z,0.00,-0.57,1.57,-0.14,-1.29,2.43,0.14,2.57,3.29,5.86,2.71,5.00,2.43,4.00,,,,,,,,,,,,,,
1799999990966869507,2027-01-15T07:59:50.966869507Z,-0.43,0.57,0.00,0.29,-1.14,1.29,-0.71,3.43,2.14,7.29,3.43,4.00,1.00,2.86,,,,,,,,,,,,,,
1799999990973630832,2027-01-15T07:59:50.973630832Z,-1.43,-1.14,0.71,2.57,1.29,1.00,1.86,4.00,0.86,5.14,2.43,3.00,1.71,2.71,,,,,,,,,,,,,,
1799999990980392157,2027-01-15T07:59:50.980392157Z,0.00,-2.14,0.71,2.57,2.14,2.86,3.86,3.86,1.43,0.86,1.00,2.57,3.71,3.29,,,,,,,,,,,,,,
1799999990987153483,2027-01-15T07:59:50.987153483Z,0.43,-0.57,0.29,1.00,0.86,3.00,3.14,3.29,2.86,-0.43,1.14,3.00,5.14,3.00,,,,,,,,,,,,,,
1799999990993914808,2027-01-15T07:59:50.993914808Z,1.29,1.29,1.00,0.00,-0.43,1.57,2.57,3.00,4.14,2.00,2.00,3.29,5.57,2.57,,,,,,,,,,,,,,
1799999991000676133,2027-01-15T07:59:51.000676133Z,0.14,1.43,2.14,-0.71,-0.71,1.71,3.43,2.86,4.71,4.00,2.71,3.57,4.00,3.57,,,,,,,,,,,,,,
1799999991007437458,2027-01-15T07:59:51.007437458Z,-0.14,-0.14,1.57,-1.14,0.86,4.00,4.86,3.43,3.57,3.43,2.43,3.57,2.00,5.71,,,,,,,,,,,,,,
1799999991014198783,2027-01-15T07:59:51.014198783Z,-2.43,-0.86,-0.71,-1.43,2.29,5.29,4.43,2.71,2.71,1.86,2.14,4.00,2.86,6.00,,,,,,,,,,,,,,
1799999991020960109,2027-01-15T07:59:51.020960109Z,-2.86,-0.43,-2.14,-1.14,1.86,3.57,1.71,0.71,3.14,1.57,2.86,4.14,4.71,4.00,,,,,,,,,,,,,,
1799999991027721434,2027-01-15T07:59:51.027721434Z,-1.71,-0.43,-2.14,-0.29,1.00,1.71,-0.86,-0.57,3.43,2.29,2.86,3.29,4.57,2.71,,,,,,,,,,,,,,
1799999991034482759,2027-01-15T07:59:51.034482759Z,-1.29,0.29,-1.86,-0.14,1.14,1.14,-1.00,0.29,3.43,2.86,2.14,2.43,3.86,3.00,,,,,,,,,,,,,,
1799999991041244084,2027-01-15T07:59:51.041244084Z,-0.43,1.29,-1.29,-0.71,2.00,1.43,0.14,1.71,3.71,2.29,1.86,2.29,3.71,3.71,,,,,,,,,,,,,,
1799999991048005410,2027-01-15T07:59:51.048005410Z,-0.29,2.43,0.43,-0.71,1.86,1.14,1.00,3.00,3.14,1.00,2.43,3.14,3.43,4.71,,,,,,,,,,,,,,
1799999991054766735,2027-01-15T07:59:51.054766735Z,-1.57,1.71,1.86,-1.00,0.43,1.29,0.71,2.71,1.57,1.00,3.86,4.29,3.29,5.71,,,,,,,,,,,,,,
1799999991061528060,2027-01-15T07:59:51.061528060Z,-2.86,0.00,1.14,-2.29,0.00,2.57,2.29,1.57,1.00,4.29,4.57,3.71,2.71,6.00,,,,,,,,,,,,,,
1799999991068289385,2027-01-15T07:59:51.068289385Z,-0.29,0.29,-0.14,-1.43,1.14,3.71,3.14,1.00,2.71,6.29,3.71,2.57,1.14,5.71,,,,,,,,,,,,,,
1799999991075050710,2027-01-15T07:59:51.075050710Z,0.29,0.43,0.14,0.86,1.43,3.71,0.43,2.14,3.43,3.43,3.86,3.14,0.71,5.86,,,,,,,,,,,,,,
1799999991081812036,2027-01-15T07:59:51.081812036Z,-0.71,-0.43,-0.86,0.14,0.71,3.71,-1.86,3.57,3.00,0.43,4.43,3.29,3.00,6.14,,,,,,,,,,,,,,
1799999991088573361,2027-01-15T07:59:51.088573361Z,-0.71,-1.14,-2.29,-1.57,0.71,3.86,-0.86,3.14,3.29,-0.14,4.00,3.00,5.14,6.14,,,,,,,,,,,,,,
1799999991095334686,2027-01-15T07:59:51.095334686Z,0.43,-2.00,-2.71,-1.14,1.00,3.43,0.86,1.71,3.86,1.14,3.00,3.57,5.71,6.14,,,,,,,,,,,,,,
1799999991102096011,2027-01-15T07:59:51.102096011Z,0.57,-3.57,-1.14,0.14,1.14,2.29,2.43,0.86,3.57,3.57,2.00,5.14,5.29,6.14,,,,,,,,,,,,,,
1799999991108857337,2027-01-15T07:59:51.108857337Z,0.14,-2.71,1.29,1.14,1.00,1.86,2.71,1.43,2.57,5.86,2.29,5.57,5.14,6.00,,,,,,,,,,,,,,
1799999991115618662,2027-01-15T07:59:51.115618662Z,0.00,0.43,1.29,1.43,0.71,2.43,2.14,1.43,2.71,3.43,4.14,3.43,6.00,6.14,,,,,,,,,,,,,,
1799999991122379987,2027-01-15T07:59:51.122379987Z,-0.43,0.43,-1.00,2.29,0.43,2.14,1.57,0.29,3.71,-0.57,5.71,2.86,6.14,6.57,,,,,,,,,,,,,,
1799999991129141312,2027-01-15T07:59:51.129141312Z,-0.14,-0.71,-1.71,2.00,1.14,1.57,1.00,0.71,3.29,0.00,5.29,5.00,5.57,6.29,,,,,,,,,,,,,,
1799999991135902637,2027-01-15T07:59:51.135902637Z,0.86,1.43,-0.43,1.00,1.71,1.00,1.00,1.71,2.14,2.71,4.14,5.86,5.57,5.57,,,,,,,,,,,,,,
1799999991142663963,2027-01-15T07:59:51.142663963Z,0.14,4.43,0.43,1.00,1.29,0.43,1.00,2.43,2.14,4.00,3.14,4.43,5.86,5.00,,,,,,,,,,,,,,
1799999991149425288,2027-01-15T07:59:51.149425288Z,-0.57,4.57,-0.14,1.57,0.71,0.00,1.43,2.86,3.29,2.86,2.57,2.29,5.57,5.57,,,,,,,,,,,,,,
1799999991156186613,2027-01-15T07:59:51.156186613Z,-2.14,1.71,0.29,1.71,0.86,2.14,2.43,2.43,3.57,1.86,2.29,2.14,4.71,5.86,,,,,,,,,,,,,,
1799999991162947938,2027-01-15T07:59:51.162947938Z,0.71,0.00,2.29,1.00,1.00,5.00,3.43,1.57,2.29,4.57,3.29,3.57,4.14,3.57,,,,,,,,,,,,,,
1799999991169709264,2027-01-15T07:59:51.169709264Z,0.71,-0.14,2.00,0.14,0.29,4.43,3.43,1.14,2.29,7.43,5.14,2.71,3.29,1.86,,,,,,,,,,,,,,
1799999991176470589,2027-01-15T07:59:51.176470589Z,-1.00,-0.43,1.14,-0.71,1.29,2.43,2.43,1.14,3.71,4.71,6.86,3.43,3.43,3.29,,,,,,,,,,,,,,
1799999991183231914,2027-01-15T07:59:51.183231914Z,-0.86,-1.00,2.43,-1.86,2.14,1.14,1.57,1.43,4.29,0.14,6.29,6.00,5.29,4.71,,,,,,,,,,,,,,
1799999991189993239,2027-01-15T07:59:51.189993239Z,-1.00,-2.14,3.14,-3.00,1.43,-0.86,1.57,2.00,3.57,-1.29,4.86,6.43,6.71,3.71,,,,,,,,,,,,,,
1799999991196754564,2027-01-15T07:59:51.196754564Z,-2.71,-3.14,2.57,-2.86,0.71,-3.00,1.57,2.29,3.14,0.43,4.29,4.86,6.71,2.86,,,,,,,,,,,,,,
1799999991203515890,2027-01-15T07:59:51.203515890Z,-2.29,-2.71,1.57,-1.29,1.29,-3.29,1.57,2.86,3.71,3.00,3.29,3.29,5.43,3.43,,,,,,,,,,,,,,
1799999991210277215,2027-01-15T07:59:51.210277215Z,1.71,-1.57,0.00,0.14,2.71,-0.57,2.71,4.43,4.29,4.71,1.86,2.14,4.00,5.14,,,,,,,,,,,,,,
1799999991217038540,2027-01-15T07:59:51.217038540Z,2.14,-1.00,-1.86,0.00,1.71,2.00,4.43,5.71,3.57,2.86,2.00,2.57,4.43,5.29,,,,,,,,,,,,,,
1799999991223799865,2027-01-15T07:59:51.223799865Z,2.00,-1.29,-2.57,1.14,-0.57,1.86,4.29,5.14,3.43,0.29,3.57,3.29,5.00,4.14,,,,,,,,,,,,,,
1799999991230561190,2027-01-15T07:59:51.230561190Z,-0.86,-0.43,-1.71,2.00,-2.14,-0.14,2.43,4.00,3.86,1.71,3.14,3.29,4.57,4.14,,,,,,,,,,,,,,
1799999991237322516,2027-01-15T07:59:51.237322516Z,-1.14,0.71,-1.00,1.29,-2.00,-1.71,1.71,3.29,2.86,4.00,2.00,3.57,4.86,5.00,,,,,,,,,,,,,,
1799999991244083841,2027-01-15T07:59:51.244083841Z,-2.43,0.71,-0.43,0.14,-1.00,-2.29,2.43,3.29,1.43,3.43,2.57,4.57,5.43,5.43,,,,,,,,,,,,,,
1799999991250845166,2027-01-15T07:59:51.250845166Z,-0.86,0.29,0.14,-0.71,0.00,-1.29,1.57,2.29,0.57,0.86,4.29,6.00,6.00,4.57,,,,,,,,,,,,,,
1799999991257606491,2027-01-15T07:59:51.257606491Z,0.57,0.71,0.00,-0.43,-0.29,0.14,-0.29,0.29,1.57,1.14,4.57,6.29,4.71,3.43,,,,,,,,,,,,,,
1799999991264367817,2027-01-15T07:59:51.264367817Z,0.14,1.00,0.14,-0.43,-1.00,1.29,1.43,0.14,2.71,6.29,2.43,5.14,2.29,4.14,,,,,,,,,,,,,,
1799999991271129142,2027-01-15T07:59:51.271129142Z,-1.43,-0.43,0.14,-0.29,-0.71,2.14,4.29,3.57,2.29,8.14,3.00,4.57,2.14,5.57,,,,,,,,,,,,,,
1799999991277890467,2027-01-15T07:59:51.277890467Z,0.57,-1.14,-1.00,0.71,-0.57,1.71,3.14,5.57,2.86,2.86,5.00,4.14,5.00,5.14,,,,,,,,,,,,,,
1799999991284651792,2027-01-15T07:59:51.284651792Z,0.57,-0.71,-1.43,1.14,-0.57,0.57,1.29,3.57,4.00,-1.14,5.29,3.57,7.14,4.14,,,,,,,,,,,,,,
1799999991291413117,2027-01-15T07:59:51.291413117Z,0.14,-0.57,-0.86,0.57,-0.57,-0.14,1.57,0.57,4.57,-0.57,4.43,3.57,7.14,4.00,,,,,,,,,,,,,,
1799999991298174443,2027-01-15T07:59:51.298174443Z,-0.43,-1.29,-0.86,-0.29,-1.14,0.29,2.86,0.00,3.71,1.86,4.43,3.29,4.57,4.29,,,,,,,,,,,,,,
1799999991304935768,2027-01-15T07:59:51.304935768Z,-3.14,-1.29,-1.57,-0.43,-0.57,1.00,3.29,2.86,1.71,4.14,5.29,2.71,2.00,5.00,,,,,,,,,,,,,,
1799999991311697093,2027-01-15T07:59:51.311697093Z,-4.57,0.29,-1.00,0.29,1.57,1.57,2.00,4.14,1.14,3.43,5.00,2.43,3.86,5.57,,,,,,,,,,,,,,
1799999991318458418,2027-01-15T07:59:51.318458418Z,-4.14,-0.14,-1.00,0.57,2.57,3.00,0.86,2.29,2.14,1.43,3.43,3.29,6.14,5.71,,,,,,,,,,,,,,
1799999991325219744,2027-01-15T07:59:51.325219744Z,-1.57,-2.00,-2.86,0.43,1.00,3.86,0.00,3.71,3.00,1.14,2.71,4.43,4.86,5.00,,,,,,,,,,,,,,
1799999991331981069,2027-01-15T07:59:51.331981069Z,1.00,-2.29,-1.43,0.14,0.14,2.14,0.71,6.43,2.43,3.14,4.71,4.86,3.71,5.29,,,,,,,,,,,,,,
1799999991338742394,2027-01-15T07:59:51.338742394Z,1.57,-1.57,1.71,0.14,1.57,0.00,2.43,6.14,2.14,3.29,6.43,5.14,4.57,5.86,,,,,,,,,,,,,,
1799999991345503719,2027-01-15T07:59:51.345503719Z,2.14,-1.29,3.86,0.71,3.29,-0.86,3.43,4.00,2.86,0.86,6.00,6.00,5.57,5.29,,,,,,,,,,,,,,
1799999991352265044,2027-01-15T07:59:51.352265044Z,2.00,0.00,3.00,2.14,4.43,-0.86,2.86,1.86,4.14,-1.57,4.57,6.71,5.43,4.57,,,,,,,,,,,,,,
1799999991359026370,2027-01-15T07:59:51.359026370Z,0.71,1.43,0.71,3.57,2.71,-0.71,0.86,0.57,4.57,3.43,4.14,4.71,4.29,5.14,,,,,,,,,,,,,,
1799999991365787695,2027-01-15T07:59:51.365787695Z,0.43,0.57,0.57,2.71,-0.29,-1.43,-0.14,0.71,3.00,11.29,4.43,1.71,3.00,5.71,,,,,,,,,,,,,,
1799999991372549020,2027-01-15T07:59:51.372549020Z,-1.00,-0.86,1.14,1.14,0.00,-0.43,1.00,2.86,1.71,8.43,3.14,1.86,2.86,5.57,,,,,,,,,,,,,,
1799999991379310345,2027-01-15T07:59:51.379310345Z,0.14,-0.29,0.14,1.71,2.00,1.86,2.86,5.29,1.57,-0.57,2.57,4.43,4.00,6.57,,,,,,,,,,,,,,
1799999991386071671,2027-01-15T07:59:51.386071671Z,0.29,0.00,-1.00,3.00,2.14,2.71,2.86,4.86,2.29,-3.71,3.14,4.86,4.57,6.71,,,,,,,,,,,,,,
1799999991392832996,2027-01-15T07:59:51.392832996Z,-0.29,-0.86,-1.00,3.14,0.86,1.00,1.43,2.14,3.00,1.29,3.43,3.29,3.43,5.43,,,,,,,,,,,,,,
1799999991399594321,2027-01-15T07:59:51.399594321Z,-1.29,-1.86,-0.86,2.14,-0.57,-0.86,0.43,-1.29,4.14,8.43,3.14,1.29,1.71,3.57,,,,,,,,,,,,,,
1799999991406355646,2027-01-15T07:59:51.406355646Z,-1.43,-0.43,-1.43,0.71,-0.71,-1.00,1.29,-1.57,3.71,11.00,3.43,1.71,1.71,4.14,,,,,,,,,,,,,,
1799999991413116971,2027-01-15T07:59:51.413116971Z,-1.00,2.43,-2.00,0.43,0.29,1.00,2.14,2.00,1.71,3.71,5.14,3.71,5.43,6.29,,,,,,,,,,,,,,
1799999991419878297,2027-01-15T07:59:51.419878297Z,0.71,3.57,-0.14,0.71,0.86,1.29,1.71,3.86,0.14,-2.57,6.14,3.57,8.71,5.86,,,,,,,,,,,,,,
1799999991426639622,2027-01-15T07:59:51.426639622Z,0.43,1.29,2.43,0.71,1.14,0.43,2.57,2.00,-0.86,-2.57,4.57,2.43,6.86,4.29,,,,,,,,,,,,,,
1799999991433400947,2027-01-15T07:59:51.433400947Z,-1.29,-1.00,3.71,1.43,1.57,1.43,3.43,0.86,-0.14,1.57,2.71,3.29,3.43,3.86,,,,,,,,,,,,,,
1799999991440162272,2027-01-15T07:59:51.440162272Z,-0.43,-0.86,3.86,2.00,1.71,2.71,2.86,2.00,1.43,4.57,2.71,4.86,2.57,4.43,,,,,,,,,,,,,,
1799999991446923598,2027-01-15T07:59:51.446923598Z,0.29,0.00,4.43,1.86,1.71,2.71,1.57,3.57,3.00,5.00,3.57,5.71,4.00,4.71,,,,,,,,,,,,,,
1799999991453684923,2027-01-15T07:59:51.453684923Z,0.00,1.00,4.00,0.57,1.57,1.43,0.43,3.71,3.14,3.86,2.86,6.29,5.71,4.00,,,,,,,,,,,,,,
1799999991460446248,2027-01-15T07:59:51.460446248Z,-0.29,0.57,2.43,-0.71,0.86,0.29,0.86,2.86,2.14,5.43,0.86,6.29,5.29,2.57,,,,,,,,,,,,,,
1799999991467207573,2027-01-15T07:59:51.467207573Z,-0.71,-0.29,1.00,0.00,0.14,1.00,2.86,3.29,3.00,8.14,1.86,6.00,2.29,2.86,,,,,,,,,,,,,,
1799999991473968898,2027-01-15T07:59:51.473968898Z,-0.57,0.57,0.86,0.29,0.57,1.57,3.00,4.71,4.00,5.29,5.57,5.29,1.86,5.00,,,,,,,,,,,,,,
1799999991480730224,2027-01-15T07:59:51.480730224Z,-2.00,1.43,0.43,-0.86,0.29,0.86,1.71,4.00,3.14,0.00,6.14,4.43,4.29,6.43,,,,,,,,,,,,,,
1799999991487491549,2027-01-15T07:59:51.487491549Z,-3.57,0.86,-0.57,0.00,-0.43,0.43,1.43,2.86,2.57,-1.29,4.00,4.29,5.14,6.29,,,,,,,,,,,,,,
1799999991494252874,2027-01-15T07:59:51.494252874Z,-2.14,0.14,-1.00,2.29,-0.57,0.86,1.71,3.00,2.57,1.29,2.86,5.29,4.14,5.71,,,,,,,,,,,,,,
1799999991501014199,2027-01-15T07:59:51.501014199Z,-0.29,-1.00,-1.29,3.86,0.43,2.14,0.57,3.71,2.57,5.57,2.86,6.29,2.86,4.86,,,,,,,,,,,,,,
1799999991507775525,2027-01-15T07:59:51.507775525Z,-0.14,-2.71,-0.86,2.43,0.86,3.43,-0.14,3.14,2.86,9.57,3.57,5.14,4.29,4.14,,,,,,,,,,,,,,
1799999991514536850,2027-01-15T07:59:51.514536850Z,-1.43,-3.14,-0.57,0.43,0.14,3.57,2.00,1.43,4.00,6.57,3.29,2.86,7.29,4.57,,,,,,,,,,,,,,
1799999991521298175,2027-01-15T07:59:51.521298175Z,-0.57,-1.86,-2.00,1.29,1.14,2.43,4.29,1.43,4.71,0.43,3.57,3.29,6.71,5.57,,,,,,,,,,,,,,
1799999991528059500,2027-01-15T07:59:51.528059500Z,-0.57,-2.14,-2.14,2.57,2.14,0.29,3.14,2.71,4.14,-0.43,4.00,3.71,4.71,5.86,,,,,,,,,,,,,,
1799999991534820825,2027-01-15T07:59:51.534820825Z,-1.57,-2.86,0.86,0.71,0.86,-1.71,0.86,2.14,3.71,2.29,3.29,1.86,5.57,4.43,,,,,,,,,,,,,,
1799999991541582151,2027-01-15T07:59:51.541582151Z,-1.57,-2.14,2.86,-1.86,-0.57,-2.29,0.29,0.86,3.57,3.14,2.43,1.14,6.86,3.14,,,,,,,,,,,,,,
1799999991548343476,2027-01-15T07:59:51.548343476Z,-1.57,-0.57,1.57,-2.71,-0.86,-1.43,0.86,0.43,3.29,2.57,2.43,3.00,6.29,3.00,,,,,,,,,,,,,,
1799999991555104801,2027-01-15T07:59:51.555104801Z,-1.43,1.00,-1.00,-1.00,0.14,-0.86,0.14,1.00,2.71,2.43,2.71,5.71,4.86,4.14,,,,,,,,,,,,,,
1799999991561866126,2027-01-15T07:59:51.561866126Z,0.71,1.71,-3.00,0.57,1.43,-0.29,-1.43,2.57,2.86,1.29,3.00,7.00,5.00,4.29,,,,,,,,,,,,,,
1799999991568627451,2027-01-15T07:59:51.568627451Z,0.57,0.43,-2.14,-1.14,1.29,0.71,0.00,3.57,3.29,0.86,3.29,4.86,6.43,2.43,,,,,,,,,,,,,,
1799999991575388777,2027-01-15T07:59:51.575388777Z,0.43,-1.71,-1.14,-2.29,0.14,1.00,3.43,2.71,2.43,5.00,4.00,3.29,5.71,1.43,,,,,,,,,,,,,,
1799999991582150102,2027-01-15T07:59:51.582150102Z,-0.71,-1.29,-0.86,-0.14,-0.14,-0.57,4.29,1.71,2.00,9.29,4.57,3.86,5.29,3.14,,,,,,,,,,,,,,
1799999991588911427,2027-01-15T07:59:51.588911427Z,-0.43,0.43,-1.29,1.71,0.29,-1.86,2.43,1.14,2.86,8.14,5.00,5.29,6.29,4.71,,,,,,,,,,,,,,
1799999991595672752,2027-01-15T07:59:51.595672752Z,-0.71,1.43,-1.57,2.29,0.14,-2.00,0.57,1.43,3.43,4.71,5.29,6.29,7.29,5.57,,,,,,,,,,,,,,
1799999991602434078,2027-01-15T07:59:51.602434078Z,-1.14,-0.86,-1.00,1.57,-0.29,-1.43,0.29,2.86,3.86,2.57,4.71,6.71,7.14,5.00,,,,,,,,,,,,,,
1799999991609195403,2027-01-15T07:59:51.609195403Z,-1.57,-2.71,-0.57,1.00,1.00,0.29,1.43,3.57,3.43,2.57,3.43,5.86,5.14,4.00,,,,,,,,,,,,,,
1799999991615956728,2027-01-15T07:59:51.615956728Z,-1.14,0.57,-1.57,1.29,2.71,2.43,1.00,1.86,2.86,2.57,3.00,3.71,2.86,4.29,,,,,,,,,,,,,,
1799999991622718053,2027-01-15T07:59:51.622718053Z,0.57,3.57,-2.29,1.57,2.29,2.86,0.29,1.57,2.29,2.29,3.43,2.43,2.86,4.86,,,,,,,,,,,,,,
1799999991629479378,2027-01-15T07:59:51.629479378Z,0.14,1.14,-1.43,0.86,1.00,0.86,2.57,2.14,1.86,2.14,2.29,3.29,4.43,4.00,,,,,,,,,,,,,,
1799999991636240704,2027-01-15T07:59:51.636240704Z,-3.00,-1.14,-1.43,-1.00,1.14,-0.43,2.86,0.43,2.71,2.57,1.57,4.43,4.71,3.00,,,,,,,,,,,,,,
1799999991643002029,2027-01-15T07:59:51.643002029Z,-3.57,0.29,-2.29,-2.14,1.29,0.71,0.86,-0.29,3.57,3.71,3.00,3.86,4.43,3.29,,,,,,,,,,,,,,
1799999991649763354,2027-01-15T07:59:51.649763354Z,-2.14,1.57,-2.71,-1.14,0.71,1.86,0.14,0.86,4.00,5.14,4.43,2.71,5.14,4.29,,,,,,,,,,,,,,
1799999991656524679,2027-01-15T07:59:51.656524679Z,1.00,0.86,-1.71,1.14,0.00,2.00,2.43,1.86,3.71,3.43,4.86,1.71,5.86,5.14,,,,,,,,,,,,,,
1799999991663286005,2027-01-15T07:59:51.663286005Z,1.71,-0.86,-0.86,1.14,-0.43,0.71,4.00,1.43,2.86,-0.57,3.29,1.86,5.57,4.71,,,,,,,,,,,,,,
1799999991670047330,2027-01-15T07:59:51.670047330Z,1.29,-0.29,-1.43,-1.71,-0.57,-0.43,1.86,1.29,2.14,-1.29,2.29,2.71,4.57,3.29,,,,,,,,,,,,,,
1799999991676808655,2027-01-15T07:59:51.676808655Z,0.57,0.14,-1.71,-1.00,-0.43,-0.71,2.00,2.71,1.86,3.29,3.00,3.14,4.86,3.71,,,,,,,,,,,,,,
1799999991683569980,2027-01-15T07:59:51.683569980Z,-0.14,-1.14,-0.86,0.71,0.00,-1.29,4.00,2.86,2.57,7.14,2.71,2.86,5.57,4.71,,,,,,,,,,,,,,
1799999991690331305,2027-01-15T07:59:51.690331305Z,-0.29,-1.71,-0.57,-0.57,0.43,-2.00,4.43,1.57,3.29,6.86,2.14,3.43,5.43,4.57,,,,,,,,,,,,,,
1799999991697092631,2027-01-15T07:59:51.697092631Z,-0.29,-1.14,-0.71,-2.14,0.71,-2.71,3.57,0.29,3.29,4.14,2.57,4.57,4.71,4.57,,,,,,,,,,,,,,
1799999991703853956,2027-01-15T07:59:51.703853956Z,-0.29,-1.71,-1.29,-1.71,0.57,-2.43,2.57,0.29,3.00,0.86,3.57,5.14,3.71,5.00,,,,,,,,,,,,,,
1799999991710615281,2027-01-15T07:59:51.710615281Z,-1.29,-3.29,-0.71,0.57,0.00,-1.29,1.29,2.00,3.14,0.00,2.71,4.00,3.57,5.29,,,,,,,,,,,,,,
1799999991717376606,2027-01-15T07:59:51.717376606Z,-1.43,-3.43,0.71,0.71,0.57,-0.29,0.14,3.00,3.29,2.57,1.71,2.43,4.43,4.71,,,,,,,,,,,,,,
1799999991724137932,2027-01-15T07:59:51.724137932Z,-1.43,-2.14,0.86,-0.86,1.43,0.71,-0.29,2.00,3.14,2.86,4.00,2.86,4.14,5.43,,,,,,,,,,,,,,
1799999991730899257,2027-01-15T07:59:51.730899257Z,-1.29,-2.00,0.14,-0.14,0.71,2.29,-0.29,1.00,3.29,1.29,5.71,4.00,3.86,7.00,,,,,,,,,,,,,,
1799999991737660582,2027-01-15T07:59:51.737660582Z,-0.71,-3.00,0.43,1.43,0.00,4.00,-0.29,1.86,2.14,2.29,4.43,3.57,5.14,7.29,,,,,,,,,,,,,,
1799999991744421907,2027-01-15T07:59:51.744421907Z,-0.43,-3.14,0.86,1.29,0.57,4.00,1.00,3.00,0.86,4.00,4.43,2.86,5.71,6.00,,,,,,,,,,,,,,
1799999991751183232,2027-01-15T07:59:51.751183232Z,-1.86,-1.86,0.71,-0.29,0.86,2.71,2.71,3.43,0.43,4.29,6.86,3.29,5.00,4.43,,,,,,,,,,,,,,
1799999991757944558,2027-01-15T07:59:51.757944558Z,-2.71,-0.14,0.14,-2.00,-0.29,1.14,2.57,3.00,1.71,3.29,8.57,3.86,3.86,3.43,,,,,,,,,,,,,,
1799999991764705883,2027-01-15T07:59:51.764705883Z,-0.43,1.57,0.14,-1.86,-1.00,-0.14,-0.14,2.00,3.43,2.43,7.00,3.71,4.00,4.14,,,,,,,,,,,,,,
1799999991771467208,2027-01-15T07:59:51.771467208Z,-0.14,1.86,1.29,0.14,0.71,0.57,-0.14,0.86,3.29,4.00,4.00,2.86,5.71,5.71,,,,,,,,,,,,,,
1799999991778228533,2027-01-15T07:59:51.778228533Z,-0.29,0.57,1.71,1.29,2.00,2.43,2.71,1.29,2.57,5.71,2.43,3.57,4.86,6.14,,,,,,,,,,,,,,
1799999991784989859,2027-01-15T07:59:51.784989859Z,-0.86,-0.29,1.00,2.00,1.43,3.43,0.71,3.43,3.57,3.57,3.43,4.86,2.14,5.29,,,,,,,,,,,,,,
1799999991791751184,2027-01-15T07:59:51.791751184Z,-0.57,0.43,0.43,2.14,1.00,3.14,-2.43,4.29,4.14,0.57,4.86,5.43,1.71,5.00,,,,,,,,,,,,,,
1799999991798512509,2027-01-15T07:59:51.798512509Z,-0.29,1.29,0.14,1.86,0.71,3.14,-1.71,3.57,3.71,-0.29,5.29,5.14,3.57,5.57,,,,,,,,,,,,,,
1799999991805273834,2027-01-15T07:59:51.805273834Z,0.00,0.29,-0.43,1.57,0.14,3.57,2.14,2.14,2.71,3.43,4.43,5.57,5.29,6.00,,,,,,,,,,,,,,
1799999991812035159,2027-01-15T07:59:51.812035159Z,-0.71,-1.86,-0.43,2.29,1.71,4.14,4.71,0.86,1.57,6.86,3.00,6.29,4.00,6.14,,,,,,,,,,,,,,
1799999991818796485,2027-01-15T07:59:51.818796485Z,-0.57,-2.57,1.14,2.57,4.29,3.86,1.71,0.57,1.57,4.14,3.29,5.14,2.00,6.57,,,,,,,,,,,,,,
1799999991825557810,2027-01-15T07:59:51.825557810Z,-1.00,-1.57,1.43,0.86,3.29,3.71,-0.71,1.29,2.57,0.86,3.86,3.29,2.29,7.14,,,,,,,,,,,,,,
1799999991832319135,2027-01-15T07:59:51.832319135Z,-1.86,-0.57,0.00,-0.14,0.43,3.57,-0.14,1.86,2.29,3.14,3.00,3.29,2.29,6.43,,,,,,,,,,,,,,
1799999991839080460,2027-01-15T07:59:51.839080460Z,-1.29,0.43,0.00,0.57,-0.57,2.00,-1.29,2.71,1.14,6.29,1.86,4.43,2.71,4.43,,,,,,,,,,,,,,
1799999991845841785,2027-01-15T07:59:51.845841785Z,2.14,0.86,0.86,1.00,0.14,0.71,-2.57,3.71,0.86,6.57,1.57,4.00,4.29,3.00,,,,,,,,,,,,,,
1799999991852603111,2027-01-15T07:59:51.852603111Z,1.29,0.57,0.29,0.43,0.43,1.14,-2.57,4.71,1.43,4.43,2.29,3.29,5.57,3.14,,,,,,,,,,,,,,
1799999991859364436,2027-01-15T07:59:51.859364436Z,1.00,0.00,-1.00,0.29,1.14,3.00,-1.00,4.14,2.14,0.29,3.43,4.29,5.43,5.29,,,,,,,,,,,,,,
1799999991866125761,2027-01-15T07:59:51.866125761Z,1.43,-0.71,-1.57,0.71,1.57,5.00,0.86,2.29,2.29,-2.14,2.71,5.86,3.29,6.71,,,,,,,,,,,,,,
1799999991872887086,2027-01-15T07:59:51.872887086Z,2.29,-0.57,-0.14,0.29,0.43,4.71,1.29,1.57,2.43,2.57,0.71,5.14,0.86,4.71,,,,,,,,,,,,,,
1799999991879648412,2027-01-15T07:59:51.879648412Z,2.71,0.29,-0.14,-0.57,0.29,2.71,1.29,2.43,3.14,5.43,1.43,3.57,1.29,4.29,,,,,,,,,,,,,,
1799999991886409737,2027-01-15T07:59:51.886409737Z,0.71,0.29,-1.14,-1.00,2.71,0.14,1.86,2.29,2.86,0.71,3.86,3.43,4.43,6.57,,,,,,,,,,,,,,
1799999991893171062,2027-01-15T07:59:51.893171062Z,0.57,-0.29,-0.57,-0.57,4.57,-1.57,1.00,1.29,2.43,-2.43,5.00,4.29,6.14,7.14,,,,,,,,,,,,,,
1799999991899932387,2027-01-15T07:59:51.899932387Z,-0.29,-0.57,0.57,0.57,3.57,-1.29,-0.71,0.57,3.14,-0.14,4.71,4.71,5.00,5.57,,,,,,,,,,,,,,
1799999991906693712,2027-01-15T07:59:51.906693712Z,-0.29,0.29,1.29,2.14,1.71,0.86,-1.57,2.00,4.57,4.71,4.14,4.43,3.29,4.29,,,,,,,,,,,,,,
1799999991913455038,2027-01-15T07:59:51.913455038Z,-0.29,1.00,0.86,3.00,1.43,2.14,0.71,4.14,4.29,6.71,4.00,4.29,3.71,4.86,,,,,,,,,,,,,,
1799999991920216363,2027-01-15T07:59:51.920216363Z,-0.29,0.71,0.00,1.14,3.00,0.00,2.86,4.29,1.43,1.14,4.29,5.29,5.71,5.71,,,,,,,,,,,,,,
1799999991926977688,2027-01-15T07:59:51.926977688Z,-0.86,1.29,0.14,-0.86,2.00,0.29,1.71,3.14,0.57,-2.14,4.57,5.71,5.86,4.86,,,,,,,,,,,,,,
1799999991933739013,2027-01-15T07:59:51.933739013Z,-0.57,1.14,1.57,-0.43,0.14,3.14,1.57,2.43,2.00,3.29,4.29,4.29,4.71,4.14,,,,,,,,,,,,,,
1799999991940500339,2027-01-15T07:59:51.940500339Z,0.00,-0.71,2.43,0.43,0.43,3.00,4.00,2.43,2.00,10.00,3.43,2.57,3.57,3.86,,,,,,,,,,,,,,
1799999991947261664,2027-01-15T07:59:51.947261664Z,-0.14,-1.43,1.71,0.86,1.29,1.57,4.57,3.14,1.86,9.29,3.29,1.71,3.43,4.43,,,,,,,,,,,,,,
1799999991954022989,2027-01-15T07:59:51.954022989Z,-1.00,-0.57,0.86,0.86,1.43,1.71,2.71,4.00,2.86,3.71,3.86,1.86,4.00,5.43,,,,,,,,,,,,,,
1799999991960784314,2027-01-15T07:59:51.960784314Z,,-0.29,1.29,0.43,1.71,1.57,0.71,4.00,4.29,-1.71,4.29,2.71,4.00,6.57,,,,,,,,,,,,,,
1799999991967545639,2027-01-15T07:59:51.967545639Z,-1.71,-2.43,2.00,-0.14,1.14,0.43,0.86,2.71,4.86,1.71,3.14,3.86,2.14,6.86,,,,,,,,,,,,,,
1799999991974306965,2027-01-15T07:59:51.974306965Z,-1.43,-4.29,0.43,0.00,0.29,0.00,2.14,2.43,3.57,8.57,1.29,4.14,0.71,5.29,,,,,,,,,,,,,,
1799999991981068290,2027-01-15T07:59:51.981068290Z,0.14,-2.71,-2.00,-1.29,0.00,-0.14,1.71,3.57,2.86,6.14,1.71,3.43,2.00,3.43,,,,,,,,,,,,,,
1799999991987829615,2027-01-15T07:59:51.987829615Z,0.29,-0.29,-2.71,-2.86,0.57,-2.14,1.29,4.14,4.29,0.43,4.00,4.71,3.86,2.71,,,,,,,,,,,,,,
1799999991994590940,2027-01-15T07:59:51.994590940Z,-0.57,0.00,-0.43,-2.86,0.57,-3.71,1.71,3.86,5.57,-1.43,5.29,6.00,5.14,3.14,,,,,,,,,,,,,,
1799999992001352266,2027-01-15T07:59:52.001352266Z,-1.00,-0.57,2.00,-1.86,0.57,-2.86,2.71,3.43,5.43,0.57,5.29,5.14,6.00,3.71,,,,,,,,,,,,,,
1799999992008113591,2027-01-15T07:59:52.008113591Z,-1.71,-1.29,2.71,-0.29,0.71,-1.14,3.71,1.86,4.00,4.71,4.57,2.43,6.57,4.14,,,,,,,,,,,,,,
1799999992014874916,2027-01-15T07:59:52.014874916Z,-2.00,-1.00,0.29,1.14,1.00,0.43,3.29,0.86,3.00,10.29,3.57,-0.14,5.00,3.57,,,,,,,,,,,,,,
1799999992021636241,2027-01-15T07:59:52.021636241Z,-2.71,0.57,-1.86,0.71,1.71,1.29,1.57,2.71,3.86,10.43,3.29,1.14,3.71,3.86,,,,,,,,,,,,,,
1799999992028397566,2027-01-15T07:59:52.028397566Z,-2.14,1.14,-1.71,-0.57,2.71,1.00,1.14,4.86,2.86,3.29,3.57,4.00,5.00,5.00,,,,,,,,,,,,,,
1799999992035158892,2027-01-15T07:59:52.035158892Z,0.43,-1.29,-0.86,-0.57,3.29,1.57,2.29,3.71,0.86,0.43,3.14,5.14,6.00,5.00,,,,,,,,,,,,,,
1799999992041920217,2027-01-15T07:59:52.041920217Z,0.86,-2.86,0.43,1.14,2.14,2.57,3.00,1.43,1.71,4.86,3.14,4.43,4.57,4.57,,,,,,,,,,,,,,
1799999992048681542,2027-01-15T07:59:52.048681542Z,,-1.43,1.57,2.29,1.00,2.29,2.57,0.57,2.86,5.00,4.00,4.57,3.29,5.14,,,,,,,,,,,,,,
1799999992055442867,2027-01-15T07:59:52.055442867Z,,0.29,2.00,1.57,0.57,1.14,2.14,1.00,2.29,0.86,4.43,5.43,2.86,5.71,,,,,,,,,,,,,,
1799999992062204193,2027-01-15T07:59:52.062204193Z,0.14,1.29,1.00,-0.29,0.86,1.43,1.14,1.71,1.43,-2.00,3.43,5.43,3.43,5.00,,,,,,,,,,,,,,
1799999992068965518,2027-01-15T07:59:52.068965518Z,0.00,0.57,0.57,-0.71,0.00,3.43,-0.57,1.43,2.00,2.71,2.29,3.86,4.71,4.00,,,,,,,,,,,,,,
1799999992075726843,2027-01-15T07:59:52.075726843Z,-3.14,-0.43,1.14,2.00,-1.43,4.29,-0.29,1.29,2.43,10.43,3.00,2.43,4.43,4.57,,,,,,,,,,,,,,
1799999992082488168,2027-01-15T07:59:52.082488168Z,-2.43,-1.29,0.43,3.43,-1.29,2.43,2.14,3.00,0.86,9.00,2.71,3.43,2.57,5.00,,,,,,,,,,,,,,
1799999992089249493,2027-01-15T07:59:52.089249493Z,1.14,-1.00,0.00,2.14,-0.71,1.86,2.57,3.86,0.71,2.86,1.29,4.71,3.43,4.00,,,,,,,,,,,,,,
1799999992096010819,2027-01-15T07:59:52.096010819Z,1.00,-0.14,0.29,0.86,-1.29,3.00,1.14,3.14,2.43,0.14,1.57,4.86,5.29,3.43,,,,,,,,,,,,,,
1799999992102772144,2027-01-15T07:59:52.102772144Z,0.29,-0.29,-0.14,0.29,-1.71,4.29,0.71,2.29,4.29,1.00,2.86,4.57,5.86,3.57,,,,,,,,,,,,,,
1799999992109533469,2027-01-15T07:59:52.109533469Z,0.14,-1.71,-0.71,-0.14,-0.57,4.86,1.14,1.43,4.14,2.43,4.00,5.00,4.14,4.71,,,,,,,,,,,,,,
1799999992116294794,2027-01-15T07:59:52.116294794Z,-1.86,-2.71,-0.14,0.14,1.14,2.86,1.14,1.00,2.71,4.29,4.43,5.71,2.43,5.71,,,,,,,,,,,,,,
1799999992123056119,2027-01-15T07:59:52.123056119Z,-2.14,-1.00,1.29,1.00,0.29,-0.29,0.71,1.57,3.29,5.00,4.14,4.43,3.14,5.29,,,,,,,,,,,,,,
1799999992129817445,2027-01-15T07:59:52.129817445Z,0.29,0.86,0.29,0.29,0.00,-1.43,1.71,2.71,5.00,1.71,3.14,2.71,4.57,5.00,,,,,,,,,,,,,,
1799999992136578770,2027-01-15T07:59:52.136578770Z,0.57,0.43,-1.57,-1.14,1.86,0.00,2.86,3.29,4.43,-0.71,2.14,2.57,5.00,6.00,,,,,,,,,,,,,,
1799999992143340095,2027-01-15T07:59:52.143340095Z,-1.57,-0.71,-1.14,-0.86,2.29,0.86,3.29,2.86,3.00,1.00,2.00,3.14,4.57,5.71,,,,,,,,,,,,,,
1799999992150101420,2027-01-15T07:59:52.150101420Z,-3.14,-0.14,0.29,0.71,1.43,0.57,2.86,2.00,2.43,4.14,2.29,2.86,3.71,4.14,,,,,,,,,,,,,,
1799999992156862746,2027-01-15T07:59:52.156862746Z,-1.71,2.00,1.14,2.43,1.86,1.57,1.43,1.29,3.29,6.29,1.86,2.43,4.29,2.57,,,,,,,,,,,,,,
1799999992163624071,2027-01-15T07:59:52.163624071Z,-1.14,2.71,0.29,0.71,3.57,3.57,1.71,1.71,4.00,6.14,1.71,3.86,6.29,3.14,,,,,,,,,,,,,,
1799999992170385396,2027-01-15T07:59:52.170385396Z,1.14,0.14,-0.43,-2.14,2.00,3.43,4.00,1.71,2.86,3.43,3.00,6.00,7.29,4.71,,,,,,,,,,,,,,
1799999992177146721,2027-01-15T07:59:52.177146721Z,0.86,-1.57,1.14,-1.14,-1.14,0.71,2.71,0.86,2.00,0.57,4.43,5.86,5.86,4.00,,,,,,,,,,,,,,
1799999992183908046,2027-01-15T07:59:52.183908046Z,-1.71,-1.29,2.00,1.00,-0.57,-0.86,-0.71,1.29,2.43,0.86,4.43,4.29,4.86,3.14,,,,,,,,,,,,,,
1799999992190669372,2027-01-15T07:59:52.190669372Z,-2.14,-0.71,0.71,0.71,1.71,0.29,-0.71,2.14,2.57,2.71,3.86,3.86,5.00,4.29,,,,,,,,,,,,,,
1799999992197430697,2027-01-15T07:59:52.197430697Z,-2.00,-0.43,-0.43,-0.71,1.43,2.00,1.57,2.43,2.14,3.43,3.57,4.00,4.86,5.57,,,,,,,,,,,,,,
1799999992204192022,2027-01-15T07:59:52.204192022Z,-3.00,-0.29,-0.43,-1.57,0.00,3.43,3.14,2.43,2.14,2.86,3.29,4.00,4.57,5.71,,,,,,,,,,,,,,
1799999992210953347,2027-01-15T07:59:52.210953347Z,-3.57,-0.14,0.00,-0.29,-1.29,3.86,4.29,1.86,3.14,2.43,2.71,3.86,4.29,5.29,,,,,,,,,,,,,,
1799999992217714673,2027-01-15T07:59:52.217714673Z,-1.14,-0.43,0.00,2.00,-1.43,2.57,4.86,1.00,4.43,3.29,2.71,3.86,4.57,4.14,,,,,,,,,,,,,,
1799999992224475998,2027-01-15T07:59:52.224475998Z,-0.57,-0.86,-0.43,1.43,-1.00,1.29,3.00,1.43,4.29,3.71,3.29,3.86,5.71,3.43,,,,,,,,,,,,,,
1799999992231237323,2027-01-15T07:59:52.231237323Z,-1.29,-0.14,0.14,0.00,-1.00,1.71,0.29,2.00,3.00,2.86,3.43,4.57,6.43,4.14,,,,,,,,,,,,,,
1799999992237998648,2027-01-15T07:59:52.237998648Z,-1.43,1.43,0.71,1.29,-0.71,2.29,0.71,1.29,1.86,2.57,3.29,4.57,5.29,5.57,,,,,,,,,,,,,,
1799999992244759973,2027-01-15T07:59:52.244759973Z,2.43,2.00,0.71,2.86,0.14,2.43,2.57,1.71,1.29,2.14,3.43,3.71,4.29,5.43,,,,,,,,,,,,,,
1799999992251521299,2027-01-15T07:59:52.251521299Z,4.00,1.29,0.43,2.14,1.71,2.43,3.43,3.14,1.00,1.29,3.71,3.00,4.86,4.57,,,,,,,,,,,,,,
1799999992258282624,2027-01-15T07:59:52.258282624Z,0.29,0.43,0.71,0.29,2.86,2.00,2.86,4.43,0.43,0.86,3.43,3.14,5.57,4.43,,,,,,,,,,,,,,
1799999992265043949,2027-01-15T07:59:52.265043949Z,-0.43,-0.14,1.57,-0.86,1.57,2.14,1.86,3.57,0.86,2.57,3.00,3.57,4.14,5.71,,,,,,,,,,,,,,
1799999992271805274,2027-01-15T07:59:52.271805274Z,0.57,-0.14,1.00,0.29,-0.86,2.86,3.43,1.57,1.29,5.00,3.43,3.43,2.57,5.43,,,,,,,,,,,,,,
1799999992278566600,2027-01-15T07:59:52.278566600Z,1.14,0.57,0.00,0.86,-0.86,1.86,6.14,1.29,0.71,5.86,3.57,3.57,4.29,4.00,,,,,,,,,,,,,,
1799999992285327925,2027-01-15T07:59:52.285327925Z,0.14,1.71,0.71,0.29,0.71,0.57,5.57,2.29,0.57,3.29,2.57,3.86,7.14,4.57,,,,,,,,,,,,,,
1799999992292089250,2027-01-15T07:59:52.292089250Z,-0.29,1.43,0.57,-0.43,0.29,0.57,2.29,1.57,1.29,0.00,2.71,4.14,7.43,5.00,,,,,,,,,,,,,,
1799999992298850575,2027-01-15T07:59:52.298850575Z,-2.00,-0.29,-0.43,-0.43,-1.00,0.29,0.14,1.00,2.00,-0.57,4.00,4.71,6.29,4.14,,,,,,,,,,,,,,
1799999992305611900,2027-01-15T07:59:52.305611900Z,-2.43,-1.57,-0.43,0.57,-1.14,-1.00,0.29,1.86,2.86,1.57,5.29,5.00,5.29,3.14,,,,,,,,,,,,,,
1799999992312373226,2027-01-15T07:59:52.312373226Z,-2.57,-0.86,0.71,2.00,-0.29,-2.57,0.43,2.71,3.71,3.43,6.29,3.57,4.57,3.71,,,,,,,,,,,,,,
1799999992319134551,2027-01-15T07:59:52.319134551Z,-3.14,1.00,-0.14,0.71,0.71,-1.43,-0.71,3.14,4.43,3.14,5.86,1.71,4.14,5.00,,,,,,,,,,,,,,
1799999992325895876,2027-01-15T07:59:52.325895876Z,-1.29,0.71,-2.00,-2.29,0.29,0.57,-1.71,3.29,4.00,3.29,4.14,2.43,4.43,5.00,,,,,,,,,,,,,,
1799999992332657201,2027-01-15T07:59:52.332657201Z,-0.71,-0.14,0.29,-1.29,0.43,-0.86,-1.29,2.86,3.29,4.29,2.86,3.57,5.14,5.00,,,,,,,,,,,,,,
1799999992339418527,2027-01-15T07:59:52.339418527Z,1.57,0.71,2.86,1.57,1.29,-1.71,-0.43,2.00,3.14,2.29,3.29,2.71,6.14,5.71,,,,,,,,,,,,,,
1799999992346179852,2027-01-15T07:59:52.346179852Z,-0.43,1.14,1.71,1.14,1.43,0.00,0.71,1.43,3.43,0.29,4.29,1.86,7.00,6.00,,,,,,,,,,,,,,
1799999992352941177,2027-01-15T07:59:52.352941177Z,-0.71,0.43,0.00,-0.86,0.86,1.29,2.00,1.57,3.43,1.57,4.71,2.29,7.00,5.71,,,,,,,,,,,,,,
1799999992359702502,2027-01-15T07:59:52.359702502Z,-1.00,-0.57,-0.86,-1.57,0.29,0.71,2.29,2.29,3.14,4.57,4.57,3.57,5.14,5.57,,,,,,,,,,,,,,
1799999992366463827,2027-01-15T07:59:52.366463827Z,0.43,-1.00,-0.43,0.00,1.00,-0.29,1.14,3.00,2.71,6.71,3.29,4.71,2.71,5.71,,,,,,,,,,,,,,
1799999992373225153,2027-01-15T07:59:52.373225153Z,0.14,-0.86,0.00,0.71,2.29,2.14,1.00,3.57,3.00,5.29,2.00,4.00,3.43,5.29,,,,,,,,,,,,,,
1799999992379986478,2027-01-15T07:59:52.379986478Z,-2.43,-0.71,0.29,0.00,2.29,4.00,1.71,4.14,4.14,4.43,2.57,2.57,4.86,4.57,,,,,,,,,,,,,,
1799999992386747803,2027-01-15T07:59:52.386747803Z,-0.43,-0.43,-0.29,0.00,1.29,1.57,1.00,4.00,6.14,3.14,5.29,3.43,3.14,5.00,,,,,,,,,,,,,,
1799999992393509128,2027-01-15T07:59:52.393509128Z,0.29,-0.71,-0.86,0.71,1.71,-0.43,0.43,2.71,6.57,1.71,7.14,5.29,1.14,5.43,,,,,,,,,,,,,,
1799999992400270454,2027-01-15T07:59:52.400270454Z,1.71,-0.71,-0.86,0.71,3.00,1.29,1.57,1.00,5.14,2.00,6.00,5.57,1.43,4.57,,,,,,,,,,,,,,
1799999992407031779,2027-01-15T07:59:52.407031779Z,0.14,-0.43,-1.00,0.14,3.71,3.43,2.71,-0.86,3.71,3.14,3.43,4.14,2.29,3.71,,,,,,,,,,,,,,
1799999992413793104,2027-01-15T07:59:52.413793104Z,0.29,0.29,-1.43,0.00,4.29,2.29,2.43,-1.57,2.43,2.14,0.86,3.43,3.14,3.43,,,,,,,,,,,,,,
1799999992420554429,2027-01-15T07:59:52.420554429Z,0.71,-0.29,-0.71,0.14,3.14,-1.29,0.29,-0.14,1.71,1.00,0.29,4.14,3.00,4.57,,,,,,,,,,,,,,
1799999992427315754,2027-01-15T07:59:52.427315754Z,0.14,-1.57,0.71,-0.14,0.29,-1.71,0.00,1.43,2.57,4.86,1.71,4.71,2.43,5.57,,,,,,,,,,,,,,
1799999992434077080,2027-01-15T07:59:52.434077080Z,-0.14,-2.00,1.00,-0.86,-0.57,0.86,2.71,1.14,3.29,8.29,2.86,3.71,3.14,6.00,,,,,,,,,,,,,,
1799999992440838405,2027-01-15T07:59:52.440838405Z,-1.71,-2.14,0.43,-0.43,1.57,1.71,4.00,1.86,2.86,6.00,4.57,2.86,3.57,5.43,,,,,,,,,,,,,,
1799999992447599730,2027-01-15T07:59:52.447599730Z,-1.86,-2.00,-0.14,0.71,3.14,0.86,3.29,3.71,3.29,4.86,5.29,2.86,3.57,4.57,,,,,,,,,,,,,,
1799999992454361055,2027-01-15T07:59:52.454361055Z,-1.29,-1.00,-1.00,1.43,3.57,-0.14,2.43,5.00,4.57,7.43,4.43,3.86,4.14,4.14,,,,,,,,,,,,,,
1799999992461122380,2027-01-15T07:59:52.461122380Z,-1.43,0.00,-1.86,1.57,3.86,-0.71,3.00,4.00,5.71,8.57,3.14,5.00,5.86,4.57,,,,,,,,,,,,,,
1799999992467883706,2027-01-15T07:59:52.467883706Z,-1.43,-0.57,-1.71,1.29,3.57,0.43,3.71,1.00,4.14,4.14,3.86,5.43,6.86,5.29,,,,,,,,,,,,,,
1799999992474645031,2027-01-15T07:59:52.474645031Z,0.00,-1.43,-0.86,1.86,1.57,1.71,2.71,0.29,1.86,0.29,6.00,4.43,5.43,4.86,,,,,,,,,,,,,,
1799999992481406356,2027-01-15T07:59:52.481406356Z,-0.14,-0.57,0.00,2.57,0.43,1.86,2.00,2.71,2.43,2.57,6.43,3.86,4.14,5.43,,,,,,,,,,,,,,
1799999992488167681,2027-01-15T07:59:52.488167681Z,-0.29,0.29,1.57,1.57,2.14,2.86,2.57,2.71,2.29,5.71,5.43,4.57,4.29,6.71,,,,,,,,,,,,,,
1799999992494929007,2027-01-15T07:59:52.494929007Z,-1.71,0.29,1.86,0.71,3.00,3.57,2.43,2.43,1.43,6.00,4.71,4.29,4.86,6.00,,,,,,,,,,,,,,
1799999992501690332,2027-01-15T07:59:52.501690332Z,-1.86,0.57,0.14,1.29,2.14,3.29,2.00,4.14,2.14,4.86,4.29,3.29,5.00,4.57,,,,,,,,,,,,,,
1799999992508451657,2027-01-15T07:59:52.508451657Z,-1.86,0.57,-1.43,2.14,2.14,3.14,2.14,5.71,3.00,3.00,4.00,3.29,5.00,4.43,,,,,,,,,,,,,,
1799999992515212982,2027-01-15T07:59:52.515212982Z,-1.86,0.43,-1.29,2.00,1.57,2.43,3.14,4.00,2.00,1.14,4.00,4.57,5.43,5.71,,,,,,,,,,,,,,
1799999992521974307,2027-01-15T07:59:52.521974307Z,-1.00,0.14,0.29,0.29,0.14,0.29,3.43,0.71,0.43,1.43,4.43,5.14,6.00,6.71,,,,,,,,,,,,,,
1799999992528735633,2027-01-15T07:59:52.528735633Z,0.57,0.14,1.29,-1.00,-0.57,-1.29,2.57,0.14,0.71,4.29,4.29,3.57,5.86,5.57,,,,,,,,,,,,,,
1799999992535496958,2027-01-15T07:59:52.535496958Z,0.57,-0.57,1.57,0.00,0.00,1.14,1.43,0.71,1.00,4.71,3.43,3.86,5.29,5.00,,,,,,,,,,,,,,
1799999992542258283,2027-01-15T07:59:52.542258283Z,1.00,-1.43,1.14,1.00,-0.71,3.29,0.29,0.14,2.00,1.29,2.57,4.71,4.57,5.29,,,,,,,,,,,,,,
1799999992549019608,2027-01-15T07:59:52.549019608Z,-1.43,-1.71,0.14,0.00,-1.29,2.43,-0.14,1.00,3.86,-1.29,2.43,3.71,4.14,5.14,,,,,,,,,,,,,,
1799999992555780934,2027-01-15T07:59:52.555780934Z,-3.57,-0.71,-0.86,-0.86,-0.29,1.57,0.29,2.43,5.29,-1.71,2.71,2.86,3.86,4.86,,,,,,,,,,,,,,
1799999992562542259,2027-01-15T07:59:52.562542259Z,-3.57,0.43,-1.29,-1.00,1.43,3.57,1.29,2.86,4.43,0.43,3.29,3.00,3.43,4.86,,,,,,,,,,,,,,
1799999992569303584,2027-01-15T07:59:52.569303584Z,-0.14,1.14,-1.00,0.00,2.00,5.29,2.29,1.57,2.57,2.29,3.29,4.14,2.57,3.86,,,,,,,,,,,,,,
1799999992576064909,2027-01-15T07:59:52.576064909Z,0.43,0.00,-0.43,0.00,0.71,3.86,2.43,1.71,3.29,1.57,3.00,4.57,1.57,2.57,,,,,,,,,,,,,,
1799999992582826234,2027-01-15T07:59:52.582826234Z,-1.57,-2.00,-0.86,-1.14,0.57,2.29,1.86,4.43,4.14,2.86,3.71,4.00,2.14,3.71,,,,,,,,,,,,,,
1799999992589587560,2027-01-15T07:59:52.589587560Z,0.00,-2.43,-0.86,-1.29,0.00,2.14,1.43,6.14,2.14,3.29,5.00,3.86,4.00,6.14,,,,,,,,,,,,,,
1799999992596348885,2027-01-15T07:59:52.596348885Z,0.71,-1.57,0.00,-0.29,-1.14,1.71,0.00,4.14,0.43,0.86,4.43,5.00,5.00,6.57,,,,,,,,,,,,,,
1799999992603110210,2027-01-15T07:59:52.603110210Z,2.86,-1.43,0.57,0.00,-0.71,1.43,-1.43,2.71,0.57,-0.57,2.86,6.14,4.00,4.71,,,,,,,,,,,,,,
1799999992609871535,2027-01-15T07:59:52.609871535Z,1.29,-0.86,0.29,-0.57,0.43,1.57,-1.86,3.57,0.86,0.00,1.86,6.14,2.29,3.14,,,,,,,,,,,,,,
1799999992616632861,2027-01-15T07:59:52.616632861Z,0.86,0.43,-0.43,-1.00,1.00,2.29,-0.86,4.86,0.57,0.71,2.57,4.86,2.00,3.43,,,,,,,,,,,,,,
1799999992623394186,2027-01-15T07:59:52.623394186Z,-1.29,0.71,-1.71,-0.57,-0.14,3.00,1.29,4.14,0.71,2.43,4.00,4.14,4.00,5.43,,,,,,,,,,,,,,
1799999992630155511,2027-01-15T07:59:52.630155511Z,0.29,-0.71,-1.57,-0.14,-0.86,2.14,2.00,1.71,2.14,6.00,3.00,5.43,4.71,6.14,,,,,,,,,,,,,,
1799999992636916836,2027-01-15T07:59:52.636916836Z,0.29,-1.29,-0.29,-0.57,0.00,0.86,0.86,0.00,3.00,8.00,0.57,4.43,2.43,5.14,,,,,,,,,,,,,,
1799999992643678161,2027-01-15T07:59:52.643678161Z,0.14,-1.29,-0.43,-0.86,0.43,0.43,-0.14,1.00,2.43,4.57,-0.14,1.29,1.86,5.14,,,,,,,,,,,,,,
1799999992650439487,2027-01-15T07:59:52.650439487Z,-0.14,-1.29,-0.86,0.00,0.00,0.57,0.14,3.71,2.43,0.71,1.43,0.00,3.57,5.43,,,,,,,,,,,,,,
1799999992657200812,2027-01-15T07:59:52.657200812Z,-0.43,-0.57,0.14,0.86,-0.29,0.29,0.57,6.43,3.29,-0.86,3.00,1.71,4.86,4.43,,,,,,,,,,,,,,
1799999992663962137,2027-01-15T07:59:52.663962137Z,-0.57,0.29,1.29,1.14,-0.86,1.29,1.86,6.57,3.71,-0.14,3.71,4.14,4.29,3.57,,,,,,,,,,,,,,
1799999992670723462,2027-01-15T07:59:52.670723462Z,-1.14,0.29,1.14,0.29,-1.57,2.86,2.00,2.71,2.57,0.86,2.57,5.43,4.14,4.57,,,,,,,,,,,,,,
1799999992677484788,2027-01-15T07:59:52.677484788Z,-0.43,-1.29,0.00,-0.14,-1.43,2.14,1.14,0.29,1.86,0.29,2.29,4.14,5.71,6.29,,,,,,,,,,,,,,
1799999992684246113,2027-01-15T07:59:52.684246113Z,,-2.14,0.57,0.57,-0.14,0.71,1.71,1.57,3.00,1.43,2.71,3.43,4.86,5.71,,,,,,,,,,,,,,
1799999992691007438,2027-01-15T07:59:52.691007438Z,,-1.14,-0.71,1.14,0.57,1.57,2.71,2.00,3.14,2.00,2.00,4.00,3.57,4.86,,,,,,,,,,,,,,
1799999992697768763,2027-01-15T07:59:52.697768763Z,-0.43,-0.71,-3.57,0.14,0.00,1.14,2.71,2.29,2.14,-0.71,1.57,4.29,5.43,5.14,,,,,,,,,,,,,,
1799999992704530088,2027-01-15T07:59:52.704530088Z,,-0.71,-3.29,-1.00,0.14,-1.29,2.29,3.29,1.71,-2.14,2.14,4.57,7.43,5.00,,,,,,,,,,,,,,
1799999992711291414,2027-01-15T07:59:52.711291414Z,-1.14,0.00,-0.86,-1.43,1.29,-3.00,1.43,3.71,2.29,-0.71,3.14,5.43,7.29,4.29,,,,,,,,,,,,,,
1799999992718052739,2027-01-15T07:59:52.718052739Z,-0.14,1.29,1.43,-1.14,3.00,-1.14,1.29,2.43,3.14,1.71,4.14,5.57,4.57,3.29,,,,,,,,,,,,,,
1799999992724814064,2027-01-15T07:59:52.724814064Z,-0.14,1.57,1.29,-0.14,3.71,2.86,2.29,2.29,2.43,3.71,4.29,4.57,1.71,3.29,,,,,,,,,,,,,,
1799999992731575389,2027-01-15T07:59:52.731575389Z,-1.43,-0.43,0.29,0.71,1.57,3.29,3.14,4.43,1.00,3.86,3.29,3.57,2.57,5.14,,,,,,,,,,,,,,
1799999992738336714,2027-01-15T07:59:52.738336714Z,0.00,-1.57,1.00,1.29,0.29,-0.14,2.86,4.86,1.57,3.57,3.14,3.14,4.57,5.57,,,,,,,,,,,,,,
1799999992745098040,2027-01-15T07:59:52.745098040Z,0.29,0.71,0.14,1.57,1.86,-0.43,2.29,3.29,3.57,0.57,3.43,2.57,4.43,3.43,,,,,,,,,,,,,,
1799999992751859365,2027-01-15T07:59:52.751859365Z,1.71,2.71,-1.14,2.00,2.86,1.86,1.57,3.00,4.00,-1.86,2.86,3.14,3.00,2.71,,,,,,,,,,,,,,
1799999992758620690,2027-01-15T07:59:52.758620690Z,1.14,2.71,-1.29,2.86,2.14,3.29,1.00,3.29,3.14,-0.71,2.29,4.57,2.00,4.29,,,,,,,,,,,,,,
1799999992765382015,2027-01-15T07:59:52.765382015Z,0.86,1.43,-0.14,2.71,0.57,1.86,1.14,3.14,3.29,2.29,2.86,5.86,1.00,5.43,,,,,,,,,,,,,,
1799999992772143341,2027-01-15T07:59:52.772143341Z,-1.14,-0.29,1.14,1.14,0.14,-0.29,2.00,2.43,4.86,3.71,4.29,5.00,1.14,4.14,,,,,,,,,,,,,,
1799999992778904666,2027-01-15T07:59:52.778904666Z,-0.57,-1.86,1.14,0.14,1.57,1.14,2.43,2.29,5.57,1.43,4.29,4.29,2.43,2.57,,,,,,,,,,,,,,
1799999992785665991,2027-01-15T07:59:52.785665991Z,1.00,-2.43,0.14,1.14,1.00,3.57,2.00,2.43,3.86,3.57,3.71,5.86,2.86,3.86,,,,,,,,,,,,,,
1799999992792427316,2027-01-15T07:59:52.792427316Z,0.43,-1.43,0.43,1.00,-1.29,3.86,2.29,2.29,2.14,8.57,4.29,6.71,2.71,5.57,,,,,,,,,,,,,,
1799999992799188641,2027-01-15T07:59:52.799188641Z,-3.29,-1.71,2.14,0.29,-1.00,2.71,2.43,2.29,2.71,7.14,4.43,4.86,5.00,5.86,,,,,,,,,,,,,,
1799999992805949967,2027-01-15T07:59:52.805949967Z,-1.71,-2.00,2.71,1.57,1.14,2.14,1.86,2.14,4.00,2.57,5.29,3.29,7.14,5.29,,,,,,,,,,,,,,
1799999992812711292,2027-01-15T07:59:52.812711292Z,0.57,-0.57,1.86,3.29,2.00,2.00,1.00,1.86,5.00,-0.14,6.71,3.29,7.29,4.71,,,,,,,,,,,,,,
1799999992819472617,2027-01-15T07:59:52.819472617Z,1.00,1.71,1.14,2.43,1.29,1.57,1.71,1.14,4.86,0.57,7.14,4.43,5.29,4.43,,,,,,,,,,,,,,
1799999992826233942,2027-01-15T07:59:52.826233942Z,-0.86,1.57,1.00,-1.43,0.43,0.71,3.57,1.14,3.29,3.14,5.86,4.57,3.71,5.43,,,,,,,,,,,,,,
1799999992832995268,2027-01-15T07:59:52.832995268Z,-1.29,-1.71,1.57,-2.43,1.00,-1.00,2.71,1.57,2.29,4.14,5.71,3.71,4.86,6.71,,,,,,,,,,,,,,
1799999992839756593,2027-01-15T07:59:52.839756593Z,-0.86,-2.57,2.57,1.43,0.57,-1.57,0.57,1.29,3.29,3.57,7.43,4.14,5.71,6.57,,,,,,,,,,,,,,
1799999992846517918,2027-01-15T07:59:52.846517918Z,-0.43,-0.71,2.86,2.29,-0.71,0.00,1.00,1.14,2.43,2.29,5.86,3.29,4.71,4.71,,,,,,,,,,,,,,
1799999992853279243,2027-01-15T07:59:52.853279243Z,1.71,0.43,1.14,-0.14,-1.57,0.86,2.14,1.29,0.43,1.00,2.43,1.43,3.86,2.71,,,,,,,,,,,,,,
1799999992860040568,2027-01-15T07:59:52.860040568Z,1.43,0.86,-1.29,-1.86,-2.00,0.43,2.00,1.29,-1.00,0.71,0.29,0.14,3.57,1.29,,,,,,,,,,,,,,
1799999992866801894,2027-01-15T07:59:52.866801894Z,-0.14,0.57,-1.86,-1.14,-1.57,-0.14,0.57,1.43,-0.14,1.86,1.14,1.86,3.14,1.00,,,,,,,,,,,,,,
1799999992873563219,2027-01-15T07:59:52.873563219Z,-0.14,-0.43,-1.00,0.71,0.57,-0.43,-0.57,3.00,2.43,2.43,4.00,4.86,5.00,3.29,,,,,,,,,,,,,,
1799999992880324544,2027-01-15T07:59:52.880324544Z,0.29,-1.43,-2.00,1.43,2.86,-0.86,1.00,5.14,3.14,1.14,5.29,5.00,8.29,5.57,,,,,,,,,,,,,,
1799999992887085869,2027-01-15T07:59:52.887085869Z,0.14,-0.86,-2.57,0.57,1.43,-0.57,2.86,4.71,1.14,0.71,4.57,2.43,8.29,4.86,,,,,,,,,,,,,,
1799999992893847195,2027-01-15T07:59:52.893847195Z,-1.57,0.71,-0.29,0.43,-0.86,0.57,2.29,2.57,1.43,2.00,4.14,0.43,5.00,3.86,,,,,,,,,,,,,,
1799999992900608520,2027-01-15T07:59:52.900608520Z,-1.86,1.86,2.00,1.43,-0.29,0.00,2.00,2.14,3.71,3.86,3.86,0.00,2.43,4.43,,,,,,,,,,,,,,
1799999992907369845,2027-01-15T07:59:52.907369845Z,-1.71,1.43,2.00,2.43,0.43,-1.29,2.43,3.00,5.00,5.14,3.71,1.57,1.29,4.71,,,,,,,,,,,,,,
1799999992914131170,2027-01-15T07:59:52.914131170Z,-1.71,0.57,0.71,2.43,-0.43,-0.71,2.57,3.14,4.57,4.00,3.71,4.00,1.29,4.43,,,,,,,,,,,,,,
1799999992920892495,2027-01-15T07:59:52.920892495Z,-1.43,0.29,-0.43,1.29,-1.14,1.29,1.86,2.71,3.14,0.14,3.43,6.29,3.14,4.00,,,,,,,,,,,,,,
1799999992927653821,2027-01-15T07:59:52.927653821Z,0.00,1.29,0.29,0.14,-0.14,2.86,2.14,1.86,1.71,-2.57,3.86,6.43,5.57,5.57,,,,,,,,,,,,,,
1799999992934415146,2027-01-15T07:59:52.934415146Z,0.14,0.14,1.43,0.14,1.43,1.29,4.14,1.29,1.86,1.14,5.43,5.00,5.29,7.43,,,,,,,,,,,,,,
1799999992941176471,2027-01-15T07:59:52.941176471Z,0.86,-2.43,-0.57,-0.57,1.29,-0.57,4.57,1.43,2.14,5.43,5.00,5.43,4.00,6.00,,,,,,,,,,,,,,
1799999992947937796,2027-01-15T07:59:52.947937796Z,1.43,-1.71,-3.00,0.57,2.29,-0.43,3.00,1.43,1.71,3.86,2.57,6.14,4.29,3.86,,,,,,,,,,,,,,
1799999992954699122,2027-01-15T07:59:52.954699122Z,,0.43,-3.00,2.43,3.43,0.14,2.86,1.71,2.29,1.43,1.71,5.71,4.71,3.29,,,,,,,,,,,,,,
1799999992961460447,2027-01-15T07:59:52.961460447Z,1.29,1.57,-1.43,3.57,2.43,0.43,3.71,2.29,3.29,2.29,3.14,4.86,4.14,3.57,,,,,,,,,,,,,,
1799999992968221772,2027-01-15T07:59:52.968221772Z,-0.71,1.29,0.14,3.00,-0.29,1.71,3.86,2.00,4.29,6.71,3.43,4.29,4.29,4.29,,,,,,,,,,,,,,
1799999992974983097,2027-01-15T07:59:52.974983097Z,-1.00,0.14,0.57,1.71,-1.71,2.00,4.14,0.57,3.86,10.71,1.43,4.71,5.14,5.29,,,,,,,,,,,,,,
1799999992981744422,2027-01-15T07:59:52.981744422Z,-0.57,-0.57,-1.00,1.00,1.00,-0.43,4.29,0.86,2.71,6.57,1.29,5.57,5.29,6.43,,,,,,,,,,,,,,
1799999992988505748,2027-01-15T07:59:52.988505748Z,-0.29,0.00,-1.71,1.29,2.57,-1.71,2.00,2.86,2.71,0.43,3.14,4.86,4.86,6.29,,,,,,,,,,,,,,
1799999992995267073,2027-01-15T07:59:52.995267073Z,-0.71,-0.14,-0.14,1.43,0.86,1.43,-1.14,2.71,2.43,2.00,2.43,2.71,4.43,4.43,,,,,,,,,,,,,,
1799999993002028398,2027-01-15T07:59:53.002028398Z,-0.86,-1.57,1.14,0.14,-0.29,4.00,-1.71,1.57,1.86,5.57,1.57,1.86,4.29,3.00,,,,,,,,,,,,,,
1799999993008789723,2027-01-15T07:59:53.008789723Z,-1.86,-3.14,1.29,-1.57,0.71,3.29,-0.14,1.57,1.71,5.71,2.43,2.71,4.71,3.00,,,,,,,,,,,,,,
1799999993015551049,2027-01-15T07:59:53.015551049Z,-0.29,-2.71,0.29,-1.29,2.14,1.29,1.29,1.29,2.43,2.57,3.43,3.71,5.43,4.00,,,,,,,,,,,,,,
1799999993022312374,2027-01-15T07:59:53.022312374Z,0.14,-0.43,-0.43,2.14,2.00,0.00,1.00,1.29,3.57,0.43,2.86,4.29,5.14,5.29,,,,,,,,,,,,,,
1799999993029073699,2027-01-15T07:59:53.029073699Z,-0.43,0.29,0.00,4.43,0.71,1.14,0.43,1.86,3.43,2.29,2.00,4.43,4.00,5.14,,,,,,,,,,,,,,
1799999993035835024,2027-01-15T07:59:53.035835024Z,-0.71,-0.71,-0.29,3.14,0.86,2.29,1.00,1.86,2.14,1.86,3.00,4.57,4.71,4.14,,,,,,,,,,,,,,
1799999993042596349,2027-01-15T07:59:53.042596349Z,-2.29,-1.29,-0.71,2.00,0.57,2.14,0.43,2.14,2.14,3.43,4.14,4.00,5.86,3.29,,,,,,,,,,,,,,
1799999993049357675,2027-01-15T07:59:53.049357675Z,-1.57,-0.86,-0.14,2.29,0.14,0.86,1.29,2.71,3.86,8.86,5.00,3.57,5.86,3.57,,,,,,,,,,,,,,
1799999993056119000,2027-01-15T07:59:53.056119000Z,-1.43,-0.43,0.43,1.86,0.57,0.57,2.43,2.71,4.57,11.86,5.29,3.43,5.71,4.14,,,,,,,,,,,,,,
1799999993062880325,2027-01-15T07:59:53.062880325Z,-1.57,-0.43,0.57,0.86,1.43,1.57,1.86,2.14,3.57,9.29,4.86,3.14,6.00,4.57,,,,,,,,,,,,,,
1799999993069641650,2027-01-15T07:59:53.069641650Z,-1.86,-0.14,0.29,-0.57,1.71,2.57,0.00,1.86,2.14,4.86,4.00,2.71,5.86,3.86,,,,,,,,,,,,,,
1799999993076402975,2027-01-15T07:59:53.076402975Z,-2.14,0.57,0.14,-1.29,1.43,1.29,-1.86,3.14,0.86,2.14,3.71,3.14,5.57,2.86,,,,,,,,,,,,,,
1799999993083164301,2027-01-15T07:59:53.083164301Z,-2.00,0.14,0.29,0.43,1.43,-0.29,-1.43,3.86,1.29,4.43,4.43,3.86,6.14,3.57,,,,,,,,,,,,,,
1799999993089925626,2027-01-15T07:59:53.089925626Z,,-2.14,0.43,2.00,1.71,1.14,0.00,2.57,2.29,7.43,4.00,3.43,5.86,4.86,,,,,,,,,,,,,,
1799999993096686951,2027-01-15T07:59:53.096686951Z,,-3.71,0.86,2.86,2.00,2.57,1.14,1.71,3.14,8.43,3.57,3.29,4.00,5.57,,,,,,,,,,,,,,
1799999993103448276,2027-01-15T07:59:53.103448276Z,-3.00,-3.00,0.43,3.57,1.86,1.43,1.57,2.14,4.00,6.71,3.86,4.14,2.71,5.86,,,,,,,,,,,,,,
1799999993110209602,2027-01-15T07:59:53.110209602Z,-3.43,-1.86,-0.43,3.86,1.29,0.14,1.14,2.29,5.14,4.14,4.43,5.14,3.71,6.43,,,,,,,,,,,,,,
1799999993116970927,2027-01-15T07:59:53.116970927Z,-2.14,-1.00,-0.43,3.29,1.00,-0.14,-0.29,2.14,5.57,1.29,4.71,5.14,5.86,7.00,,,,,,,,,,,,,,
1799999993123732252,2027-01-15T07:59:53.123732252Z,-1.00,-1.43,0.71,1.86,1.86,1.43,-0.43,2.14,4.29,2.00,4.29,4.14,6.43,7.14,,,,,,,,,,,,,,
1799999993130493577,2027-01-15T07:59:53.130493577Z,-0.57,-2.00,1.00,0.43,3.00,3.00,1.00,1.71,2.43,7.14,3.29,3.00,3.86,6.43,,,,,,,,,,,,,,
1799999993137254902,2027-01-15T07:59:53.137254902Z,-0.57,-2.29,0.14,-1.14,3.00,2.29,1.43,1.14,1.71,9.43,2.43,3.14,4.00,4.86,,,,,,,,,,,,,,
1799999993144016228,2027-01-15T07:59:53.144016228Z,-2.71,-1.14,1.00,-1.86,2.14,0.86,1.86,2.86,2.43,4.43,2.71,3.86,6.29,3.14,,,,,,,,,,,,,,
1799999993150777553,2027-01-15T07:59:53.150777553Z,-1.43,0.86,3.14,0.29,1.29,1.14,2.71,4.43,3.00,-0.14,2.71,3.71,5.57,3.14,,,,,,,,,,,,,,
1799999993157538878,2027-01-15T07:59:53.157538878Z,-0.86,1.57,3.29,2.43,0.71,2.29,2.71,3.43,2.71,0.57,2.00,3.71,4.29,4.29,,,,,,,,,,,,,,
1799999993164300203,2027-01-15T07:59:53.164300203Z,1.86,0.71,1.29,3.14,0.43,2.86,2.43,1.71,2.00,3.57,1.43,3.71,4.86,5.00,,,,,,,,,,,,,,
1799999993171061529,2027-01-15T07:59:53.171061529Z,3.14,0.71,-1.14,2.29,1.86,2.14,2.14,1.00,1.14,6.43,1.29,3.57,5.29,4.71,,,,,,,,,,,,,,
1799999993177822854,2027-01-15T07:59:53.177822854Z,-1.14,2.29,-1.43,0.86,4.14,0.71,1.57,2.14,1.00,6.86,2.29,3.57,4.00,4.29,,,,,,,,,,,,,,
1799999993184584179,2027-01-15T07:59:53.184584179Z,-0.57,2.86,-0.57,0.29,4.14,-0.43,0.86,2.43,1.86,4.86,3.71,4.14,3.57,5.14,,,,,,,,,,,,,,
1799999993191345504,2027-01-15T07:59:53.191345504Z,-0.29,1.00,-2.00,0.14,1.86,-0.29,2.00,1.57,2.43,1.43,5.00,4.29,5.57,6.00,,,,,,,,,,,,,,
1799999993198106829,2027-01-15T07:59:53.198106829Z,1.29,-0.14,-1.86,-0.14,1.43,1.14,3.57,1.71,1.71,-1.29,6.00,4.14,5.29,5.29,,,,,,,,,,,,,,
1799999993204868155,2027-01-15T07:59:53.204868155Z,-1.86,0.86,-0.14,0.00,2.43,2.43,3.57,2.57,1.14,0.71,5.86,4.43,3.29,4.00,,,,,,,,,,,,,,
1799999993211629480,2027-01-15T07:59:53.211629480Z,-3.29,2.00,0.86,0.29,2.43,2.57,2.14,3.57,1.57,4.71,4.86,4.71,1.86,3.29,,,,,,,,,,,,,,
1799999993218390805,2027-01-15T07:59:53.218390805Z,-1.57,1.57,0.71,-0.86,1.14,2.00,1.86,3.14,2.86,6.71,3.43,4.29,2.14,3.43,,,,,,,,,,,,,,
1799999993225152130,2027-01-15T07:59:53.225152130Z,-1.29,-0.86,-0.29,-3.00,0.43,1.14,3.00,1.29,4.43,4.71,2.57,3.57,4.43,4.57,,,,,,,,,,,,,,
1799999993231913456,2027-01-15T07:59:53.231913456Z,-1.00,-2.00,-0.71,-2.29,2.00,0.71,2.86,0.57,4.43,4.00,3.00,3.86,5.86,5.71,,,,,,,,,,,,,,
1799999993238674781,2027-01-15T07:59:53.238674781Z,-1.00,0.57,-1.29,0.71,2.43,1.71,1.57,1.57,3.14,5.14,2.57,3.71,4.00,5.57,,,,,,,,,,,,,,
1799999993245436106,2027-01-15T07:59:53.245436106Z,-0.71,1.43,-1.00,0.86,0.71,2.71,1.71,0.57,3.14,1.00,3.29,2.86,2.57,5.29,,,,,,,,,,,,,,
1799999993252197431,2027-01-15T07:59:53.252197431Z,-0.86,-1.57,0.00,-1.14,-0.29,3.00,2.43,-0.29,4.71,-3.86,5.14,3.00,5.14,6.71,,,,,,,,,,,,,,
1799999993258958756,2027-01-15T07:59:53.258958756Z,-4.00,-3.57,-0.57,-0.86,0.43,2.86,2.29,1.43,5.29,-3.29,5.29,3.29,7.57,7.86,,,,,,,,,,,,,,
1799999993265720082,2027-01-15T07:59:53.265720082Z,-4.86,-2.57,-2.29,1.14,1.00,2.29,1.86,3.86,4.29,0.86,3.86,2.71,6.57,7.57,,,,,,,,,,,,,,
1799999993272481407,2027-01-15T07:59:53.272481407Z,-3.43,-1.00,-2.29,2.71,1.43,0.71,1.29,6.00,3.00,6.29,4.57,2.43,5.00,6.29,,,,,,,,,,,,,,
1799999993279242732,2027-01-15T07:59:53.279242732Z,-2.86,-0.57,-0.14,2.14,1.43,-1.14,1.57,5.29,1.86,7.71,7.29,3.43,5.57,4.86,,,,,,,,,,,,,,
1799999993286004057,2027-01-15T07:59:53.286004057Z,-1.14,-0.86,1.00,1.00,0.86,-0.29,3.00,2.00,2.00,2.00,7.71,4.43,7.29,3.86,,,,,,,,,,,,,,
1799999993292765383,2027-01-15T07:59:53.292765383Z,-0.86,0.86,0.00,0.14,1.29,1.43,3.71,0.43,2.14,-1.14,5.14,4.71,5.29,3.00,,,,,,,,,,,,,,
1799999993299526708,2027-01-15T07:59:53.299526708Z,0.29,1.00,0.00,-1.86,1.57,1.71,3.57,2.43,2.86,2.43,3.29,3.86,2.57,3.14,,,,,,,,,,,,,,
1799999993306288033,2027-01-15T07:59:53.306288033Z,0.29,-0.57,0.29,-3.29,0.00,1.43,3.57,3.86,3.29,5.57,2.29,2.86,2.29,4.00,,,,,,,,,,,,,,
1799999993313049358,2027-01-15T07:59:53.313049358Z,-1.00,-1.57,-0.14,-2.00,-1.71,1.86,3.00,2.86,2.71,5.14,1.57,2.29,3.43,5.00,,,,,,,,,,,,,,
1799999993319810683,2027-01-15T07:59:53.319810683Z,-0.71,0.29,-1.00,0.43,-3.14,2.43,2.29,1.71,2.29,4.71,1.57,3.71,3.00,5.57,,,,,,,,,,,,,,
1799999993326572009,2027-01-15T07:59:53.326572009Z,-0.86,2.14,-2.00,1.86,-2.71,2.43,1.71,3.14,2.00,4.71,2.57,5.86,1.71,6.14,,,,,,,,,,,,,,
1799999993333333334,2027-01-15T07:59:53.333333334Z,-3.00,0.57,-1.86,0.29,-1.00,1.43,1.29,4.86,3.29,2.14,3.57,6.43,2.86,6.86,,,,,,,,,,,,,,
1799999993340094659,2027-01-15T07:59:53.340094659Z,-4.71,-1.00,0.14,0.14,1.14,1.86,2.43,2.29,6.29,0.29,4.00,6.86,4.71,6.29,,,,,,,,,,,,,,
1799999993346855984,2027-01-15T07:59:53.346855984Z,0.00,0.86,2.86,-0.14,2.86,3.43,4.00,1.00,7.71,4.00,3.43,8.00,4.14,5.29,,,,,,,,,,,,,,
1799999993353617309,2027-01-15T07:59:53.353617309Z,0.86,0.71,2.71,-2.14,2.14,3.00,3.00,4.00,4.57,7.00,2.57,6.86,2.86,5.57,,,,,,,,,,,,,,
1799999993360378635,2027-01-15T07:59:53.360378635Z,2.71,-1.57,0.57,-2.86,0.57,1.43,1.14,5.29,2.00,5.29,2.57,4.86,3.00,5.57,,,,,,,,,,,,,,
1799999993367139960,2027-01-15T07:59:53.367139960Z,0.71,-3.14,-1.43,-1.43,-0.29,0.57,0.00,4.14,1.86,4.00,3.43,3.71,3.86,5.29,,,,,,,,,,,,,,
1799999993373901285,2027-01-15T07:59:53.373901285Z,0.29,-1.86,-1.86,0.57,0.71,1.14,0.14,3.57,2.86,4.86,4.14,3.14,4.29,5.71,,,,,,,,,,,,,,
1799999993380662610,2027-01-15T07:59:53.380662610Z,-1.71,-0.57,-1.14,1.57,1.43,1.71,1.29,5.00,3.29,5.86,3.57,3.57,4.57,6.43,,,,,,,,,,,,,,
1799999993387423936,2027-01-15T07:59:53.387423936Z,-0.86,-2.71,-0.43,0.14,0.14,0.29,1.57,5.43,2.71,4.71,3.43,3.86,6.00,4.86,,,,,,,,,,,,,,
1799999993394185261,2027-01-15T07:59:53.394185261Z,-0.86,-3.43,-0.29,-0.86,0.71,0.14,0.43,3.29,3.29,4.00,4.00,3.14,6.14,2.71,,,,,,,,,,,,,,
1799999993400946586,2027-01-15T07:59:53.400946586Z,-1.00,-1.14,-1.71,0.29,3.14,2.00,-0.57,1.29,2.86,4.29,3.43,2.00,4.29,3.57,,,,,,,,,,,,,,
1799999993407707911,2027-01-15T07:59:53.407707911Z,1.57,0.14,-3.14,1.57,3.86,3.00,-0.86,1.00,1.71,4.57,2.71,2.43,3.57,5.00,,,,,,,,,,,,,,
1799999993414469236,2027-01-15T07:59:53.414469236Z,2.86,-0.14,-3.00,1.71,1.86,2.14,-0.86,1.57,1.29,4.86,2.71,3.86,4.86,4.71,,,,,,,,,,,,,,
1799999993421230562,2027-01-15T07:59:53.421230562Z,0.86,-0.43,-0.43,0.71,-0.86,1.71,-1.00,1.57,2.71,4.29,2.57,4.43,6.43,3.86,,,,,,,,,,,,,,
1799999993427991887,2027-01-15T07:59:53.427991887Z,0.43,0.57,1.43,-0.86,-1.43,3.14,-0.71,1.57,3.57,3.43,3.00,2.86,5.43,4.00,,,,,,,,,,,,,,
1799999993434753212,2027-01-15T07:59:53.434753212Z,0.29,1.14,-0.29,-2.43,-0.43,3.29,0.71,2.29,0.43,4.43,3.14,3.43,2.57,5.29,,,,,,,,,,,,,,
1799999993441514537,2027-01-15T07:59:53.441514537Z,0.00,0.43,-0.86,-3.14,-1.43,0.57,2.14,3.14,-1.00,3.86,1.71,5.43,1.86,5.00,,,,,,,,,,,,,,
1799999993448275863,2027-01-15T07:59:53.448275863Z,-0.29,-0.57,0.43,-1.29,-1.00,-0.29,2.71,3.00,2.43,-0.86,1.86,5.00,3.71,5.14,,,,,,,,,,,,,,
1799999993455037188,2027-01-15T07:59:53.455037188Z,-2.71,-1.43,0.14,0.86,1.14,1.57,2.43,1.71,4.43,-2.57,3.86,4.29,4.71,6.43,,,,,,,,,,,,,,
1799999993461798513,2027-01-15T07:59:53.461798513Z,-2.00,-2.14,0.29,1.43,1.86,2.00,2.14,1.29,3.29,0.86,4.14,5.14,3.86,6.29,,,,,,,,,,,,,,
1799999993468559838,2027-01-15T07:59:53.468559838Z,-1.00,-2.43,1.43,0.86,1.00,1.14,1.43,2.29,2.29,4.00,2.86,5.71,3.14,4.43,,,,,,,,,,,,,,
1799999993475321163,2027-01-15T07:59:53.475321163Z,-0.86,-2.29,1.14,0.86,0.71,0.86,0.43,3.71,1.71,5.14,1.43,4.14,4.86,2.71,,,,,,,,,,,,,,
1799999993482082489,2027-01-15T07:59:53.482082489Z,-1.43,-1.29,-0.57,0.71,1.29,1.43,1.14,4.29,1.57,2.00,2.14,1.86,8.57,2.43,,,,,,,,,,,,,,
1799999993488843814,2027-01-15T07:59:53.488843814Z,0.43,-0.43,-0.14,-0.29,1.14,1.14,3.14,3.29,1.43,-3.14,4.29,2.14,8.57,3.14,,,,,,,,,,,,,,
1799999993495605139,2027-01-15T07:59:53.495605139Z,0.14,-0.43,1.71,-0.29,1.86,1.57,3.00,2.57,1.86,-4.00,4.43,4.00,4.86,3.00,,,,,,,,,,,,,,
1799999993502366464,2027-01-15T07:59:53.502366464Z,0.00,-1.14,1.71,0.57,4.00,2.43,1.43,1.86,2.14,1.14,2.57,5.00,2.43,3.29,,,,,,,,,,,,,,
1799999993509127790,2027-01-15T07:59:53.509127790Z,-2.71,-1.57,0.86,1.00,4.14,2.14,1.00,1.00,2.14,5.29,1.86,4.71,1.71,3.29,,,,,,,,,,,,,,
1799999993515889115,2027-01-15T07:59:53.515889115Z,-2.43,-1.57,0.29,1.00,1.71,1.57,1.57,1.00,2.14,6.71,3.14,3.86,2.29,3.00,,,,,,,,,,,,,,
1799999993522650440,2027-01-15T07:59:53.522650440Z,-0.29,-1.14,-0.57,1.14,-1.86,1.57,2.00,1.71,2.14,3.71,4.71,3.57,4.00,3.43,,,,,,,,,,,,,,
1799999993529411765,2027-01-15T07:59:53.529411765Z,0.00,0.14,0.00,0.43,-3.43,1.57,1.71,1.14,3.29,-0.86,4.29,4.57,5.71,5.00,,,,,,,,,,,,,,
1799999993536173090,2027-01-15T07:59:53.536173090Z,-0.14,1.29,1.71,-1.29,-1.14,1.00,0.43,-0.29,4.57,-1.71,3.00,5.71,4.29,6.14,,,,,,,,,,,,,,
1799999993542934416,2027-01-15T07:59:53.542934416Z,-0.86,0.71,1.86,-1.71,0.71,1.00,-0.43,-0.29,4.29,2.71,3.29,5.86,2.57,5.86,,,,,,,,,,,,,,
1799999993549695741,2027-01-15T07:59:53.549695741Z,-0.43,-0.43,0.57,0.43,0.71,1.71,0.57,0.00,3.71,6.57,2.14,5.29,3.57,6.57,,,,,,,,,,,,,,
1799999993556457066,2027-01-15T07:59:53.556457066Z,2.29,-0.29,-0.43,1.14,0.43,1.00,2.14,-0.43,4.57,6.14,1.00,4.43,4.29,6.71,,,,,,,,,,,,,,
1799999993563218391,2027-01-15T07:59:53.563218391Z,-0.43,-0.29,-1.00,-0.57,0.86,-0.14,2.29,0.71,4.43,3.71,1.71,3.86,3.71,5.71,,,,,,,,,,,,,,
1799999993569979717,2027-01-15T07:59:53.569979717Z,-0.71,-0.86,-1.14,-2.14,1.71,-0.29,1.71,2.43,3.00,1.57,2.57,3.86,3.86,4.71,,,,,,,,,,,,,,
1799999993576741042,2027-01-15T07:59:53.576741042Z,-1.29,-1.29,-0.71,-1.86,1.71,0.00,0.86,3.43,1.14,-0.71,3.57,3.57,4.57,4.71,,,,,,,,,,,,,,
1799999993583502367,2027-01-15T07:59:53.583502367Z,-0.86,-0.71,-0.29,0.14,1.14,0.71,0.43,2.29,1.43,0.71,4.43,3.00,4.86,5.14,,,,,,,,,,,,,,
1799999993590263692,2027-01-15T07:59:53.590263692Z,-0.14,0.14,-0.29,1.71,1.00,0.71,1.57,0.71,4.00,5.14,5.00,3.00,4.43,3.57,,,,,,,,,,,,,,
1799999993597025017,2027-01-15T07:59:53.597025017Z,0.57,-0.14,1.14,1.00,0.29,-0.14,3.29,0.57,4.71,6.86,4.86,3.29,4.71,2.43,,,,,,,,,,,,,,
1799999993603786343,2027-01-15T07:59:53.603786343Z,0.71,-0.14,1.14,0.00,0.00,-0.71,2.86,0.71,3.43,2.43,3.57,3.00,5.14,4.00,,,,,,,,,,,,,,
1799999993610547668,2027-01-15T07:59:53.610547668Z,1.29,0.00,-0.43,-0.14,0.86,0.14,1.00,0.43,2.57,-1.14,2.43,3.43,5.43,5.43,,,,,,,,,,,,,,
1799999993617308993,2027-01-15T07:59:53.617308993Z,-0.43,-0.29,-1.43,0.86,1.43,1.29,-0.71,0.43,2.86,-0.86,2.43,4.43,5.71,4.71,,,,,,,,,,,,,,
1799999993624070318,2027-01-15T07:59:53.624070318Z,-0.43,0.29,0.14,2.00,1.00,2.14,-0.57,1.71,3.43,2.43,3.71,5.43,5.57,2.71,,,,,,,,,,,,,,
1799999993630831644,2027-01-15T07:59:53.630831644Z,-0.43,1.14,1.43,1.71,0.00,1.71,1.29,3.29,3.71,3.29,4.57,6.14,4.71,1.86,,,,,,,,,,,,,,
1799999993637592969,2027-01-15T07:59:53.637592969Z,1.14,-0.57,-0.57,-0.71,0.57,1.57,2.71,4.29,3.57,-1.86,3.29,5.71,3.71,4.29,,,,,,,,,,,,,,
1799999993644354294,2027-01-15T07:59:53.644354294Z,0.43,-2.71,-1.43,-2.43,0.71,1.71,3.00,5.14,3.14,-2.29,3.57,4.57,3.43,5.43,,,,,,,,,,,,,,
1799999993651115619,2027-01-15T07:59:53.651115619Z,0.29,-1.14,0.71,-1.43,0.00,1.00,3.57,4.14,2.43,3.57,4.29,3.86,2.57,4.14,,,,,,,,,,,,,,
1799999993657876944,2027-01-15T07:59:53.657876944Z,-1.71,1.29,1.57,-0.43,1.57,1.86,4.00,2.14,2.14,6.71,2.71,4.57,0.29,4.57,,,,,,,,,,,,,,
1799999993664638270,2027-01-15T07:59:53.664638270Z,-3.43,0.57,0.71,-1.00,2.86,2.86,3.71,0.86,2.57,4.86,2.14,4.71,-0.71,5.86,,,,,,,,,,,,,,
1799999993671399595,2027-01-15T07:59:53.671399595Z,-1.71,-1.14,0.57,-1.14,1.86,2.14,3.57,0.29,3.43,2.86,3.43,3.71,0.71,6.00,,,,,,,,,,,,,,
1799999993678160920,2027-01-15T07:59:53.678160920Z,-1.29,-2.00,0.71,-0.14,-0.14,0.71,3.00,1.14,3.86,1.29,4.57,2.86,2.71,5.29,,,,,,,,,,,,,,
1799999993684922245,2027-01-15T07:59:53.684922245Z,0.71,-0.57,0.57,0.00,-1.14,0.71,2.14,2.86,1.86,1.86,4.00,3.57,3.57,4.57,,,,,,,,,,,,,,
1799999993691683570,2027-01-15T07:59:53.691683570Z,0.29,1.00,0.00,-1.71,0.14,2.71,2.57,1.86,-0.43,4.00,2.57,5.00,2.71,5.14,,,,,,,,,,,,,,
1799999993698444896,2027-01-15T07:59:53.698444896Z,0.14,1.43,-0.57,-1.86,0.00,2.57,3.86,-0.14,0.86,5.29,3.00,4.00,3.29,5.29,,,,,,,,,,,,,,
1799999993705206221,2027-01-15T07:59:53.705206221Z,0.43,0.71,-0.29,0.14,-0.29,0.71,3.71,0.43,2.71,5.29,4.29,2.43,3.71,4.29,,,,,,,,,,,,,,
1799999993711967546,2027-01-15T07:59:53.711967546Z,0.14,0.14,0.71,1.57,0.57,-0.43,3.14,1.86,2.00,5.57,5.00,3.14,4.43,3.86,,,,,,,,,,,,,,
1799999993718728871,2027-01-15T07:59:53.718728871Z,-0.71,0.00,1.71,1.71,1.57,-0.43,3.29,2.14,0.29,5.57,4.29,5.14,5.71,4.43,,,,,,,,,,,,,,
1799999993725490197,2027-01-15T07:59:53.725490197Z,-1.14,-0.14,1.86,1.29,1.29,0.71,3.57,3.00,-0.57,4.86,3.43,6.57,7.57,5.00,,,,,,,,,,,,,,
1799999993732251522,2027-01-15T07:59:53.732251522Z,-1.71,-0.86,0.86,0.14,0.14,1.00,2.71,4.57,0.00,4.57,3.71,5.00,6.71,5.57,,,,,,,,,,,,,,
1799999993739012847,2027-01-15T07:59:53.739012847Z,-0.14,-1.43,0.57,-0.86,-1.00,-1.71,1.43,4.43,1.14,5.00,4.71,2.57,3.86,6.43,,,,,,,,,,,,,,
1799999993745774172,2027-01-15T07:59:53.745774172Z,0.00,-0.29,0.57,0.00,-1.57,-3.43,1.29,2.14,2.57,4.57,4.29,3.29,3.14,5.86,,,,,,,,,,,,,,
1799999993752535497,2027-01-15T07:59:53.752535497Z,-0.29,0.57,-0.29,1.71,-0.43,-1.29,1.14,0.57,3.57,3.71,4.00,4.86,4.43,4.00,,,,,,,,,,,,,,
1799999993759296823,2027-01-15T07:59:53.759296823Z,-0.29,-0.43,-1.00,2.57,0.86,1.43,1.00,0.57,3.57,3.00,4.29,4.00,4.86,3.14,,,,,,,,,,,,,,
1799999993766058148,2027-01-15T07:59:53.766058148Z,-0.43,-1.86,-1.00,2.29,1.29,2.14,1.57,0.57,3.29,3.00,3.86,2.14,3.86,3.86,,,,,,,,,,,,,,
1799999993772819473,2027-01-15T07:59:53.772819473Z,-1.86,-1.14,-0.29,2.86,1.86,1.86,3.00,1.00,3.14,3.29,3.29,0.43,3.00,4.71,,,,,,,,,,,,,,
1799999993779580798,2027-01-15T07:59:53.779580798Z,-0.71,1.14,0.57,3.43,2.00,1.57,3.71,2.29,2.71,4.00,3.14,0.57,3.43,4.43,,,,,,,,,,,,,,
1799999993786342124,2027-01-15T07:59:53.786342124Z,-0.29,0.57,0.14,2.00,0.43,1.29,1.71,3.57,2.29,4.86,4.14,1.86,4.43,2.86,,,,,,,,,,,,,,
1799999993793103449,2027-01-15T07:59:53.793103449Z,-0.29,-2.00,-0.86,0.00,-1.43,0.71,-0.57,2.71,1.86,3.71,5.14,2.71,4.14,1.86,,,,,,,,,,,,,,
1799999993799864774,2027-01-15T07:59:53.799864774Z,-0.71,-2.29,-1.57,0.71,-0.14,1.43,0.29,1.43,1.14,0.14,5.00,3.43,3.86,3.14,,,,,,,,,,,,,,
1799999993806626099,2027-01-15T07:59:53.806626099Z,-3.29,-1.29,-1.57,2.14,1.86,2.00,2.00,1.71,2.29,-2.57,4.00,3.29,3.86,5.14,,,,,,,,,,,,,,
1799999993813387424,2027-01-15T07:59:53.813387424Z,-2.14,-1.14,-0.86,2.57,1.57,1.43,2.43,1.86,4.29,-1.14,3.14,2.71,4.00,6.29,,,,,,,,,,,,,,
1799999993820148750,2027-01-15T07:59:53.820148750Z,0.29,-0.86,0.00,2.29,0.14,1.14,1.86,1.86,5.29,2.00,2.43,2.29,4.00,6.29,,,,,,,,,,,,,,
1799999993826910075,2027-01-15T07:59:53.826910075Z,0.57,-0.29,-0.57,2.57,0.00,1.71,1.57,2.86,3.71,3.14,2.86,3.00,4.14,6.71,,,,,,,,,,,,,,
1799999993833671400,2027-01-15T07:59:53.833671400Z,-0.71,0.00,-1.14,1.86,1.57,2.43,0.86,3.71,2.57,0.86,4.57,4.14,4.14,6.57,,,,,,,,,,,,,,
1799999993840432725,2027-01-15T07:59:53.840432725Z,-0.86,0.00,-0.43,0.00,2.43,2.29,-0.86,2.86,4.71,0.57,6.43,4.14,4.57,5.71,,,,,,,,,,,,,,
1799999993847194051,2027-01-15T07:59:53.847194051Z,-0.43,0.00,-1.57,-1.14,1.00,2.14,-2.43,2.29,5.00,3.29,6.14,3.00,5.00,6.00,,,,,,,,,,,,,,
1799999993853955376,2027-01-15T07:59:53.853955376Z,0.14,0.14,-2.57,-0.43,0.29,2.57,-2.43,3.14,2.71,5.00,4.57,1.86,4.57,6.86,,,,,,,,,,,,,,
1799999993860716701,2027-01-15T07:59:53.860716701Z,,1.00,-1.14,0.57,1.00,2.14,-1.43,4.43,1.14,5.86,3.57,0.86,3.71,5.57,,,,,,,,,,,,,,
1799999993867478026,2027-01-15T07:59:53.867478026Z,0.57,2.14,0.71,1.00,1.57,1.29,-0.29,5.71,1.00,6.14,3.14,0.43,3.29,3.43,,,,,,,,,,,,,,
1799999993874239351,2027-01-15T07:59:53.874239351Z,0.43,2.86,0.86,1.00,1.43,0.43,0.71,6.71,0.14,2.57,2.86,0.71,3.86,1.14,,,,,,,,,,,,,,
1799999993881000677,2027-01-15T07:59:53.881000677Z,-1.57,1.14,-0.86,0.86,1.00,-0.14,1.57,5.57,-0.29,-3.14,3.29,1.29,5.14,1.71,,,,,,,,,,,,,,
1799999993887762002,2027-01-15T07:59:53.887762002Z,0.86,-0.86,-0.86,1.14,1.57,0.14,1.00,3.00,0.86,-1.57,4.14,2.14,5.43,4.29,,,,,,,,,,,,,,
1799999993894523327,2027-01-15T07:59:53.894523327Z,1.29,-1.00,0.43,0.00,2.14,0.43,-0.14,1.43,1.43,5.00,4.86,3.71,4.00,5.29,,,,,,,,,,,,,,
1799999993901284652,2027-01-15T07:59:53.901284652Z,-0.86,-0.71,-0.43,-0.71,1.86,1.14,-0.43,2.00,1.00,6.29,4.71,4.43,3.29,5.00,,,,,,,,,,,,,,
1799999993908045978,2027-01-15T07:59:53.908045978Z,-1.29,0.29,-1.00,0.71,2.57,2.00,0.29,2.71,2.71,4.29,3.57,2.71,5.00,5.86,,,,,,,,,,,,,,
1799999993914807303,2027-01-15T07:59:53.914807303Z,-3.57,1.71,0.14,1.43,3.57,2.57,0.43,3.00,4.71,4.57,2.43,1.57,7.14,6.43,,,,,,,,,,,,,,
1799999993921568628,2027-01-15T07:59:53.921568628Z,-4.29,2.29,1.00,1.00,3.57,2.29,-0.14,3.71,5.43,5.43,2.00,2.57,8.00,6.14,,,,,,,,,,,,,,
1799999993928329953,2027-01-15T07:59:53.928329953Z,-1.43,1.29,-0.14,0.71,2.29,2.29,-0.57,4.71,3.86,5.00,2.71,4.14,7.29,5.86,,,,,,,,,,,,,,
1799999993935091278,2027-01-15T07:59:53.935091278Z,-1.00,-0.29,-1.71,0.86,0.71,2.71,0.57,3.57,1.86,5.00,3.14,5.00,6.14,5.57,,,,,,,,,,,,,,
1799999993941852604,2027-01-15T07:59:53.941852604Z,0.86,-1.00,0.71,0.14,0.57,2.57,2.86,0.43,2.57,5.00,2.29,4.29,5.43,4.86,,,,,,,,,,,,,,
1799999993948613929,2027-01-15T07:59:53.948613929Z,-2.14,-0.43,4.43,-0.14,1.14,2.14,2.86,0.43,4.29,2.14,1.29,4.43,4.57,4.29,,,,,,,,,,,,,,
1799999993955375254,2027-01-15T07:59:53.955375254Z,-2.14,0.14,3.14,1.43,0.86,3.14,1.00,3.86,4.57,-0.14,1.29,5.00,5.14,5.00,,,,,,,,,,,,,,
1799999993962136579,2027-01-15T07:59:53.962136579Z,-1.86,0.29,0.29,2.43,1.14,4.29,0.86,5.00,3.86,1.71,1.86,5.14,6.14,5.86,,,,,,,,,,,,,,
1799999993968897904,2027-01-15T07:59:53.968897904Z,-1.71,0.00,-0.71,1.43,1.71,4.14,2.29,3.14,3.71,4.57,2.57,5.14,6.14,5.86,,,,,,,,,,,,,,
1799999993975659230,2027-01-15T07:59:53.975659230Z,-0.29,0.00,-0.43,-0.14,1.43,2.86,3.43,1.29,3.86,6.29,3.57,4.86,5.71,5.57,,,,,,,,,,,,,,
1799999993982420555,2027-01-15T07:59:53.982420555Z,-0.14,-0.43,0.00,0.00,0.57,1.57,2.29,3.00,3.86,5.29,3.71,5.00,5.00,5.86,,,,,,,,,,,,,,
1799999993989181880,2027-01-15T07:59:53.989181880Z,-0.14,-0.29,1.00,1.71,1.57,1.57,0.29,5.86,2.71,4.71,2.57,5.29,4.43,6.14,,,,,,,,,,,,,,
1799999993995943205,2027-01-15T07:59:53.995943205Z,0.00,0.57,2.43,1.43,2.43,1.71,1.29,4.86,1.14,5.43,1.29,4.43,4.14,5.14,,,,,,,,,,,,,,
1799999994002704531,2027-01-15T07:59:54.002704531Z,0.71,-0.57,1.57,0.43,1.00,1.29,2.00,2.57,1.29,4.71,0.71,4.29,5.00,4.57,,,,,,,,,,,,,,
1799999994009465856,2027-01-15T07:59:54.009465856Z,0.29,-2.57,0.57,0.57,-0.14,0.71,0.29,3.29,2.71,3.86,2.43,5.29,5.29,5.71,,,,,,,,,,,,,,
1799999994016227181,2027-01-15T07:59:54.016227181Z,-3.43,-2.86,1.00,-0.14,0.71,0.57,0.57,4.57,3.14,4.14,4.43,6.00,4.71,6.29,,,,,,,,,,,,,,
1799999994022988506,2027-01-15T07:59:54.022988506Z,-3.29,-2.00,1.14,-1.57,1.57,1.00,3.00,4.14,2.57,4.29,5.57,5.86,4.57,5.86,,,,,,,,,,,,,,
1799999994029749831,2027-01-15T07:59:54.029749831Z,-1.43,-1.14,0.29,-2.57,2.14,1.86,5.29,2.71,2.14,4.29,4.29,5.00,5.71,5.57,,,,,,,,,,,,,,
1799999994036511157,2027-01-15T07:59:54.036511157Z,-1.29,-1.14,-0.43,-2.00,2.14,1.43,4.43,1.86,2.86,4.29,2.29,4.14,7.14,6.71,,,,,,,,,,,,,,
1799999994043272482,2027-01-15T07:59:54.043272482Z,-3.00,-0.29,0.00,-1.14,1.71,-0.71,3.29,2.86,3.57,4.14,3.00,4.14,7.14,7.14,,,,,,,,,,,,,,
1799999994050033807,2027-01-15T07:59:54.050033807Z,-2.57,0.86,0.57,-1.00,1.86,-0.86,4.43,3.00,3.00,3.57,4.29,3.86,7.00,5.71,,,,,,,,,,,,,,
1799999994056795132,2027-01-15T07:59:54.056795132Z,-1.00,-0.43,0.43,-0.29,2.43,0.57,3.71,1.71,2.86,2.86,3.57,4.57,5.57,4.43,,,,,,,,,,,,,,
1799999994063556458,2027-01-15T07:59:54.063556458Z,-0.86,-2.43,-0.14,-0.43,1.57,1.00,2.00,1.14,3.43,2.71,2.57,5.71,3.71,4.43,,,,,,,,,,,,,,
1799999994070317783,2027-01-15T07:59:54.070317783Z,-1.86,-3.14,-1.00,-1.43,0.14,0.57,0.86,1.86,3.71,3.29,3.00,6.43,2.57,4.86,,,,,,,,,,,,,,
1799999994077079108,2027-01-15T07:59:54.077079108Z,-2.57,-2.43,-1.57,-2.29,-0.57,1.29,0.71,3.43,3.57,3.71,4.00,5.71,3.57,5.71,,,,,,,,,,,,,,
1799999994083840433,2027-01-15T07:59:54.083840433Z,-0.86,-1.14,-1.00,-1.14,0.86,2.71,1.29,4.00,2.86,3.00,4.86,4.57,4.86,4.71,,,,,,,,,,,,,,
1799999994090601758,2027-01-15T07:59:54.090601758Z,-1.00,-1.14,-0.57,0.86,2.43,2.57,0.43,2.71,2.29,2.43,4.43,4.57,3.57,2.29,,,,,,,,,,,,,,
1799999994097363084,2027-01-15T07:59:54.097363084Z,-1.57,-1.71,-1.00,0.71,1.29,1.43,-1.57,1.43,3.29,4.29,3.86,5.57,1.71,1.71,,,,,,,,,,,,,,
1799999994104124409,2027-01-15T07:59:54.104124409Z,-0.71,-1.14,-0.57,-0.71,-0.43,1.00,-2.57,0.57,5.00,2.71,4.57,5.71,2.86,3.71,,,,,,,,,,,,,,
1799999994110885734,2027-01-15T07:59:54.110885734Z,-0.14,-0.57,0.14,-0.57,-0.29,1.57,-0.43,0.71,4.14,-2.29,5.00,5.71,4.71,4.86,,,,,,,,,,,,,,
1799999994117647059,2027-01-15T07:59:54.117647059Z,2.00,-0.86,0.43,0.29,0.43,2.43,1.57,1.14,2.57,-3.43,4.29,5.43,4.57,4.57,,,,,,,,,,,,,,
1799999994124408385,2027-01-15T07:59:54.124408385Z,0.86,-0.86,0.86,1.00,0.57,3.29,1.57,0.71,2.43,-0.14,3.00,4.43,3.29,4.86,,,,,,,,,,,,,,
1799999994131169710,2027-01-15T07:59:54.131169710Z,-0.43,-0.57,1.57,1.00,0.43,3.29,0.43,0.14,3.57,4.14,1.57,2.86,2.00,6.71,,,,,,,,,,,,,,
1799999994137931035,2027-01-15T07:59:54.137931035Z,-0.86,0.14,1.71,0.14,-0.29,2.00,0.57,0.29,4.00,5.29,1.00,2.43,1.57,8.43,,,,,,,,,,,,,,
1799999994144692360,2027-01-15T07:59:54.144692360Z,,1.00,2.29,-0.43,-0.29,1.29,1.71,1.29,3.14,3.29,2.43,3.29,2.86,7.71,,,,,,,,,,,,,,
1799999994151453685,2027-01-15T07:59:54.151453685Z,-0.86,0.43,3.14,0.43,1.14,1.71,1.00,1.43,2.71,3.29,3.71,2.86,3.29,5.86,,,,,,,,,,,,,,
1799999994158215011,2027-01-15T07:59:54.158215011Z,-1.00,-1.14,2.00,1.43,2.57,0.71,0.71,1.43,2.71,3.43,4.00,3.29,2.71,4.43,,,,,,,,,,,,,,
1799999994164976336,2027-01-15T07:59:54.164976336Z,-2.57,-1.57,0.71,1.57,2.86,-0.86,1.71,1.86,2.57,2.86,4.57,4.29,3.43,4.00,,,,,,,,,,,,,,
1799999994171737661,2027-01-15T07:59:54.171737661Z,-3.14,-0.57,1.00,1.14,2.00,-1.86,2.71,2.00,2.43,3.00,5.86,4.71,4.29,4.57,,,,,,,,,,,,,,
1799999994178498986,2027-01-15T07:59:54.178498986Z,0.14,0.43,1.14,0.43,1.14,-0.14,2.29,1.57,1.86,3.29,7.00,5.00,4.14,5.00,,,,,,,,,,,,,,
1799999994185260312,2027-01-15T07:59:54.185260312Z,-0.14,0.29,-0.71,-0.14,1.00,2.57,1.00,1.57,2.29,3.57,5.71,5.71,2.71,4.29,,,,,,,,,,,,,,
1799999994192021637,2027-01-15T07:59:54.192021637Z,-0.43,-1.00,-2.43,0.29,0.29,1.86,0.57,2.43,3.71,3.57,2.71,5.57,2.29,4.14,,,,,,,,,,,,,,
1799999994198782962,2027-01-15T07:59:54.198782962Z,-2.71,-0.86,-1.43,0.14,-0.86,-0.14,0.57,3.00,3.57,3.14,2.57,3.86,3.14,5.29,,,,,,,,,,,,,,
1799999994205544287,2027-01-15T07:59:54.205544287Z,2.14,-0.14,0.29,-0.43,-0.29,0.14,0.43,2.86,1.71,2.86,5.14,2.71,3.29,4.57,,,,,,,,,,,,,,
1799999994212305612,2027-01-15T07:59:54.212305612Z,0.00,-0.14,1.57,0.14,1.29,1.43,0.57,2.43,2.57,3.29,5.71,3.71,3.29,3.43,,,,,,,,,,,,,,
1799999994219066938,2027-01-15T07:59:54.219066938Z,-0.57,-0.43,2.00,0.14,1.86,1.57,1.14,2.57,5.00,3.00,4.43,4.43,4.00,3.86,,,,,,,,,,,,,,
1799999994225828263,2027-01-15T07:59:54.225828263Z,-3.57,-0.71,1.57,-0.71,1.57,1.00,2.00,2.86,6.43,2.14,4.29,4.43,5.00,4.29,,,,,,,,,,,,,,
1799999994232589588,2027-01-15T07:59:54.232589588Z,-2.43,-0.57,0.29,-0.71,1.29,0.29,2.00,2.14,4.86,2.43,4.86,5.14,6.29,3.57,,,,,,,,,,,,,,
1799999994239350913,2027-01-15T07:59:54.239350913Z,1.57,0.14,-1.14,1.43,1.57,-0.57,0.71,1.00,2.14,4.29,4.43,5.57,5.86,3.29,,,,,,,,,,,,,,
1799999994246112238,2027-01-15T07:59:54.246112238Z,1.00,-0.29,-1.71,2.86,1.00,-0.43,0.71,0.43,2.57,3.14,2.57,4.57,3.71,4.29,,,,,,,,,,,,,,
1799999994252873564,2027-01-15T07:59:54.252873564Z,0.71,-1.43,-0.86,0.86,-0.71,-0.14,2.57,-0.29,4.00,-0.86,1.86,3.57,4.29,4.43,,,,,,,,,,,,,,
1799999994259634889,2027-01-15T07:59:54.259634889Z,-1.29,-0.43,-0.14,-0.57,-1.43,-1.29,2.86,0.14,3.14,-0.43,3.43,4.00,5.71,4.57,,,,,,,,,,,,,,
1799999994266396214,2027-01-15T07:59:54.266396214Z,-2.57,1.43,-0.86,0.57,-0.57,-1.86,0.71,1.71,2.29,3.14,5.00,4.14,5.00,5.57,,,,,,,,,,,,,,
1799999994273157539,2027-01-15T07:59:54.273157539Z,-2.29,2.71,-2.00,2.14,0.43,-0.86,-1.14,3.29,2.86,5.29,5.71,3.57,3.86,6.57,,,,,,,,,,,,,,
1799999994279918865,2027-01-15T07:59:54.279918865Z,-1.00,1.00,-1.29,1.71,0.57,1.14,-1.29,3.86,4.14,4.86,5.71,3.71,3.71,6.00,,,,,,,,,,,,,,
1799999994286680190,2027-01-15T07:59:54.286680190Z,,-3.00,1.00,-0.14,0.14,2.43,1.57,3.57,3.29,3.14,4.86,5.00,4.71,4.86,,,,,,,,,,,,,,
1799999994293441515,2027-01-15T07:59:54.293441515Z,-0.86,-3.57,1.43,1.00,0.86,1.14,4.57,3.86,0.29,2.43,4.43,4.71,4.57,4.86,,,,,,,,,,,,,,
1799999994300202840,2027-01-15T07:59:54.300202840Z,-0.57,-0.29,-0.57,3.43,1.00,0.57,4.43,2.71,0.29,3.29,4.71,2.43,4.14,5.29,,,,,,,,,,,,,,
1799999994306964165,2027-01-15T07:59:54.306964165Z,1.29,0.86,-1.29,2.57,-0.14,1.57,2.86,1.00,3.14,4.57,4.43,2.43,4.29,5.00,,,,,,,,,,,,,,
1799999994313725491,2027-01-15T07:59:54.313725491Z,0.00,-1.29,-1.14,0.57,-0.43,1.29,3.14,1.71,4.00,4.43,4.29,3.71,2.86,4.86,,,,,,,,,,,,,,
1799999994320486816,2027-01-15T07:59:54.320486816Z,-0.29,-2.14,-1.71,-0.14,0.43,0.00,4.14,3.00,3.00,3.00,4.14,3.57,1.43,5.29,,,,,,,,,,,,,,
1799999994327248141,2027-01-15T07:59:54.327248141Z,-0.29,-1.29,-2.00,-0.14,1.14,-0.57,4.57,3.00,2.86,2.29,3.57,2.71,1.00,5.57,,,,,,,,,,,,,,
1799999994334009466,2027-01-15T07:59:54.334009466Z,0.00,-0.43,-1.57,-0.43,1.43,0.29,4.43,1.29,3.29,3.29,3.57,2.43,3.14,4.57,,,,,,,,,,,,,,
1799999994340770792,2027-01-15T07:59:54.340770792Z,1.57,-0.29,-1.14,0.86,1.14,1.43,3.86,-0.71,2.71,4.00,4.57,2.86,6.43,3.29,,,,,,,,,,,,,,
1799999994347532117,2027-01-15T07:59:54.347532117Z,1.00,-0.71,-1.29,2.43,1.00,0.86,3.14,0.29,1.43,3.00,4.86,2.86,7.57,4.57,,,,,,,,,,,,,,
1799999994354293442,2027-01-15T07:59:54.354293442Z,,-0.43,-0.71,1.86,1.14,0.57,2.00,2.57,1.71,3.57,2.86,3.14,5.86,6.00,,,,,,,,,,,,,,
1799999994361054767,2027-01-15T07:59:54.361054767Z,0.57,-1.14,-0.43,0.86,1.00,1.43,1.00,3.29,2.43,3.00,1.14,3.00,5.29,4.29,,,,,,,,,,,,,,
1799999994367816092,2027-01-15T07:59:54.367816092Z,0.29,-1.71,-1.29,1.57,0.86,2.00,1.43,2.57,2.14,0.29,1.71,2.71,6.14,3.00,,,,,,,,,,,,,,
1799999994374577418,2027-01-15T07:59:54.374577418Z,-0.29,-0.43,-2.57,2.43,0.86,2.00,2.00,1.86,1.57,-1.71,2.86,3.29,6.14,4.29,,,,,,,,,,,,,,
1799999994381338743,2027-01-15T07:59:54.381338743Z,-1.00,2.00,-3.71,1.43,0.86,1.86,1.86,1.86,1.57,0.14,2.86,4.71,4.29,6.00,,,,,,,,,,,,,,
1799999994388100068,2027-01-15T07:59:54.388100068Z,-0.29,3.29,-2.71,0.00,0.29,1.43,0.29,2.43,2.43,4.43,2.00,5.29,2.57,6.00,,,,,,,,,,,,,,
1799999994394861393,2027-01-15T07:59:54.394861393Z,-0.29,1.14,-0.43,0.29,0.14,0.71,-1.57,3.29,4.00,5.00,2.14,4.00,3.57,4.14,,,,,,,,,,,,,,
1799999994401622719,2027-01-15T07:59:54.401622719Z,-0.14,-0.71,0.86,-0.43,0.71,0.57,-1.57,3.00,4.71,2.86,3.29,4.14,5.29,4.29,,,,,,,,,,,,,,
1799999994408384044,2027-01-15T07:59:54.408384044Z,0.00,-0.43,1.00,-1.29,1.00,1.00,1.14,2.00,3.71,3.14,4.14,4.57,5.86,5.57,,,,,,,,,,,,,,
1799999994415145369,2027-01-15T07:59:54.415145369Z,-0.86,-0.57,1.57,0.14,0.29,0.57,3.14,2.00,4.14,4.00,4.00,3.00,6.29,5.57,,,,,,,,,,,,,,
1799999994421906694,2027-01-15T07:59:54.421906694Z,-1.14,-1.14,1.29,1.71,-0.29,0.43,1.86,2.71,5.29,4.00,3.57,2.14,6.43,5.86,,,,,,,,,,,,,,
1799999994428668019,2027-01-15T07:59:54.428668019Z,-2.00,-1.43,0.29,1.86,-0.14,1.29,0.14,2.71,5.29,4.29,3.43,3.00,6.00,6.43,,,,,,,,,,,,,,
1799999994435429345,2027-01-15T07:59:54.435429345Z,-2.00,-1.14,-0.86,1.43,1.00,2.00,1.14,1.57,4.14,4.43,4.00,4.14,4.71,6.00,,,,,,,,,,,,,,
1799999994442190670,2027-01-15T07:59:54.442190670Z,-1.29,-0.29,-1.29,1.43,1.71,0.71,4.14,1.57,3.43,3.57,4.57,4.43,3.57,4.86,,,,,,,,,,,,,,
1799999994448951995,2027-01-15T07:59:54.448951995Z,-0.71,0.57,-1.43,1.57,0.86,-0.29,3.29,3.29,4.00,2.71,2.71,3.57,3.14,3.71,,,,,,,,,,,,,,
1799999994455713320,2027-01-15T07:59:54.455713320Z,1.29,0.43,-2.57,1.00,1.43,1.57,-0.43,3.86,2.57,2.86,0.71,3.00,2.86,2.86,,,,,,,,,,,,,,
1799999994462474646,2027-01-15T07:59:54.462474646Z,1.00,-0.43,-1.29,0.71,2.86,2.71,-0.71,3.14,0.57,3.43,1.00,3.43,3.29,2.00,,,,,,,,,,,,,,
1799999994469235971,2027-01-15T07:59:54.469235971Z,-1.14,-0.86,1.29,1.00,2.43,1.86,1.57,2.71,0.57,3.71,2.14,4.29,4.00,1.29,,,,,,,,,,,,,,
1799999994475997296,2027-01-15T07:59:54.475997296Z,0.00,-0.43,2.71,1.00,1.00,1.14,3.29,2.57,1.71,3.57,2.29,4.71,4.43,1.14,,,,,,,,,,,,,,
1799999994482758621,2027-01-15T07:59:54.482758621Z,0.14,0.29,1.71,0.43,0.14,1.86,3.71,2.57,2.43,3.14,2.14,3.29,4.71,1.86,,,,,,,,,,,,,,
1799999994489519946,2027-01-15T07:59:54.489519946Z,0.57,1.14,0.14,-0.14,0.43,2.14,2.29,2.57,3.14,3.29,2.43,1.86,3.57,2.86,,,,,,,,,,,,,,
1799999994496281272,2027-01-15T07:59:54.496281272Z,-2.14,0.14,1.00,0.57,1.00,0.86,1.00,2.14,4.71,4.00,3.43,3.14,3.00,3.00,,,,,,,,,,,,,,
1799999994503042597,2027-01-15T07:59:54.503042597Z,-3.00,-2.14,0.14,1.86,1.29,0.00,1.43,2.43,5.57,3.29,4.14,4.71,4.57,3.86,,,,,,,,,,,,,,
1799999994509803922,2027-01-15T07:59:54.509803922Z,-3.14,-2.86,-2.14,1.00,1.00,0.14,1.43,3.29,4.14,1.86,3.86,4.71,5.71,5.71,,,,,,,,,,,,,,
1799999994516565247,2027-01-15T07:59:54.516565247Z,-0.29,-0.86,-1.29,-0.14,-0.43,0.71,2.14,2.43,2.14,2.29,4.14,5.43,5.14,6.29,,,,,,,,,,,,,,
1799999994523326573,2027-01-15T07:59:54.523326573Z,0.29,1.00,0.57,1.14,-1.00,1.57,3.29,0.71,1.29,3.71,4.71,5.43,4.14,5.57,,,,,,,,,,,,,,
1799999994530087898,2027-01-15T07:59:54.530087898Z,1.29,1.71,0.71,3.43,0.14,2.57,3.43,-0.14,1.57,4.14,4.71,4.57,4.14,5.43,,,,,,,,,,,,,,
1799999994536849223,2027-01-15T07:59:54.536849223Z,1.14,0.71,-0.86,4.00,2.14,2.43,2.86,0.86,2.00,3.43,3.71,4.14,5.29,5.43,,,,,,,,,,,,,,
1799999994543610548,2027-01-15T07:59:54.543610548Z,-0.57,-0.86,-1.86,1.00,2.71,1.57,2.14,2.29,2.00,2.71,2.86,5.14,6.43,5.00,,,,,,,,,,,,,,
1799999994550371873,2027-01-15T07:59:54.550371873Z,-0.14,-0.43,0.29,-1.14,0.71,1.00,2.00,2.00,1.57,3.29,3.29,5.43,5.71,4.86,,,,,,,,,,,,,,
1799999994557133199,2027-01-15T07:59:54.557133199Z,0.71,0.29,1.43,0.57,1.29,1.43,2.14,2.29,1.29,3.43,3.00,4.14,4.71,6.00,,,,,,,,,,,,,,
1799999994563894524,2027-01-15T07:59:54.563894524Z,0.43,-0.29,-0.29,1.86,2.86,2.29,2.29,3.14,1.86,3.00,2.14,3.00,5.29,6.29,,,,,,,,,,,,,,
1799999994570655849,2027-01-15T07:59:54.570655849Z,-1.29,-0.57,-1.71,0.57,2.14,2.71,2.00,3.57,2.43,3.29,2.57,3.00,5.57,4.86,,,,,,,,,,,,,,
1799999994577417174,2027-01-15T07:59:54.577417174Z,-2.43,0.43,-1.86,-1.00,1.00,2.14,2.14,3.57,2.43,3.86,3.71,3.00,4.43,3.00,,,,,,,,,,,,,,
1799999994584178499,2027-01-15T07:59:54.584178499Z,-1.57,1.14,-1.71,-1.14,0.57,1.57,3.29,3.43,1.86,3.86,4.57,2.71,2.71,2.14,,,,,,,,,,,,,,
1799999994590939825,2027-01-15T07:59:54.590939825Z,0.71,-0.29,-0.14,0.57,1.43,2.00,4.71,3.14,1.86,3.43,3.71,3.29,2.29,3.86,,,,,,,,,,,,,,
1799999994597701150,2027-01-15T07:59:54.597701150Z,-0.57,-2.71,2.57,1.29,1.43,3.14,3.14,2.71,3.57,3.71,2.14,4.29,3.71,6.43,,,,,,,,,,,,,,
1799999994604462475,2027-01-15T07:59:54.604462475Z,-1.00,-2.57,2.00,0.57,0.57,3.14,0.57,2.29,4.71,4.14,2.14,3.86,4.14,7.57,,,,,,,,,,,,,,
1799999994611223800,2027-01-15T07:59:54.611223800Z,1.00,-1.00,-1.29,0.29,-0.29,1.43,0.71,1.71,3.57,3.29,3.43,3.00,4.86,7.43,,,,,,,,,,,,,,
1799999994617985126,2027-01-15T07:59:54.617985126Z,0.86,-1.14,-2.14,0.29,-0.71,0.29,1.86,1.71,2.43,2.14,4.14,3.29,5.86,7.29,,,,,,,,,,,,,,
1799999994624746451,2027-01-15T07:59:54.624746451Z,0.14,-2.29,-0.43,-0.14,-0.71,0.71,1.86,2.43,2.29,1.14,3.57,3.57,6.00,6.57,,,,,,,,,,,,,,
1799999994631507776,2027-01-15T07:59:54.631507776Z,0.14,-3.00,0.86,-1.14,0.00,1.14,1.29,4.14,2.14,1.57,3.00,3.57,5.14,5.86,,,,,,,,,,,,,,
1799999994638269101,2027-01-15T07:59:54.638269101Z,-1.00,-2.43,0.00,-1.71,0.71,-0.29,1.14,4.86,1.57,2.86,3.43,4.57,4.86,5.29,,,,,,,,,,,,,,
1799999994645030426,2027-01-15T07:59:54.645030426Z,-1.14,-2.29,-1.43,-0.57,0.29,-1.71,2.43,3.29,1.57,3.43,3.57,6.14,6.43,5.00,,,,,,,,,,,,,,
1799999994651791752,2027-01-15T07:59:54.651791752Z,0.00,-2.71,-0.29,1.00,-0.43,0.00,3.86,2.57,2.14,2.86,2.86,6.00,7.00,5.14,,,,,,,,,,,,,,
1799999994658553077,2027-01-15T07:59:54.658553077Z,0.29,-1.43,0.71,0.43,-0.29,2.00,4.14,4.43,2.57,2.71,3.86,5.29,5.29,4.71,,,,,,,,,,,,,,
1799999994665314402,2027-01-15T07:59:54.665314402Z,-1.00,0.86,-0.57,-0.14,-0.14,1.14,2.43,5.86,3.14,3.43,5.43,6.00,3.71,3.57,,,,,,,,,,,,,,
1799999994672075727,2027-01-15T07:59:54.672075727Z,-1.57,2.00,-1.14,1.00,-0.86,0.14,1.00,4.86,3.43,3.71,5.71,6.00,3.71,4.00,,,,,,,,,,,,,,
1799999994678837053,2027-01-15T07:59:54.678837053Z,-0.71,1.29,-0.29,2.43,-1.43,1.14,1.14,3.14,3.29,3.71,5.00,5.14,4.00,5.86,,,,,,,,,,,,,,
1799999994685598378,2027-01-15T07:59:54.685598378Z,-0.57,-0.86,0.57,1.71,-1.14,2.86,2.86,2.00,2.57,3.43,3.71,4.14,4.00,7.29,,,,,,,,,,,,,,
1799999994692359703,2027-01-15T07:59:54.692359703Z,-1.29,-2.29,-0.71,-1.29,0.57,3.71,3.43,2.71,1.57,3.29,2.57,4.14,3.71,5.14,,,,,,,,,,,,,,
1799999994699121028,2027-01-15T07:59:54.699121028Z,-1.43,-0.71,-1.86,-1.86,2.14,2.29,1.29,3.00,0.43,3.29,2.86,3.71,3.57,1.86,,,,,,,,,,,,,,
1799999994705882353,2027-01-15T07:59:54.705882353Z,-1.71,1.00,-0.57,0.86,1.86,1.43,0.43,2.57,0.86,3.29,3.86,2.43,3.57,2.57,,,,,,,,,,,,,,
1799999994712643679,2027-01-15T07:59:54.712643679Z,-2.29,0.86,0.57,1.71,1.57,2.14,1.43,3.57,2.00,3.43,4.29,2.43,4.14,5.14,,,,,,,,,,,,,,
1799999994719405004,2027-01-15T07:59:54.719405004Z,0.71,0.29,0.57,0.14,1.86,2.00,1.86,4.29,1.86,3.57,4.57,3.57,4.71,5.71,,,,,,,,,,,,,,
1799999994726166329,2027-01-15T07:59:54.726166329Z,1.14,0.71,1.71,-0.86,1.14,1.14,1.29,3.71,1.00,3.57,5.43,4.57,5.14,4.43,,,,,,,,,,,,,,
1799999994732927654,2027-01-15T07:59:54.732927654Z,0.71,1.29,3.29,-0.86,0.14,0.71,0.57,2.43,0.43,3.29,6.00,4.71,4.43,3.29,,,,,,,,,,,,,,
1799999994739688980,2027-01-15T07:59:54.739688980Z,-0.14,0.43,3.29,0.00,0.00,1.57,0.43,1.71,1.14,3.29,4.29,4.14,4.43,3.29,,,,,,,,,,,,,,
1799999994746450305,2027-01-15T07:59:54.746450305Z,-0.71,-1.43,1.29,1.00,1.00,2.57,0.86,2.29,2.29,3.00,2.57,4.29,5.86,4.00,,,,,,,,,,,,,,
1799999994753211630,2027-01-15T07:59:54.753211630Z,0.00,-1.43,-0.14,2.43,1.29,2.14,0.71,2.00,3.29,1.14,4.00,4.71,7.00,4.43,,,,,,,,,,,,,,
1799999994759972955,2027-01-15T07:59:54.759972955Z,-1.00,-0.29,-0.86,3.29,1.29,1.86,0.71,1.00,4.14,-1.71,5.00,4.29,6.43,5.57,,,,,,,,,,,,,,
1799999994766734280,2027-01-15T07:59:54.766734280Z,-1.43,0.29,-0.14,3.00,2.00,1.86,1.43,0.43,3.71,-4.00,3.29,3.86,5.29,6.14,,,,,,,,,,,,,,
1799999994773495606,2027-01-15T07:59:54.773495606Z,-1.43,0.71,1.29,3.00,2.29,1.29,1.29,0.86,3.29,-3.14,2.29,4.29,4.29,5.43,,,,,,,,,,,,,,
1799999994780256931,2027-01-15T07:59:54.780256931Z,0.14,1.00,2.00,2.86,1.57,1.00,0.29,1.43,4.00,-0.43,3.29,5.14,3.29,4.29,,,,,,,,,,,,,,
1799999994787018256,2027-01-15T07:59:54.787018256Z,-0.14,1.00,1.71,0.71,0.43,0.29,-1.00,0.86,5.29,2.71,4.43,5.57,3.00,3.71,,,,,,,,,,,,,,
1799999994793779581,2027-01-15T07:59:54.793779581Z,-0.29,0.29,0.71,-1.43,-0.57,-0.14,-1.14,-0.57,4.57,4.86,3.86,4.71,4.14,4.43,,,,,,,,,,,,,,
1799999994800540907,2027-01-15T07:59:54.800540907Z,-0.71,-0.43,-0.29,0.14,-0.57,0.57,0.29,-0.43,1.71,4.57,2.86,3.43,4.71,4.86,,,,,,,,,,,,,,
1799999994807302232,2027-01-15T07:59:54.807302232Z,0.00,-1.00,-1.00,1.71,0.14,1.57,0.71,1.00,0.29,4.43,3.43,3.86,3.29,4.43,,,,,,,,,,,,,,
1799999994814063557,2027-01-15T07:59:54.814063557Z,-0.14,-1.00,-0.14,-0.43,0.14,1.29,0.14,1.00,1.57,4.43,3.71,4.29,2.71,4.14,,,,,,,,,,,,,,
1799999994820824882,2027-01-15T07:59:54.820824882Z,-1.29,-0.71,1.00,-2.29,-0.14,0.14,0.57,0.29,2.29,3.71,3.57,3.57,3.29,3.71,,,,,,,,,,,,,,
1799999994827586207,2027-01-15T07:59:54.827586207Z,-1.00,-0.57,1.43,-1.43,-0.29,-0.57,1.43,0.43,1.86,3.00,4.14,2.71,3.71,3.43,,,,,,,,,,,,,,
1799999994834347533,2027-01-15T07:59:54.834347533Z,-0.43,-0.43,1.00,0.14,0.57,0.57,1.86,1.00,1.57,4.00,5.86,3.57,3.57,4.43,,,,,,,,,,,,,,
1799999994841108858,2027-01-15T07:59:54.841108858Z,1.43,0.57,1.86,1.43,1.71,2.29,1.00,1.43,2.29,4.86,6.86,5.00,3.71,5.14,,,,,,,,,,,,,,
1799999994847870183,2027-01-15T07:59:54.847870183Z,0.86,0.43,3.57,1.14,2.00,2.43,0.57,1.71,3.00,1.57,4.29,4.14,3.86,4.29,,,,,,,,,,,,,,
1799999994854631508,2027-01-15T07:59:54.854631508Z,-2.43,-1.29,3.14,0.29,1.29,2.00,1.43,3.29,3.00,-1.14,1.86,3.71,3.43,4.14,,,,,,,,,,,,,,
1799999994861392833,2027-01-15T07:59:54.861392833Z,-1.86,-0.86,1.57,-0.86,0.86,2.14,2.43,5.57,3.00,1.57,3.14,5.29,4.43,5.71,,,,,,,,,,,,,,
1799999994868154159,2027-01-15T07:59:54.868154159Z,-1.00,0.29,0.86,-1.57,0.71,1.00,3.71,5.43,3.57,5.00,5.29,4.14,6.57,5.29,,,,,,,,,,,,,,
1799999994874915484,2027-01-15T07:59:54.874915484Z,0.29,-0.57,0.71,-1.14,0.14,-0.14,4.43,2.43,3.43,4.86,5.57,1.57,7.71,3.57,,,,,,,,,,,,,,
1799999994881676809,2027-01-15T07:59:54.881676809Z,0.57,-1.43,0.14,-0.86,-0.29,0.14,3.86,-0.71,2.29,3.43,5.14,-0.14,7.00,2.86,,,,,,,,,,,,,,
1799999994888438134,2027-01-15T07:59:54.888438134Z,0.14,-0.86,-0.43,-1.00,0.57,1.00,2.29,-1.00,0.57,3.14,3.86,0.57,5.57,3.43,,,,,,,,,,,,,,
1799999994895199460,2027-01-15T07:59:54.895199460Z,-0.29,1.00,0.14,-0.86,2.14,0.29,0.86,2.29,-0.14,4.14,2.00,2.29,4.00,4.57,,,,,,,,,,,,,,
1799999994901960785,2027-01-15T07:59:54.901960785Z,-1.43,1.43,0.57,-0.14,1.00,-1.43,1.14,3.57,1.57,4.43,1.43,2.00,4.00,5.14,,,,,,,,,,,,,,
1799999994908722110,2027-01-15T07:59:54.908722110Z,-0.14,0.57,-0.14,0.14,-1.29,-0.29,2.14,1.14,2.86,3.86,3.14,2.14,5.00,5.00,,,,,,,,,,,,,,
1799999994915483435,2027-01-15T07:59:54.915483435Z,-0.29,0.14,-0.43,0.43,-1.71,1.71,2.57,1.57,2.43,3.86,3.43,4.14,4.86,4.71,,,,,,,,,,,,,,
1799999994922244760,2027-01-15T07:59:54.922244760Z,-2.14,0.29,0.29,0.86,-0.86,2.00,2.57,3.43,1.57,4.29,2.14,5.43,3.57,5.14,,,,,,,,,,,,,,
1799999994929006086,2027-01-15T07:59:54.929006086Z,-2.43,0.14,0.86,1.29,0.00,1.00,2.57,4.00,1.29,4.86,1.86,4.71,2.86,6.00,,,,,,,,,,,,,,
1799999994935767411,2027-01-15T07:59:54.935767411Z,0.00,-0.43,0.57,2.14,0.71,0.00,2.43,2.86,2.57,5.00,3.14,2.57,2.43,6.14,,,,,,,,,,,,,,
1799999994942528736,2027-01-15T07:59:54.942528736Z,0.43,-0.29,-0.29,3.14,1.29,0.71,1.57,2.14,4.57,4.29,3.29,1.14,3.14,5.43,,,,,,,,,,,,,,
1799999994949290061,2027-01-15T07:59:54.949290061Z,1.71,1.43,0.14,2.71,1.29,2.43,1.71,3.29,4.14,3.57,1.86,2.43,4.00,4.57,,,,,,,,,,,,,,
1799999994956051387,2027-01-15T07:59:54.956051387Z,1.14,2.86,1.00,1.71,1.00,1.43,3.14,3.71,1.86,3.57,3.71,3.57,3.71,4.00,,,,,,,,,,,,,,
1799999994962812712,2027-01-15T07:59:54.962812712Z,0.14,1.29,0.43,1.71,1.00,-0.57,3.00,1.71,0.86,3.86,5.86,3.00,2.86,4.71,,,,,,,,,,,,,,
1799999994969574037,2027-01-15T07:59:54.969574037Z,-0.14,-1.71,1.14,1.29,0.86,0.43,1.57,-0.29,2.86,3.14,4.71,3.29,2.14,5.57,,,,,,,,,,,,,,
1799999994976335362,2027-01-15T07:59:54.976335362Z,-2.43,-3.14,2.71,0.29,0.57,2.29,1.00,-0.71,4.86,2.43,3.57,4.14,2.43,5.43,,,,,,,,,,,,,,
1799999994983096687,2027-01-15T07:59:54.983096687Z,-2.14,-2.43,4.00,-0.14,0.14,2.29,1.43,0.29,6.00,2.43,4.43,4.57,3.43,4.57,,,,,,,,,,,,,,
1799999994989858013,2027-01-15T07:59:54.989858013Z,-0.14,-1.00,2.57,0.86,-0.43,0.71,2.29,1.57,5.00,3.14,5.57,4.43,4.29,4.29,,,,,,,,,,,,,,
1799999994996619338,2027-01-15T07:59:54.996619338Z,0.00,-1.00,-0.86,1.57,-0.14,0.29,3.00,2.71,3.29,4.00,5.29,4.14,3.86,4.71,,,,,,,,,,,,,,
1799999995003380663,2027-01-15T07:59:55.003380663Z,-1.86,-2.29,-2.43,0.14,1.43,2.43,3.29,2.71,3.29,4.29,3.86,4.14,2.57,5.00,,,,,,,,,,,,,,
1799999995010141988,2027-01-15T07:59:55.010141988Z,-0.86,-1.86,-0.86,-1.71,1.14,2.43,3.43,1.86,4.00,3.71,3.00,3.57,3.57,5.00,,,,,,,,,,,,,,
1799999995016903314,2027-01-15T07:59:55.016903314Z,-0.71,-0.57,0.14,-1.43,-1.14,1.00,3.57,0.71,4.00,3.71,2.57,2.86,5.43,4.43,,,,,,,,,,,,,,
1799999995023664639,2027-01-15T07:59:55.023664639Z,-1.71,0.43,-0.43,-0.14,-2.43,0.71,3.29,0.29,4.29,4.57,2.86,2.86,5.57,3.86,,,,,,,,,,,,,,
1799999995030425964,2027-01-15T07:59:55.030425964Z,-2.00,1.57,-0.86,0.86,-2.14,1.14,2.71,1.00,4.57,5.14,3.43,3.43,4.43,3.71,,,,,,,,,,,,,,
1799999995037187289,2027-01-15T07:59:55.037187289Z,-0.14,2.57,-1.57,1.86,-0.71,0.29,2.29,2.14,3.86,4.71,3.71,4.14,4.14,4.29,,,,,,,,,,,,,,
1799999995043948614,2027-01-15T07:59:55.043948614Z,0.29,2.14,-2.14,1.57,1.00,-1.00,2.14,3.00,3.00,3.71,3.29,4.29,5.57,5.29,,,,,,,,,,,,,,
1799999995050709940,2027-01-15T07:59:55.050709940Z,0.43,0.57,-1.29,0.43,1.00,0.14,1.57,2.86,3.57,3.57,3.14,4.57,6.00,6.00,,,,,,,,,,,,,,
1799999995057471265,2027-01-15T07:59:55.057471265Z,-1.57,0.57,0.29,-0.43,0.43,2.14,1.43,1.71,4.43,4.29,2.71,5.00,3.57,6.29,,,,,,,,,,,,,,
1799999995064232590,2027-01-15T07:59:55.064232590Z,-1.00,0.71,0.14,0.14,0.86,3.00,2.43,1.14,4.14,4.00,3.00,4.71,2.29,6.57,,,,,,,,,,,,,,
1799999995070993915,2027-01-15T07:59:55.070993915Z,-0.86,-1.00,-1.71,0.29,0.43,2.57,3.43,2.86,3.43,3.14,4.14,4.57,4.43,6.00,,,,,,,,,,,,,,
1799999995077755241,2027-01-15T07:59:55.077755241Z,-1.71,-2.29,-2.14,-0.43,-0.14,2.71,3.43,4.57,3.00,2.43,4.29,4.86,6.29,5.57,,,,,,,,,,,,,,
1799999995084516566,2027-01-15T07:59:55.084516566Z,-1.71,-1.71,-0.43,-1.00,0.71,3.00,2.86,4.57,3.00,2.00,3.43,5.14,5.57,5.57,,,,,,,,,,,,,,
1799999995091277891,2027-01-15T07:59:55.091277891Z,-1.14,-0.86,1.43,-0.57,2.57,3.00,2.00,2.71,2.86,2.29,2.86,5.43,3.86,5.43,,,,,,,,,,,,,,
1799999995098039216,2027-01-15T07:59:55.098039216Z,-0.14,-0.71,1.43,0.29,3.00,2.29,1.29,0.57,1.00,3.14,4.00,5.29,3.43,5.00,,,,,,,,,,,,,,
1799999995104800541,2027-01-15T07:59:55.104800541Z,0.14,-0.86,-0.86,-0.14,0.86,2.29,0.57,0.00,-0.86,3.14,5.14,4.43,5.00,4.14,,,,,,,,,,,,,,
1799999995111561867,2027-01-15T07:59:55.111561867Z,0.71,-0.14,-1.57,-1.14,0.14,2.71,0.86,1.00,0.71,2.71,4.43,4.57,4.43,3.14,,,,,,,,,,,,,,
1799999995118323192,2027-01-15T07:59:55.118323192Z,0.29,0.43,-0.71,-1.29,1.14,1.57,1.29,2.71,3.14,3.14,3.71,6.00,3.43,3.71,,,,,,,,,,,,,,
1799999995125084517,2027-01-15T07:59:55.125084517Z,-1.71,0.71,-1.29,-0.57,1.14,0.29,0.86,4.43,3.57,3.86,3.71,5.86,4.43,4.71,,,,,,,,,,,,,,
1799999995131845842,2027-01-15T07:59:55.131845842Z,-1.14,1.00,-2.14,-0.14,0.57,-0.29,0.00,5.14,2.71,4.00,3.71,4.14,5.86,4.86,,,,,,,,,,,,,,
1799999995138607168,2027-01-15T07:59:55.138607168Z,-0.29,0.86,-2.14,-0.14,0.71,0.57,0.29,3.86,2.71,3.57,3.43,2.00,6.29,4.43,,,,,,,,,,,,,,
1799999995145368493,2027-01-15T07:59:55.145368493Z,-0.29,-0.43,-1.00,0.29,2.14,1.43,1.29,2.14,3.14,3.00,3.57,1.71,5.00,3.57,,,,,,,,,,,,,,
1799999995152129818,2027-01-15T07:59:55.152129818Z,-0.43,-1.86,-0.14,1.71,2.14,1.29,0.86,2.71,1.43,3.14,2.29,3.86,3.43,4.00,,,,,,,,,,,,,,
1799999995158891143,2027-01-15T07:59:55.158891143Z,0.29,-2.29,0.14,2.43,0.57,2.00,-0.43,3.43,0.29,3.14,-0.14,5.14,2.14,4.00,,,,,,,,,,,,,,
1799999995165652468,2027-01-15T07:59:55.165652468Z,0.29,-1.57,-0.29,0.86,0.86,2.43,0.29,2.00,2.14,3.00,0.29,4.71,1.86,2.29,,,,,,,,,,,,,,
1799999995172413794,2027-01-15T07:59:55.172413794Z,-0.71,-0.43,-1.43,-0.43,1.71,1.86,1.86,1.86,3.86,3.14,3.57,4.43,2.71,3.57,,,,,,,,,,,,,,
1799999995179175119,2027-01-15T07:59:55.179175119Z,-0.86,0.14,-2.14,-0.43,1.14,1.00,2.00,3.29,3.57,3.14,5.43,5.00,3.71,6.29,,,,,,,,,,,,,,
1799999995185936444,2027-01-15T07:59:55.185936444Z,-0.86,-0.29,-1.29,-0.43,0.00,0.00,1.14,4.29,3.29,2.86,4.71,5.57,5.14,7.86,,,,,,,,,,,,,,
1799999995192697769,2027-01-15T07:59:55.192697769Z,0.43,-1.00,0.14,-1.14,-0.14,-0.86,0.29,4.43,3.00,2.57,4.00,5.14,7.43,6.57,,,,,,,,,,,,,,
1799999995199459094,2027-01-15T07:59:55.199459094Z,0.57,-1.00,1.14,-1.29,1.00,-0.29,0.86,3.57,2.43,2.57,4.14,3.86,7.43,4.43,,,,,,,,,,,,,,
1799999995206220420,2027-01-15T07:59:55.206220420Z,0.71,-0.71,0.29,0.43,0.86,1.43,1.43,3.29,2.14,3.14,3.29,2.71,4.00,4.57,,,,,,,,,,,,,,
1799999995212981745,2027-01-15T07:59:55.212981745Z,0.86,-2.00,-0.29,2.57,-0.29,2.29,0.71,3.86,2.57,4.00,1.71,3.14,3.00,4.57,,,,,,,,,,,,,,
1799999995219743070,2027-01-15T07:59:55.219743070Z,0.57,-2.86,0.00,1.43,-0.29,1.71,2.43,3.86,1.71,3.71,2.86,4.43,5.14,5.29,,,,,,,,,,,,,,
1799999995226504395,2027-01-15T07:59:55.226504395Z,-1.43,-1.29,0.14,-1.43,0.43,0.86,4.57,3.00,0.14,2.71,4.43,5.43,6.00,6.86,,,,,,,,,,,,,,
1799999995233265721,2027-01-15T07:59:55.233265721Z,-2.43,1.00,0.14,-3.29,0.57,0.14,4.43,2.14,-0.71,1.71,3.86,5.00,5.57,7.86,,,,,,,,,,,,,,
1799999995240027046,2027-01-15T07:59:55.240027046Z,-0.86,2.57,0.57,-1.71,0.14,-0.86,1.71,1.29,1.43,2.00,1.86,3.86,5.71,6.29,,,,,,,,,,,,,,
1799999995246788371,2027-01-15T07:59:55.246788371Z,0.57,1.00,1.43,1.57,-0.14,-1.00,-0.57,0.71,4.57,3.43,1.14,2.71,6.00,3.71,,,,,,,,,,,,,,
1799999995253549696,2027-01-15T07:59:55.253549696Z,0.29,-1.14,1.86,2.29,0.86,0.43,0.57,1.86,5.00,4.14,3.71,3.00,5.43,4.00,,,,,,,,,,,,,,
1799999995260311021,2027-01-15T07:59:55.260311021Z,-1.43,-0.29,1.43,1.29,1.29,1.57,0.71,4.43,3.00,3.00,6.14,4.71,5.71,5.71,,,,,,,,,,,,,,
1799999995267072347,2027-01-15T07:59:55.267072347Z,-3.14,1.43,0.71,1.71,-0.14,1.57,-0.14,6.14,2.29,2.57,5.14,6.00,5.57,6.00,,,,,,,,,,,,,,
1799999995273833672,2027-01-15T07:59:55.273833672Z,-1.43,0.71,0.14,1.29,0.14,1.57,1.14,5.29,3.57,3.29,2.71,4.43,4.00,4.71,,,,,,,,,,,,,,
1799999995280594997,2027-01-15T07:59:55.280594997Z,-1.29,-0.86,-0.29,0.29,2.29,1.71,2.43,4.14,4.86,3.71,1.57,2.57,2.86,3.43,,,,,,,,,,,,,,
1799999995287356322,2027-01-15T07:59:55.287356322Z,-1.29,-1.71,-0.86,-0.43,3.86,1.43,2.43,4.14,5.29,3.43,2.43,2.86,3.57,2.43,,,,,,,,,,,,,,
1799999995294117648,2027-01-15T07:59:55.294117648Z,-1.57,-1.14,-1.29,-0.43,4.14,1.43,1.57,3.57,4.14,3.00,3.86,4.71,4.86,1.86,,,,,,,,,,,,,,
1799999995300878973,2027-01-15T07:59:55.300878973Z,-1.86,0.43,-0.71,0.86,2.57,1.57,1.29,2.57,1.86,3.00,3.71,5.29,5.14,2.86,,,,,,,,,,,,,,
1799999995307640298,2027-01-15T07:59:55.307640298Z,-2.00,0.57,-0.29,2.43,1.43,2.00,1.86,2.57,0.71,3.14,1.14,2.86,3.57,4.14,,,,,,,,,,,,,,
1799999995314401623,2027-01-15T07:59:55.314401623Z,-1.43,-1.29,-0.86,1.14,2.29,2.71,1.00,2.86,1.57,3.00,-0.29,3.43,2.86,4.14,,,,,,,,,,,,,,
1799999995321162948,2027-01-15T07:59:55.321162948Z,-0.57,-2.00,-0.14,-1.14,2.71,1.86,0.14,1.29,2.43,3.14,1.29,6.43,4.71,3.71,,,,,,,,,,,,,,
1799999995327924274,2027-01-15T07:59:55.327924274Z,-0.71,-1.00,1.14,-1.29,2.14,0.29,0.29,0.43,2.29,3.00,3.00,7.00,6.29,3.71,,,,,,,,,,,,,,
1799999995334685599,2027-01-15T07:59:55.334685599Z,-2.14,0.00,1.57,-0.14,1.29,-0.71,1.29,1.43,2.29,2.43,4.29,5.14,6.43,3.57,,,,,,,,,,,,,,
1799999995341446924,2027-01-15T07:59:55.341446924Z,-2.29,0.43,1.14,0.29,0.43,0.29,2.14,3.14,2.00,2.57,5.71,3.57,5.57,3.14,,,,,,,,,,,,,,
1799999995348208249,2027-01-15T07:59:55.348208249Z,1.71,-0.14,0.86,-0.43,0.86,2.29,1.71,3.71,2.14,3.86,6.14,4.43,4.71,3.71,,,,,,,,,,,,,,
1799999995354969575,2027-01-15T07:59:55.354969575Z,2.00,-0.71,1.43,-0.43,1.14,1.71,0.57,2.57,2.86,4.29,4.14,5.43,4.57,5.00,,,,,,,,,,,,,,
1799999995361730900,2027-01-15T07:59:55.361730900Z,,-0.29,1.43,-0.57,-0.29,-0.29,1.57,2.71,3.29,3.00,2.43,3.43,4.14,6.29,,,,,,,,,,,,,,
1799999995368492225,2027-01-15T07:59:55.368492225Z,1.57,0.14,2.57,0.43,0.29,0.57,4.00,2.43,3.00,2.29,3.00,3.00,3.86,7.43,,,,,,,,,,,,,,
1799999995375253550,2027-01-15T07:59:55.375253550Z,0.00,-0.86,3.00,2.14,2.43,2.00,4.71,1.43,2.29,2.86,3.29,5.14,3.57,7.29,,,,,,,,,,,,,,
1799999995382014875,2027-01-15T07:59:55.382014875Z,-0.14,-2.00,1.29,1.86,2.43,1.43,3.57,0.71,1.86,2.86,2.14,5.86,3.00,6.29,,,,,,,,,,,,,,
1799999995388776201,2027-01-15T07:59:55.388776201Z,-0.43,-2.43,-0.57,0.43,1.00,0.29,2.43,0.57,1.86,2.57,1.14,4.43,2.57,5.86,,,,,,,,,,,,,,
1799999995395537526,2027-01-15T07:59:55.395537526Z,-0.57,-2.29,-1.43,-0.29,-0.43,0.71,1.43,0.43,2.86,3.00,1.71,3.57,3.71,6.86,,,,,,,,,,,,,,
1799999995402298851,2027-01-15T07:59:55.402298851Z,-2.43,-1.43,-0.57,1.00,-0.14,2.29,0.43,1.86,4.14,3.29,2.14,5.00,5.29,6.86,,,,,,,,,,,,,,
1799999995409060176,2027-01-15T07:59:55.409060176Z,-0.29,-0.29,-0.29,0.71,1.00,1.86,0.43,3.57,3.71,2.57,1.86,6.86,4.71,4.29,,,,,,,,,,,,,,
1799999995415821502,2027-01-15T07:59:55.415821502Z,-0.14,1.00,-0.43,-1.00,2.00,0.43,1.29,3.43,1.86,2.00,4.43,5.86,3.29,3.00,,,,,,,,,,,,,,
1799999995422582827,2027-01-15T07:59:55.422582827Z,0.14,0.29,-0.57,0.14,2.71,0.57,1.86,2.71,1.29,2.29,7.86,4.00,3.86,4.71,,,,,,,,,,,,,,
1799999995429344152,2027-01-15T07:59:55.429344152Z,-1.71,-1.29,-1.29,2.00,2.29,1.00,2.00,2.57,2.71,2.57,9.29,3.43,5.00,5.86,,,,,,,,,,,,,,
1799999995436105477,2027-01-15T07:59:55.436105477Z,-1.14,-2.00,-2.14,2.14,1.00,0.71,2.43,2.86,4.43,2.86,8.43,3.71,5.43,5.00,,,,,,,,,,,,,,
1799999995442866802,2027-01-15T07:59:55.442866802Z,0.00,-1.00,-1.43,1.14,0.00,0.43,3.14,2.57,5.43,2.29,6.86,3.00,5.00,4.14,,,,,,,,,,,,,,
1799999995449628128,2027-01-15T07:59:55.449628128Z,-0.43,0.14,0.86,0.00,0.00,0.71,4.14,1.71,3.43,0.57,5.00,1.86,5.29,4.57,,,,,,,,,,,,,,
1799999995456389453,2027-01-15T07:59:55.456389453Z,-2.71,-0.57,1.86,0.29,1.00,1.57,4.57,1.29,0.86,-0.29,4.29,2.29,6.00,5.71,,,,,,,,,,,,,,
1799999995463150778,2027-01-15T07:59:55.463150778Z,-1.29,-0.14,0.43,1.14,1.43,2.43,3.29,2.00,1.00,1.71,5.00,3.14,5.29,6.00,,,,,,,,,,,,,,
1799999995469912103,2027-01-15T07:59:55.469912103Z,-0.14,1.86,-0.29,1.57,1.00,2.14,1.71,1.57,2.43,3.57,4.57,2.86,3.71,5.57,,,,,,,,,,,,,,
1799999995476673428,2027-01-15T07:59:55.476673428Z,0.14,2.00,0.14,1.00,0.86,1.14,0.86,0.43,3.43,3.86,3.14,3.57,2.86,5.86,,,,,,,,,,,,,,
1799999995483434754,2027-01-15T07:59:55.483434754Z,0.14,0.43,0.71,0.29,1.14,0.71,1.00,0.43,4.43,3.29,2.14,5.14,3.14,6.71,,,,,,,,,,,,,,
1799999995490196079,2027-01-15T07:59:55.490196079Z,0.00,-1.00,1.00,-0.71,1.29,1.00,2.29,2.00,4.86,3.29,1.86,6.29,3.00,7.00,,,,,,,,,,,,,,
1799999995496957404,2027-01-15T07:59:55.496957404Z,-1.14,-0.71,0.57,-0.71,0.86,1.29,2.43,3.29,3.86,3.57,2.00,5.43,2.57,5.71,,,,,,,,,,,,,,
1799999995503718729,2027-01-15T07:59:55.503718729Z,-3.29,-0.29,-0.29,0.43,0.71,0.57,1.14,2.00,2.71,3.57,3.00,3.86,3.43,3.57,,,,,,,,,,,,,,
1799999995510480055,2027-01-15T07:59:55.510480055Z,-3.29,-1.86,-0.43,0.29,2.00,0.14,3.00,1.71,2.71,4.00,4.00,2.86,5.00,2.43,,,,,,,,,,,,,,
1799999995517241380,2027-01-15T07:59:55.517241380Z,1.71,-2.14,-0.71,-0.71,3.57,1.14,4.57,2.14,1.71,3.71,3.43,2.14,4.86,4.14,,,,,,,,,,,,,,
1799999995524002705,2027-01-15T07:59:55.524002705Z,1.00,-0.57,-1.86,0.00,2.86,2.43,2.43,0.57,1.71,3.00,2.43,1.86,3.43,7.00,,,,,,,,,,,,,,
1799999995530764030,2027-01-15T07:59:55.530764030Z,-0.57,0.14,-2.57,1.43,1.29,2.57,0.57,-0.29,3.00,2.71,2.57,2.29,2.71,7.57,,,,,,,,,,,,,,
1799999995537525355,2027-01-15T07:59:55.537525355Z,-0.86,-0.43,-2.14,2.14,0.29,2.00,1.00,0.29,3.71,2.71,2.71,3.29,3.14,5.71,,,,,,,,,,,,,,
1799999995544286681,2027-01-15T07:59:55.544286681Z,0.29,0.00,-0.86,1.43,0.57,1.43,1.57,1.00,3.71,2.57,3.14,4.71,4.00,3.71,,,,,,,,,,,,,,
1799999995551048006,2027-01-15T07:59:55.551048006Z,0.71,1.43,0.57,-0.29,1.71,1.86,1.29,0.57,3.57,2.71,4.14,5.57,4.14,3.86,,,,,,,,,,,,,,
1799999995557809331,2027-01-15T07:59:55.557809331Z,-0.29,1.57,0.71,-1.14,2.29,1.71,1.43,0.71,3.14,2.71,4.71,4.43,3.86,5.14,,,,,,,,,,,,,,
1799999995564570656,2027-01-15T07:59:55.564570656Z,-0.57,0.86,0.00,-0.29,1.43,0.14,2.43,2.29,2.43,2.43,4.29,2.86,4.43,5.00,,,,,,,,,,,,,,
1799999995571331982,2027-01-15T07:59:55.571331982Z,-1.14,1.57,0.00,0.57,1.29,-0.14,1.29,3.00,3.71,3.14,4.00,4.29,3.86,4.43,,,,,,,,,,,,,,
1799999995578093307,2027-01-15T07:59:55.578093307Z,0.29,1.43,0.71,1.29,1.57,0.86,-0.43,2.29,5.43,3.71,3.86,6.57,3.00,4.43,,,,,,,,,,,,,,
1799999995584854632,2027-01-15T07:59:55.584854632Z,0.57,-0.29,1.00,1.57,1.57,1.29,-1.14,1.57,5.57,3.29,3.29,7.43,2.86,4.86,,,,,,,,,,,,,,
1799999995591615957,2027-01-15T07:59:55.591615957Z,0.43,-1.00,0.57,1.00,1.14,1.57,-0.29,1.57,4.43,2.71,4.14,6.14,3.43,5.71,,,,,,,,,,,,,,
1799999995598377282,2027-01-15T07:59:55.598377282Z,0.14,0.57,0.29,-1.00,1.00,1.71,1.57,1.43,3.57,3.00,6.14,4.71,4.29,6.14,,,,,,,,,,,,,,
1799999995605138608,2027-01-15T07:59:55.605138608Z,-0.29,1.86,0.86,-1.86,1.29,1.71,2.00,1.00,3.71,4.00,6.14,5.29,5.14,5.43,,,,,,,,,,,,,,
1799999995611899933,2027-01-15T07:59:55.611899933Z,0.00,1.00,-0.29,1.14,0.43,1.29,0.86,1.86,3.43,4.14,4.14,5.86,4.86,5.29,,,,,,,,,,,,,,
1799999995618661258,2027-01-15T07:59:55.618661258Z,-0.71,2.29,-1.86,2.86,0.00,1.71,0.86,2.71,3.43,4.14,4.00,3.86,4.14,4.57,,,,,,,,,,,,,,
1799999995625422583,2027-01-15T07:59:55.625422583Z,-0.71,1.86,-0.86,0.43,1.43,2.71,2.71,2.71,2.86,4.14,5.00,1.71,4.71,3.71,,,,,,,,,,,,,,
1799999995632183909,2027-01-15T07:59:55.632183909Z,-0.43,-1.14,0.86,-0.57,2.57,3.00,4.00,2.43,2.00,3.43,4.71,1.86,5.71,4.43,,,,,,,,,,,,,,
1799999995638945234,2027-01-15T07:59:55.638945234Z,1.14,-3.43,2.00,1.57,1.86,2.00,3.00,2.29,1.57,2.86,4.00,3.29,6.29,5.57,,,,,,,,,,,,,,
1799999995645706559,2027-01-15T07:59:55.645706559Z,-1.00,-3.29,1.71,4.71,0.14,0.86,0.43,2.71,2.29,2.71,3.00,4.14,5.43,5.86,,,,,,,,,,,,,,
1799999995652467884,2027-01-15T07:59:55.652467884Z,-1.71,-1.00,-0.14,4.43,-0.57,1.29,-0.86,3.57,3.29,3.57,3.43,3.43,3.43,5.14,,,,,,,,,,,,,,
1799999995659229209,2027-01-15T07:59:55.659229209Z,0.43,0.57,-1.14,0.14,0.43,3.00,1.86,2.86,3.43,4.14,5.43,2.29,3.14,5.71,,,,,,,,,,,,,,
1799999995665990535,2027-01-15T07:59:55.665990535Z,1.00,1.29,-0.29,-2.00,-0.43,2.14,2.14,2.43,4.43,3.29,5.14,2.43,4.86,5.57,,,,,,,,,,,,,,
1799999995672751860,2027-01-15T07:59:55.672751860Z,-0.57,1.00,1.00,-0.86,-1.29,0.43,0.14,4.43,5.14,2.86,3.57,3.14,5.71,4.57,,,,,,,,,,,,,,
1799999995679513185,2027-01-15T07:59:55.679513185Z,-1.00,0.00,2.00,-0.57,-0.29,0.00,0.71,5.57,4.14,3.57,3.29,3.43,4.71,5.14,,,,,,,,,,,,,,
1799999995686274510,2027-01-15T07:59:55.686274510Z,-2.14,-0.86,1.71,-1.43,0.86,1.14,2.71,4.29,2.43,4.00,4.14,3.00,3.71,6.86,,,,,,,,,,,,,,
1799999995693035836,2027-01-15T07:59:55.693035836Z,-1.71,-1.57,-0.14,-1.86,1.14,2.71,3.00,2.86,1.71,3.43,4.00,2.43,3.57,6.14,,,,,,,,,,,,,,
1799999995699797161,2027-01-15T07:59:55.699797161Z,0.00,-1.00,-1.43,-0.43,0.43,3.86,1.00,3.71,3.14,2.86,3.00,2.00,4.57,3.57,,,,,,,,,,,,,,
1799999995706558486,2027-01-15T07:59:55.706558486Z,0.14,-0.43,-0.29,1.57,0.14,2.86,0.86,3.86,3.71,4.29,3.14,2.57,5.57,3.00,,,,,,,,,,,,,,
1799999995713319811,2027-01-15T07:59:55.713319811Z,0.14,-1.00,-0.14,1.86,0.86,1.86,2.14,1.00,2.57,5.00,3.71,3.43,5.71,4.14,,,,,,,,,,,,,,
1799999995720081136,2027-01-15T07:59:55.720081136Z,0.14,-1.00,-1.00,0.86,1.29,2.57,1.00,1.14,2.29,3.43,2.86,4.43,4.57,3.29,,,,,,,,,,,,,,
1799999995726842462,2027-01-15T07:59:55.726842462Z,1.14,0.00,0.71,1.71,0.71,2.86,1.14,3.86,2.43,3.00,2.57,4.71,4.00,2.71,,,,,,,,,,,,,,
1799999995733603787,2027-01-15T07:59:55.733603787Z,0.14,0.29,1.43,2.57,0.29,2.00,3.00,4.57,2.43,4.00,2.43,4.14,4.86,4.29,,,,,,,,,,,,,,
1799999995740365112,2027-01-15T07:59:55.740365112Z,-0.14,-0.43,-0.43,1.86,0.57,1.43,4.43,3.43,3.00,4.71,2.00,3.71,5.71,6.14,,,,,,,,,,,,,,
1799999995747126437,2027-01-15T07:59:55.747126437Z,,-1.29,-2.29,-0.14,1.00,0.57,3.43,3.43,3.14,4.29,2.71,4.00,5.29,7.00,,,,,,,,,,,,,,
1799999995753887763,2027-01-15T07:59:55.753887763Z,,-1.43,-0.57,-1.00,1.00,0.71,1.14,4.71,1.57,3.29,4.14,4.57,4.57,6.29,,,,,,,,,,,,,,
1799999995760649088,2027-01-15T07:59:55.760649088Z,,-1.43,1.57,1.14,1.14,2.00,1.29,3.71,0.14,2.86,3.86,4.57,5.29,6.14,,,,,,,,,,,,,,
1799999995767410413,2027-01-15T07:59:55.767410413Z,,-2.14,-0.29,2.14,1.00,2.57,2.14,1.14,1.14,3.14,2.71,5.00,5.14,5.00,,,,,,,,,,,,,,
1799999995774171738,2027-01-15T07:59:55.774171738Z,-1.57,-2.43,-1.14,1.00,-0.57,1.86,0.71,0.57,2.57,3.00,3.71,5.86,3.14,2.43,,,,,,,,,,,,,,
1799999995780933063,2027-01-15T07:59:55.780933063Z,-1.57,-2.14,0.86,0.71,-1.29,1.29,0.57,1.43,2.57,2.57,5.29,5.86,2.43,1.29,,,,,,,,,,,,,,
1799999995787694389,2027-01-15T07:59:55.787694389Z,-1.00,-2.14,2.86,1.14,-0.57,1.29,2.43,2.29,2.00,2.29,6.00,5.00,3.29,2.71,,,,,,,,,,,,,,
1799999995794455714,2027-01-15T07:59:55.794455714Z,-0.71,-2.29,2.43,0.00,0.29,0.86,4.14,3.00,1.57,2.29,5.29,4.14,4.43,4.57,,,,,,,,,,,,,,
1799999995801217039,2027-01-15T07:59:55.801217039Z,-1.00,-2.00,1.29,-1.57,0.00,0.57,2.00,3.29,2.14,2.57,4.14,4.71,4.14,5.86,,,,,,,,,,,,,,
1799999995807978364,2027-01-15T07:59:55.807978364Z,-1.86,-2.00,2.29,-1.14,-0.71,0.29,-2.00,2.29,2.86,2.86,4.57,5.00,2.86,5.57,,,,,,,,,,,,,,
1799999995814739689,2027-01-15T07:59:55.814739689Z,-2.14,-3.14,1.29,0.57,-0.57,-0.86,-1.14,1.14,3.29,3.43,5.43,3.29,3.29,4.86,,,,,,,,,,,,,,
1799999995821501015,2027-01-15T07:59:55.821501015Z,-2.14,-2.29,-1.86,1.14,-0.14,0.14,2.29,1.00,3.43,4.00,4.86,3.43,4.71,3.86,,,,,,,,,,,,,,
1799999995828262340,2027-01-15T07:59:55.828262340Z,-0.71,0.57,-2.57,0.43,0.14,3.00,2.71,1.71,3.14,3.71,3.57,5.14,4.57,4.00,,,,,,,,,,,,,,
1799999995835023665,2027-01-15T07:59:55.835023665Z,-0.43,1.86,-1.00,0.43,0.86,4.29,0.86,2.43,2.43,3.29,3.29,4.71,3.86,4.86,,,,,,,,,,,,,,
1799999995841784990,2027-01-15T07:59:55.841784990Z,1.00,0.29,0.00,1.00,2.14,2.86,-0.43,2.71,1.86,3.14,3.71,3.00,3.86,4.43,,,,,,,,,,,,,,
1799999995848546316,2027-01-15T07:59:55.848546316Z,-0.71,-1.43,-0.29,0.57,3.14,0.86,-1.00,2.86,2.14,3.29,3.14,1.57,4.86,3.57,,,,,,,,,,,,,,
1799999995855307641,2027-01-15T07:59:55.855307641Z,-0.86,-2.43,-1.57,-0.71,2.43,-0.14,-0.29,2.29,3.29,3.29,2.71,1.71,5.43,4.29,,,,,,,,,,,,,,
1799999995862068966,2027-01-15T07:59:55.862068966Z,-0.57,-2.14,-1.71,-1.14,0.43,1.43,0.00,1.43,4.00,2.71,4.43,3.00,4.71,5.14,,,,,,,,,,,,,,
1799999995868830291,2027-01-15T07:59:55.868830291Z,-0.57,-2.29,0.00,0.29,0.14,1.71,-0.14,1.14,3.43,2.71,5.14,4.29,4.14,3.43,,,,,,,,,,,,,,
1799999995875591616,2027-01-15T07:59:55.875591616Z,-1.86,-1.43,1.43,1.57,1.14,1.00,0.00,2.57,2.71,3.00,2.86,5.00,4.14,2.57,,,,,,,,,,,,,,
1799999995882352942,2027-01-15T07:59:55.882352942Z,-2.43,0.00,0.57,1.71,1.43,1.86,0.14,4.00,2.86,2.86,1.57,4.86,3.86,3.86,,,,,,,,,,,,,,
