# spacing_uv=20.0
timestamp_ns,timestamp_iso,AF3,F7,F3,FC5,T7,P7,O1,O2,P8,T8,FC6,F4,F8,AF4,AF3_q,F7_q,F3_q,FC5_q,T7_q,P7_q,O1_q,O2_q,P8_q,T8_q,FC6_q,F4_q,F8_q,AF4_q
1799999990000000000,2027-01-15T07:59:50.000000000Z,,,,,,,,,,,,,,,,,,,,,,,,,,,,
1799999990014836796,2027-01-15T07:59:50.014836796Z,-2.13,-1.49,-0.85,1.28,3.83,1.28,3.83,5.32,5.11,7.45,6.60,5.74,5.96,6.81,,,,,,,,,,,,,,
1799999990029673591,2027-01-15T07:59:50.029673591Z,-2.34,-1.06,-1.06,1.28,3.83,1.06,4.26,3.19,5.32,5.74,5.96,6.38,7.45,7.23,,,,,,,,,,,,,,
1799999990044510386,2027-01-15T07:59:50.044510386Z,-0.64,-0.85,-0.85,1.91,2.13,1.49,4.04,2.34,5.11,5.53,6.60,6.81,7.66,7.87,,,,,,,,,,,,,,
1799999990059347182,2027-01-15T07:59:50.059347182Z,-0.64,-0.64,0.85,1.70,1.91,3.62,3.40,3.40,3.19,4.68,7.66,6.38,6.38,8.51,,,,,,,,,,,,,,
1799999990074183977,2027-01-15T07:59:50.074183977Z,-2.34,0.21,0.00,1.70,2.77,3.83,4.04,4.68,3.19,4.68,6.17,6.60,7.45,8.30,,,,,,,,,,,,,,
1799999990089020772,2027-01-15T07:59:50.089020772Z,-1.06,0.21,-0.85,0.64,1.06,1.28,4.04,3.62,2.98,4.47,6.17,6.60,7.87,8.09,,,,,,,,,,,,,,
1799999990103857567,2027-01-15T07:59:50.103857567Z,-0.85,-1.06,0.64,0.00,-0.21,1.91,2.34,0.85,2.98,3.83,5.32,6.17,7.23,8.09,,,,,,,,,,,,,,
1799999990118694363,2027-01-15T07:59:50.118694363Z,-1.06,-0.64,-0.21,0.00,0.85,4.26,1.91,2.55,4.47,2.55,4.68,5.96,6.17,7.45,,,,,,,,,,,,,,
1799999990133531158,2027-01-15T07:59:50.133531158Z,-0.43,-0.21,-1.06,-0.21,1.49,4.26,2.77,2.55,5.11,1.91,4.89,5.74,4.47,5.96,,,,,,,,,,,,,,
1799999990148367953,2027-01-15T07:59:50.148367953Z,-1.28,-1.28,-1.06,-0.43,1.28,4.26,3.19,4.26,4.47,4.26,5.53,6.38,4.26,6.17,,,,,,,,,,,,,,
1799999990163204748,2027-01-15T07:59:50.163204748Z,0.85,-2.55,-0.64,-0.64,0.21,2.77,1.28,5.11,3.19,3.40,6.38,7.02,6.17,8.30,,,,,,,,,,,,,,
1799999990178041544,2027-01-15T07:59:50.178041544Z,-0.43,0.00,-0.43,-0.21,0.43,2.98,0.64,4.89,1.70,2.55,5.53,7.23,5.74,7.45,,,,,,,,,,,,,,
1799999990192878339,2027-01-15T07:59:50.192878339Z,-0.21,0.00,-1.49,-0.43,0.43,3.40,1.28,3.83,2.77,6.17,4.89,7.02,5.74,7.23,,,,,,,,,,,,,,
1799999990207715134,2027-01-15T07:59:50.207715134Z,-0.64,-0.85,-1.28,-0.43,0.00,2.55,2.34,2.34,3.19,6.17,3.83,4.89,5.11,8.30,,,,,,,,,,,,,,
1799999990222551929,2027-01-15T07:59:50.222551929Z,-0.21,-0.43,0.21,0.43,0.21,2.13,2.55,4.47,4.04,4.89,3.62,4.89,4.89,6.81,,,,,,,,,,,,,,
1799999990237388725,2027-01-15T07:59:50.237388725Z,-1.06,-1.06,0.64,0.85,-0.64,2.77,2.98,4.47,3.62,1.28,4.68,6.17,7.02,7.23,,,,,,,,,,,,,,
1799999990252225520,2027-01-15T07:59:50.252225520Z,-1.28,-1.70,-1.28,0.64,0.00,2.55,2.98,1.91,3.62,2.98,4.26,6.38,7.02,8.30,,,,,,,,,,,,,,
1799999990267062315,2027-01-15T07:59:50.267062315Z,-0.85,-0.85,-2.13,0.00,1.06,0.21,3.40,3.40,3.62,1.70,4.47,7.02,7.66,7.02,,,,,,,,,,,,,,
1799999990281899110,2027-01-15T07:59:50.281899110Z,-0.43,0.43,-1.49,-0.64,2.55,1.70,3.19,3.19,3.62,1.91,5.32,7.02,6.38,6.38,,,,,,,,,,,,,,
1799999990296735906,2027-01-15T07:59:50.296735906Z,-1.06,0.00,0.85,0.43,2.77,3.62,3.62,4.47,2.98,5.11,5.74,6.38,4.68,7.02,,,,,,,,,,,,,,
1799999990311572701,2027-01-15T07:59:50.311572701Z,0.00,0.21,-0.21,1.49,1.91,0.85,3.62,5.32,3.40,2.55,4.89,5.11,6.17,6.81,,,,,,,,,,,,,,
1799999990326409496,2027-01-15T07:59:50.326409496Z,-0.64,0.64,-0.43,2.34,1.70,1.70,2.77,4.26,4.68,3.19,4.68,6.60,5.11,6.60,,,,,,,,,,,,,,
1799999990341246291,2027-01-15T07:59:50.341246291Z,0.00,-0.43,-0.21,1.49,1.49,2.34,2.98,3.62,5.53,3.83,5.32,7.23,4.26,6.60,,,,,,,,,,,,,,
1799999990356083087,2027-01-15T07:59:50.356083087Z,1.70,-2.13,0.21,1.06,0.43,2.55,3.40,3.19,5.11,6.81,6.17,7.66,4.68,6.60,,,,,,,,,,,,,,
1799999990370919882,2027-01-15T07:59:50.370919882Z,-1.49,-1.28,1.06,2.34,0.21,4.04,2.77,2.77,4.68,6.38,7.45,7.45,7.02,7.87,,,,,,,,,,,,,,
1799999990385756677,2027-01-15T07:59:50.385756677Z,-1.49,0.43,1.91,0.00,1.70,1.70,3.62,2.34,4.68,3.19,7.87,6.38,7.45,7.66,,,,,,,,,,,,,,
1799999990400593472,2027-01-15T07:59:50.400593472Z,-0.64,-0.21,1.91,0.00,1.06,0.43,3.19,2.13,4.04,4.68,8.30,6.38,7.02,8.51,,,,,,,,,,,,,,
1799999990415430268,2027-01-15T07:59:50.415430268Z,1.06,-1.70,0.21,1.06,0.21,0.21,2.13,2.13,2.34,3.62,5.74,4.26,7.23,6.38,,,,,,,,,,,,,,
1799999990430267063,2027-01-15T07:59:50.430267063Z,-0.43,-0.43,-0.21,-0.21,0.85,1.06,1.91,3.62,2.34,3.40,4.47,5.11,7.02,5.32,,,,,,,,,,,,,,
1799999990445103858,2027-01-15T07:59:50.445103858Z,0.00,-0.85,-2.13,0.85,1.70,0.21,2.13,4.47,3.62,3.19,5.96,6.81,8.51,6.17,,,,,,,,,,,,,,
1799999990459940653,2027-01-15T07:59:50.459940653Z,-0.64,-0.21,-1.06,0.64,1.70,1.06,3.62,4.47,2.55,2.77,6.17,4.04,8.51,7.45,,,,,,,,,,,,,,
1799999990474777449,2027-01-15T07:59:50.474777449Z,-2.55,0.64,0.00,1.49,0.21,0.85,3.40,3.19,3.83,4.68,5.74,4.89,6.17,6.81,,,,,,,,,,,,,,
1799999990489614244,2027-01-15T07:59:50.489614244Z,-1.06,0.85,0.43,1.28,0.43,1.70,3.40,2.98,4.47,2.34,5.74,5.96,5.96,8.09,,,,,,,,,,,,,,
1799999990504451039,2027-01-15T07:59:50.504451039Z,0.43,-1.06,-0.64,-0.21,0.64,1.91,4.68,2.55,2.98,2.98,6.81,8.09,7.23,8.30,,,,,,,,,,,,,,
1799999990519287834,2027-01-15T07:59:50.519287834Z,0.85,-1.06,-1.28,1.49,2.55,0.64,5.32,2.55,3.83,5.32,5.74,7.66,6.38,7.87,,,,,,,,,,,,,,
1799999990534124630,2027-01-15T07:59:50.534124630Z,0.85,0.64,-1.49,2.55,0.85,2.13,4.68,1.70,4.47,8.30,3.83,7.23,7.02,6.81,,,,,,,,,,,,,,
1799999990548961425,2027-01-15T07:59:50.548961425Z,-0.21,-0.21,-0.85,1.70,0.85,0.85,3.19,2.34,4.89,6.81,3.62,7.02,7.23,8.30,,,,,,,,,,,,,,
1799999990563798220,2027-01-15T07:59:50.563798220Z,0.64,-1.70,-0.85,-0.21,1.70,1.70,1.91,3.40,3.40,3.62,4.26,5.96,6.60,7.45,,,,,,,,,,,,,,
1799999990578635015,2027-01-15T07:59:50.578635015Z,0.00,-1.49,0.21,1.49,1.49,2.77,0.85,2.34,4.04,4.26,4.26,5.11,7.23,6.81,,,,,,,,,,,,,,
1799999990593471811,2027-01-15T07:59:50.593471811Z,0.64,-0.43,-0.21,2.13,2.13,1.49,2.13,2.34,4.47,2.98,4.47,6.60,7.02,7.45,,,,,,,,,,,,,,
1799999990608308606,2027-01-15T07:59:50.608308606Z,-1.49,-0.85,-0.64,3.19,0.85,2.77,1.91,2.98,3.40,4.89,5.11,6.38,7.02,6.38,,,,,,,,,,,,,,
1799999990623145401,2027-01-15T07:59:50.623145401Z,-2.55,-1.06,-0.21,1.28,1.28,2.13,2.34,3.19,4.26,8.09,6.38,5.96,7.87,6.60,,,,,,,,,,,,,,
1799999990637982196,2027-01-15T07:59:50.637982196Z,-2.13,0.21,0.21,0.21,1.49,2.13,1.28,3.83,3.83,8.51,6.38,5.53,7.87,6.17,,,,,,,,,,,,,,
1799999990652818992,2027-01-15T07:59:50.652818992Z,-2.55,-1.49,0.21,0.43,1.91,1.91,0.43,3.62,2.55,6.38,5.74,5.74,7.87,6.38,,,,,,,,,,,,,,
1799999990667655787,2027-01-15T07:59:50.667655787Z,-3.62,-2.34,-0.21,2.55,2.13,1.91,1.70,3.19,4.89,7.23,5.74,6.17,6.60,7.87,,,,,,,,,,,,,,
1799999990682492582,2027-01-15T07:59:50.682492582Z,-2.13,-2.34,0.00,2.34,2.13,1.91,1.49,2.98,5.53,5.11,6.17,6.60,7.23,8.94,,,,,,,,,,,,,,
1799999990697329377,2027-01-15T07:59:50.697329377Z,-2.34,-1.91,0.43,0.21,2.77,2.77,1.49,2.34,4.47,6.60,5.53,6.17,7.02,7.87,,,,,,,,,,,,,,
1799999990712166173,2027-01-15T07:59:50.712166173Z,-1.91,-0.43,1.70,0.00,2.55,2.77,3.19,3.62,3.40,6.17,4.47,5.74,6.81,6.60,,,,,,,,,,,,,,
1799999990727002968,2027-01-15T07:59:50.727002968Z,-2.55,0.64,0.43,1.06,2.34,2.55,3.62,3.62,2.98,4.47,3.83,5.74,7.87,6.17,,,,,,,,,,,,,,
1799999990741839763,2027-01-15T07:59:50.741839763Z,-1.70,1.70,-1.28,1.91,3.19,2.34,2.77,2.55,2.13,7.45,3.83,5.96,6.38,7.02,,,,,,,,,,,,,,
1799999990756676558,2027-01-15T07:59:50.756676558Z,-0.21,1.28,-1.91,0.21,3.40,0.64,2.98,2.77,2.98,3.83,5.96,6.38,7.02,7.66,,,,,,,,,,,,,,
1799999990771513354,2027-01-15T07:59:50.771513354Z,0.85,0.64,-1.28,0.21,2.55,1.70,3.62,3.40,2.77,4.26,7.02,6.60,6.17,7.23,,,,,,,,,,,,,,
1799999990786350149,2027-01-15T07:59:50.786350149Z,-1.91,-0.43,-0.21,-1.70,1.70,2.34,4.04,2.77,4.04,4.26,6.17,6.38,5.96,6.60,,,,,,,,,,,,,,
1799999990801186944,2027-01-15T07:59:50.801186944Z,-1.28,-0.21,-1.28,-0.64,1.91,2.34,3.62,2.13,4.68,6.17,4.68,5.96,6.38,7.45,,,,,,,,,,,,,,
1799999990816023739,2027-01-15T07:59:50.816023739Z,-2.98,-0.85,-1.06,0.43,1.70,2.77,2.98,1.49,5.11,1.49,5.96,5.53,7.02,8.94,,,,,,,,,,,,,,
1799999990830860535,2027-01-15T07:59:50.830860535Z,-2.77,-1.70,-1.49,0.64,0.85,1.91,2.77,3.83,4.89,4.04,6.38,5.11,7.23,9.15,,,,,,,,,,,,,,
1799999990845697330,2027-01-15T07:59:50.845697330Z,-3.40,-1.28,-0.85,1.91,1.28,1.06,3.62,4.26,4.04,5.32,8.09,5.74,7.87,8.09,,,,,,,,,,,,,,
1799999990860534125,2027-01-15T07:59:50.860534125Z,1.06,0.43,0.43,-1.06,1.49,1.06,4.26,2.98,3.62,3.40,7.87,6.38,6.81,5.96,,,,,,,,,,,,,,
1799999990875370920,2027-01-15T07:59:50.875370920Z,0.21,0.21,-0.85,-0.21,-0.43,2.77,3.83,3.40,3.83,3.83,4.47,5.96,5.11,6.60,,,,,,,,,,,,,,
1799999990890207716,2027-01-15T07:59:50.890207716Z,-1.28,0.43,-1.49,0.64,-2.13,2.98,3.19,4.04,3.19,6.60,4.26,6.60,4.89,8.51,,,,,,,,,,,,,,
1799999990905044511,2027-01-15T07:59:50.905044511Z,-3.40,0.43,-0.43,0.43,0.64,2.77,3.62,3.40,6.60,3.83,5.53,8.72,5.32,8.94,,,,,,,,,,,,,,
1799999990919881306,2027-01-15T07:59:50.919881306Z,0.85,0.21,1.28,-1.28,1.91,3.40,4.04,3.40,6.38,5.11,4.89,8.94,5.96,8.72,,,,,,,,,,,,,,
1799999990934718101,2027-01-15T07:59:50.934718101Z,-0.85,-0.85,0.64,-0.64,1.91,3.19,3.19,4.89,5.74,7.23,4.89,7.87,5.53,8.09,,,,,,,,,,,,,,
1799999990949554897,2027-01-15T07:59:50.949554897Z,-0.85,-2.34,-1.49,0.43,0.85,1.49,1.91,5.53,4.04,6.38,5.32,5.53,7.66,7.45,,,,,,,,,,,,,,
1799999990964391692,2027-01-15T07:59:50.964391692Z,0.00,-2.34,-1.70,0.21,2.34,2.13,1.70,4.26,4.04,6.17,5.32,4.89,7.02,7.02,,,,,,,,,,,,,,
1799999990979228487,2027-01-15T07:59:50.979228487Z,-0.21,-1.49,-1.06,0.64,1.49,2.77,0.43,2.13,4.04,5.96,4.89,5.32,7.23,6.17,,,,,,,,,,,,,,
1799999990994065282,2027-01-15T07:59:50.994065282Z,1.28,0.43,-0.85,-0.85,-0.21,3.83,1.28,2.77,2.13,5.96,5.11,5.53,6.17,6.81,,,,,,,,,,,,,,
1799999991008902078,2027-01-15T07:59:51.008902078Z,-1.91,0.21,-0.64,-1.49,-0.64,2.34,2.34,3.40,2.55,2.13,4.04,6.17,5.11,7.66,,,,,,,,,,,,,,
1799999991023738873,2027-01-15T07:59:51.023738873Z,-2.13,-1.49,0.64,-0.64,0.21,1.28,2.98,2.98,3.62,2.13,4.68,7.23,5.96,7.87,,,,,,,,,,,,,,
1799999991038575668,2027-01-15T07:59:51.038575668Z,-2.77,-2.34,0.64,1.28,1.70,2.13,2.13,3.62,4.04,3.83,4.68,6.17,7.02,7.02,,,,,,,,,,,,,,
1799999991053412463,2027-01-15T07:59:51.053412463Z,-0.64,-1.28,-0.21,0.21,1.70,1.91,3.19,4.47,2.77,0.85,4.89,4.26,10.21,4.89,,,,,,,,,,,,,,
1799999991068249259,2027-01-15T07:59:51.068249259Z,-1.70,-1.06,0.00,0.00,3.62,2.34,3.83,3.19,2.77,1.06,5.32,5.11,8.51,5.53,,,,,,,,,,,,,,
1799999991083086054,2027-01-15T07:59:51.083086054Z,-1.70,-1.49,0.21,0.85,1.06,2.77,2.77,2.55,3.19,3.40,5.53,6.60,5.74,5.96,,,,,,,,,,,,,,
1799999991097922849,2027-01-15T07:59:51.097922849Z,-1.49,-0.21,0.43,-0.43,-1.06,1.91,2.13,1.49,4.68,3.19,6.17,7.02,6.38,7.02,,,,,,,,,,,,,,
1799999991112759644,2027-01-15T07:59:51.112759644Z,0.00,0.21,1.06,0.00,-0.43,1.91,1.70,0.64,5.32,3.40,4.04,7.66,6.38,9.15,,,,,,,,,,,,,,
1799999991127596440,2027-01-15T07:59:51.127596440Z,-1.06,-0.85,-0.21,-0.21,1.49,1.49,1.91,2.13,4.68,5.32,3.83,7.02,5.74,8.30,,,,,,,,,,,,,,
1799999991142433235,2027-01-15T07:59:51.142433235Z,-0.21,-1.06,-0.85,-0.43,1.70,1.06,2.55,2.55,3.40,2.98,4.68,5.53,6.60,7.66,,,,,,,,,,,,,,
1799999991157270030,2027-01-15T07:59:51.157270030Z,1.49,-0.85,0.64,0.43,1.06,0.85,3.40,2.77,3.62,4.68,6.38,5.32,6.81,6.17,,,,,,,,,,,,,,
1799999991172106825,2027-01-15T07:59:51.172106825Z,-0.43,-0.21,0.00,0.64,1.28,1.28,2.55,1.49,5.11,4.89,5.53,5.96,7.23,6.38,,,,,,,,,,,,,,
1799999991186943621,2027-01-15T07:59:51.186943621Z,0.64,0.21,-0.21,1.28,1.49,1.70,1.49,2.34,4.26,3.62,5.53,6.60,7.87,5.74,,,,,,,,,,,,,,
1799999991201780416,2027-01-15T07:59:51.201780416Z,-0.85,-0.64,-0.43,0.21,1.06,2.55,2.34,4.47,4.89,1.49,5.53,7.87,6.60,6.17,,,,,,,,,,,,,,
1799999991216617211,2027-01-15T07:59:51.216617211Z,-0.43,-1.28,-0.43,-0.85,0.85,2.13,4.26,4.89,4.04,2.55,5.53,7.02,5.11,6.81,,,,,,,,,,,,,,
1799999991231454006,2027-01-15T07:59:51.231454006Z,-1.06,-1.06,0.43,-1.28,1.91,2.77,4.68,3.40,4.04,5.32,5.11,6.60,3.40,7.23,,,,,,,,,,,,,,
1799999991246290802,2027-01-15T07:59:51.246290802Z,1.06,-0.64,0.43,0.00,1.28,2.13,3.83,2.77,3.19,4.89,5.11,5.96,3.62,7.66,,,,,,,,,,,,,,
1799999991261127597,2027-01-15T07:59:51.261127597Z,0.64,-0.43,-0.21,-0.85,0.00,2.34,4.04,2.34,2.55,4.47,5.53,5.96,5.53,7.45,,,,,,,,,,,,,,
1799999991275964392,2027-01-15T07:59:51.275964392Z,-0.64,0.64,0.43,-0.43,1.06,2.34,4.68,1.49,2.13,6.60,5.53,6.17,7.02,7.23,,,,,,,,,,,,,,
1799999991290801187,2027-01-15T07:59:51.290801187Z,-1.06,-0.85,0.85,0.64,1.28,1.49,3.83,4.47,2.13,6.38,5.74,6.81,8.51,7.23,,,,,,,,,,,,,,
1799999991305637983,2027-01-15T07:59:51.305637983Z,-0.43,-0.64,0.43,0.21,0.21,-0.43,3.40,3.83,2.55,6.38,5.74,6.60,7.87,8.30,,,,,,,,,,,,,,
1799999991320474778,2027-01-15T07:59:51.320474778Z,0.00,-1.06,-0.21,0.85,0.43,-0.21,2.55,2.77,3.83,5.53,6.17,5.53,5.96,7.45,,,,,,,,,,,,,,
1799999991335311573,2027-01-15T07:59:51.335311573Z,-1.06,-0.21,-0.21,2.98,1.49,2.34,3.62,2.77,4.04,5.32,5.32,4.68,5.96,6.60,,,,,,,,,,,,,,
1799999991350148368,2027-01-15T07:59:51.350148368Z,0.64,0.21,-0.21,1.91,0.85,2.13,2.98,3.40,3.83,5.96,5.74,3.19,5.74,5.96,,,,,,,,,,,,,,
1799999991364985164,2027-01-15T07:59:51.364985164Z,0.85,-2.13,-1.28,0.85,0.21,2.13,1.70,3.62,2.55,2.77,6.81,5.32,6.38,5.53,,,,,,,,,,,,,,
1799999991379821959,2027-01-15T07:59:51.379821959Z,-2.13,-1.91,-0.85,1.06,0.43,2.13,2.13,2.77,4.26,1.91,5.74,5.32,6.17,6.38,,,,,,,,,,,,,,
1799999991394658754,2027-01-15T07:59:51.394658754Z,-2.13,-0.64,-0.85,1.91,1.70,2.77,2.77,3.62,4.89,2.13,5.96,5.74,6.17,8.72,,,,,,,,,,,,,,
1799999991409495549,2027-01-15T07:59:51.409495549Z,-0.43,-0.21,-1.70,0.64,2.13,3.19,0.43,3.62,5.32,2.98,7.02,5.74,6.81,8.51,,,,,,,,,,,,,,
1799999991424332345,2027-01-15T07:59:51.424332345Z,0.21,1.06,-0.85,0.00,1.70,2.55,-0.21,5.11,4.89,5.74,7.02,4.26,6.38,6.81,,,,,,,,,,,,,,
1799999991439169140,2027-01-15T07:59:51.439169140Z,0.00,1.06,-0.43,0.85,1.70,2.13,1.06,5.96,1.70,1.70,5.32,3.19,6.81,5.74,,,,,,,,,,,,,,
1799999991454005935,2027-01-15T07:59:51.454005935Z,0.64,0.64,-0.85,0.21,1.91,0.85,1.49,4.89,1.70,2.55,5.74,5.53,6.60,5.32,,,,,,,,,,,,,,
1799999991468842730,2027-01-15T07:59:51.468842730Z,1.28,0.00,-0.64,0.43,2.98,2.13,1.06,2.77,3.83,6.60,5.53,5.32,7.02,8.09,,,,,,,,,,,,,,
1799999991483679526,2027-01-15T07:59:51.483679526Z,-2.55,0.64,-0.21,0.64,2.98,2.98,1.06,4.89,4.47,6.38,5.11,5.53,7.87,8.30,,,,,,,,,,,,,,
1799999991498516321,2027-01-15T07:59:51.498516321Z,0.64,0.64,-0.85,0.85,2.13,3.40,1.91,4.47,4.47,6.60,4.68,6.17,9.15,8.09,,,,,,,,,,,,,,
1799999991513353116,2027-01-15T07:59:51.513353116Z,0.43,-0.85,1.28,0.21,1.06,3.19,4.04,1.49,4.26,4.04,4.04,6.60,7.02,7.23,,,,,,,,,,,,,,
1799999991528189911,2027-01-15T07:59:51.528189911Z,-2.13,-0.43,2.13,1.28,1.70,4.04,3.40,2.77,5.53,4.47,3.83,6.81,7.23,7.45,,,,,,,,,,,,,,
1799999991543026707,2027-01-15T07:59:51.543026707Z,-1.06,-0.43,-0.43,0.85,1.49,3.62,3.19,3.83,4.89,4.89,4.68,7.02,7.66,8.51,,,,,,,,,,,,,,
1799999991557863502,2027-01-15T07:59:51.557863502Z,0.64,0.00,1.28,0.64,2.13,2.34,3.19,4.47,3.40,6.81,4.47,6.81,6.60,7.87,,,,,,,,,,,,,,
1799999991572700297,2027-01-15T07:59:51.572700297Z,-1.70,-1.28,1.28,1.49,1.70,1.91,2.13,5.32,3.19,6.17,4.47,7.02,6.81,7.87,,,,,,,,,,,,,,
1799999991587537092,2027-01-15T07:59:51.587537092Z,-1.49,-2.13,0.00,-1.06,1.28,2.34,3.83,3.62,3.83,5.53,5.11,7.23,7.66,8.09,,,,,,,,,,,,,,
1799999991602373888,2027-01-15T07:59:51.602373888Z,-1.70,-0.43,0.00,-1.70,2.55,1.28,5.53,3.40,4.04,5.96,5.74,6.81,8.09,9.15,,,,,,,,,,,,,,
1799999991617210683,2027-01-15T07:59:51.617210683Z,-2.55,-0.64,0.00,-0.43,2.34,0.43,4.89,2.98,4.26,5.11,5.11,6.81,7.66,8.30,,,,,,,,,,,,,,
1799999991632047478,2027-01-15T07:59:51.632047478Z,-1.70,-1.06,-0.64,-1.28,1.06,1.91,4.26,3.40,4.26,4.89,5.74,7.23,6.81,7.66,,,,,,,,,,,,,,
1799999991646884273,2027-01-15T07:59:51.646884273Z,-1.49,-2.13,-1.28,-1.06,1.28,2.77,2.34,4.04,4.26,4.47,5.96,7.45,5.96,7.23,,,,,,,,,,,,,,
1799999991661721069,2027-01-15T07:59:51.661721069Z,-2.77,-1.28,-1.06,0.64,1.91,2.98,0.43,2.98,4.47,5.32,6.17,7.23,5.53,4.89,,,,,,,,,,,,,,
1799999991676557864,2027-01-15T07:59:51.676557864Z,0.64,-1.28,-0.85,0.43,1.28,2.34,0.64,2.13,5.11,1.70,6.38,7.87,5.32,5.53,,,,,,,,,,,,,,
1799999991691394659,2027-01-15T07:59:51.691394659Z,-0.21,-0.85,0.85,0.21,0.43,3.19,0.85,1.49,5.11,2.34,4.68,6.17,5.32,9.15,,,,,,,,,,,,,,
1799999991706231455,2027-01-15T07:59:51.706231455Z,-0.43,0.21,1.70,0.43,0.43,2.98,1.91,1.70,4.68,5.32,4.04,5.32,4.68,9.57,,,,,,,,,,,,,,
1799999991721068250,2027-01-15T07:59:51.721068250Z,-2.13,-0.43,1.70,0.64,1.70,1.28,2.13,2.34,4.04,4.68,4.68,5.32,5.11,8.72,,,,,,,,,,,,,,
1799999991735905045,2027-01-15T07:59:51.735905045Z,-1.49,-0.64,1.70,0.85,2.34,0.85,2.77,2.55,3.19,4.68,7.66,5.96,6.17,7.02,,,,,,,,,,,,,,
1799999991750741840,2027-01-15T07:59:51.750741840Z,-2.55,-0.21,-1.06,0.21,1.28,1.49,2.98,2.98,4.04,4.89,6.17,7.66,5.53,6.81,,,,,,,,,,,,,,
1799999991765578636,2027-01-15T07:59:51.765578636Z,-0.64,-0.85,-1.06,0.21,0.43,2.13,1.70,3.62,3.62,4.68,5.74,6.38,4.68,6.81,,,,,,,,,,,,,,
1799999991780415431,2027-01-15T07:59:51.780415431Z,2.34,-0.43,0.64,0.00,0.64,1.28,2.55,3.40,4.89,4.26,7.02,5.32,6.60,6.81,,,,,,,,,,,,,,
1799999991795252226,2027-01-15T07:59:51.795252226Z,-1.91,-0.64,0.43,-0.21,1.91,1.70,2.77,2.77,5.96,4.26,6.81,7.23,7.45,5.96,,,,,,,,,,,,,,
1799999991810089021,2027-01-15T07:59:51.810089021Z,1.28,-0.43,-1.49,1.28,1.49,0.43,1.91,1.70,3.62,4.68,5.32,6.81,7.02,6.17,,,,,,,,,,,,,,
1799999991824925817,2027-01-15T07:59:51.824925817Z,0.85,-0.43,-1.28,1.28,0.43,-0.21,2.98,0.85,3.83,2.98,4.89,6.38,6.38,7.23,,,,,,,,,,,,,,
1799999991839762612,2027-01-15T07:59:51.839762612Z,-2.34,0.43,-1.49,0.85,0.00,1.06,1.91,2.34,4.68,2.98,5.96,5.96,6.81,7.87,,,,,,,,,,,,,,
1799999991854599407,2027-01-15T07:59:51.854599407Z,-2.13,-1.28,-0.21,1.06,1.06,1.70,2.77,4.47,2.77,5.74,6.81,6.81,6.38,8.09,,,,,,,,,,,,,,
1799999991869436202,2027-01-15T07:59:51.869436202Z,0.64,-1.91,0.21,1.70,0.64,1.91,5.11,3.19,2.77,5.32,6.38,5.74,6.81,7.45,,,,,,,,,,,,,,
1799999991884272998,2027-01-15T07:59:51.884272998Z,0.64,-0.43,-1.49,2.13,0.64,1.49,4.47,2.77,4.26,5.32,5.74,4.68,4.68,7.66,,,,,,,,,,,,,,
1799999991899109793,2027-01-15T07:59:51.899109793Z,-0.64,-1.28,-1.70,0.85,1.49,1.28,5.11,1.70,3.83,4.89,6.17,5.32,6.60,6.60,,,,,,,,,,,,,,
1799999991913946588,2027-01-15T07:59:51.913946588Z,0.43,-0.43,-1.06,1.28,1.49,1.70,3.83,1.91,3.40,4.89,5.11,5.32,8.30,7.02,,,,,,,,,,,,,,
1799999991928783383,2027-01-15T07:59:51.928783383Z,-0.64,-1.06,-1.91,1.91,1.49,1.91,2.98,3.40,2.98,2.34,4.47,5.53,7.87,7.02,,,,,,,,,,,,,,
1799999991943620179,2027-01-15T07:59:51.943620179Z,-0.85,0.85,-2.55,1.70,1.28,2.77,2.98,2.98,2.98,1.70,4.04,6.60,6.17,7.45,,,,,,,,,,,,,,
1799999991958456974,2027-01-15T07:59:51.958456974Z,-0.85,1.49,-1.91,0.43,0.64,1.91,0.64,3.62,4.68,5.74,4.04,6.81,5.53,7.87,,,,,,,,,,,,,,
1799999991973293769,2027-01-15T07:59:51.973293769Z,0.21,0.64,-0.43,-0.43,0.85,1.70,1.70,3.40,5.32,5.96,4.68,6.38,6.17,6.81,,,,,,,,,,,,,,
1799999991988130564,2027-01-15T07:59:51.988130564Z,0.64,-0.85,0.43,0.00,0.85,1.70,2.34,2.98,5.32,4.89,5.74,5.53,8.09,8.30,,,,,,,,,,,,,,
1799999992002967360,2027-01-15T07:59:52.002967360Z,-1.91,-0.64,-0.21,1.49,1.49,1.49,3.83,2.34,5.53,5.32,5.96,5.32,7.23,7.87,,,,,,,,,,,,,,
1799999992017804155,2027-01-15T07:59:52.017804155Z,0.85,0.00,-2.34,1.49,1.91,2.13,2.98,3.19,3.62,4.89,4.26,5.96,5.53,6.38,,,,,,,,,,,,,,
1799999992032640950,2027-01-15T07:59:52.032640950Z,0.85,-0.21,-0.21,1.28,2.13,2.55,1.91,4.26,3.19,4.89,3.19,5.96,5.74,4.68,,,,,,,,,,,,,,
1799999992047477745,2027-01-15T07:59:52.047477745Z,-1.28,0.00,1.28,0.43,1.91,2.55,3.40,3.40,3.19,4.89,4.26,5.32,5.74,4.68,,,,,,,,,,,,,,
1799999992062314541,2027-01-15T07:59:52.062314541Z,-1.06,-1.28,-0.21,1.28,1.06,2.13,3.19,3.19,5.32,4.89,4.89,5.53,6.17,6.17,,,,,,,,,,,,,,
1799999992077151336,2027-01-15T07:59:52.077151336Z,-1.70,-1.49,-0.85,1.06,0.43,1.49,3.40,2.98,4.68,4.26,5.96,7.45,7.02,7.45,,,,,,,,,,,,,,
1799999992091988131,2027-01-15T07:59:52.091988131Z,1.28,-0.43,-1.28,2.13,0.21,2.34,3.62,2.34,3.40,4.47,6.17,7.23,7.02,8.72,,,,,,,,,,,,,,
1799999992106824926,2027-01-15T07:59:52.106824926Z,0.64,0.21,-1.06,1.49,2.55,2.55,4.04,1.70,2.98,5.11,5.53,7.02,7.45,7.66,,,,,,,,,,,,,,
1799999992121661722,2027-01-15T07:59:52.121661722Z,1.49,-0.64,-0.43,1.06,2.34,2.13,3.19,2.98,2.77,4.68,4.89,6.60,7.66,8.30,,,,,,,,,,,,,,
1799999992136498517,2027-01-15T07:59:52.136498517Z,0.64,-0.43,0.00,0.43,2.13,2.77,3.40,3.40,2.98,4.89,4.89,5.96,7.02,7.02,,,,,,,,,,,,,,
1799999992151335312,2027-01-15T07:59:52.151335312Z,-0.85,-0.64,-0.64,0.00,2.13,2.77,4.89,4.04,2.98,5.11,5.11,5.53,5.74,6.38,,,,,,,,,,,,,,
1799999992166172107,2027-01-15T07:59:52.166172107Z,0.43,-1.28,1.28,0.64,1.49,3.40,3.62,3.40,4.47,5.11,4.89,5.96,4.89,7.23,,,,,,,,,,,,,,
1799999992181008903,2027-01-15T07:59:52.181008903Z,0.64,-2.34,0.43,0.21,0.64,2.77,1.91,2.98,4.89,4.04,4.68,5.96,7.23,9.36,,,,,,,,,,,,,,
1799999992195845698,2027-01-15T07:59:52.195845698Z,0.21,-2.13,-1.06,-0.64,0.43,0.43,2.55,4.04,2.98,3.83,5.32,6.60,7.23,8.72,,,,,,,,,,,,,,
1799999992210682493,2027-01-15T07:59:52.210682493Z,-1.28,-2.55,-0.43,-0.21,0.43,0.64,3.83,4.47,2.98,4.47,5.32,7.23,8.09,7.45,,,,,,,,,,,,,,
1799999992225519288,2027-01-15T07:59:52.225519288Z,-1.70,-0.43,-0.64,0.43,0.21,1.06,3.83,4.89,3.83,4.68,6.17,8.09,7.87,6.60,,,,,,,,,,,,,,
1799999992240356084,2027-01-15T07:59:52.240356084Z,-1.28,0.64,-1.06,1.28,-0.43,1.91,3.62,4.89,4.26,4.89,6.81,7.87,5.96,7.23,,,,,,,,,,,,,,
1799999992255192879,2027-01-15T07:59:52.255192879Z,-1.91,-1.06,-0.85,0.00,0.64,3.40,4.04,3.40,3.19,4.89,5.32,6.38,6.17,7.45,,,,,,,,,,,,,,
1799999992270029674,2027-01-15T07:59:52.270029674Z,-3.62,-0.85,-1.06,0.00,1.28,3.62,3.40,3.62,2.13,4.89,5.11,5.53,5.74,6.60,,,,,,,,,,,,,,
1799999992284866469,2027-01-15T07:59:52.284866469Z,0.43,0.85,-0.21,0.85,2.13,2.34,2.13,4.26,2.34,4.89,6.38,5.74,6.60,5.74,,,,,,,,,,,,,,
1799999992299703265,2027-01-15T07:59:52.299703265Z,-2.55,0.21,2.13,-0.21,1.06,2.34,2.34,3.62,2.34,4.68,6.17,6.38,6.60,6.81,,,,,,,,,,,,,,
1799999992314540060,2027-01-15T07:59:52.314540060Z,0.43,-0.43,1.49,1.70,0.85,2.55,1.91,2.55,3.19,2.98,5.96,6.38,7.45,6.17,,,,,,,,,,,,,,
1799999992329376855,2027-01-15T07:59:52.329376855Z,2.13,-1.06,-0.43,2.55,2.34,2.98,2.34,2.13,4.89,0.64,5.53,6.60,7.87,7.87,,,,,,,,,,,,,,
1799999992344213650,2027-01-15T07:59:52.344213650Z,-0.85,0.43,0.43,1.06,1.49,1.70,1.06,1.70,5.74,1.91,5.11,7.02,6.60,7.66,,,,,,,,,,,,,,
1799999992359050446,2027-01-15T07:59:52.359050446Z,-0.43,0.00,0.64,0.43,0.64,1.06,0.85,1.06,4.04,4.26,5.74,6.60,6.17,7.02,,,,,,,,,,,,,,
1799999992373887241,2027-01-15T07:59:52.373887241Z,-1.28,-0.85,-0.43,0.21,0.21,1.70,1.70,0.85,2.77,5.96,5.11,5.96,5.96,7.23,,,,,,,,,,,,,,
1799999992388724036,2027-01-15T07:59:52.388724036Z,-0.85,-0.85,-0.21,-0.43,0.43,1.28,2.13,1.70,2.98,4.89,5.74,5.53,5.11,6.38,,,,,,,,,,,,,,
1799999992403560831,2027-01-15T07:59:52.403560831Z,-0.85,0.00,1.49,0.43,1.49,1.70,2.34,1.91,3.19,5.32,7.66,6.17,5.74,6.81,,,,,,,,,,,,,,
1799999992418397627,2027-01-15T07:59:52.418397627Z,0.85,-0.85,2.13,0.85,1.91,2.98,2.13,3.62,3.62,3.19,5.96,6.38,5.74,6.81,,,,,,,,,,,,,,
1799999992433234422,2027-01-15T07:59:52.433234422Z,-2.34,-1.06,2.34,-0.21,1.49,2.13,4.04,5.32,4.47,3.40,5.11,6.38,7.66,7.66,,,,,,,,,,,,,,
1799999992448071217,2027-01-15T07:59:52.448071217Z,0.64,-0.85,0.00,-1.06,1.06,1.91,3.83,3.19,2.77,5.74,6.17,5.11,8.09,7.23,,,,,,,,,,,,,,
1799999992462908012,2027-01-15T07:59:52.462908012Z,-0.21,-0.21,-0.21,-0.43,1.28,0.64,3.19,1.91,2.13,5.32,4.47,3.40,7.23,6.17,,,,,,,,,,,,,,
1799999992477744808,2027-01-15T07:59:52.477744808Z,-0.43,0.85,-0.21,0.00,0.64,1.06,2.55,3.19,2.98,5.74,4.47,5.74,6.60,7.23,,,,,,,,,,,,,,
1799999992492581603,2027-01-15T07:59:52.492581603Z,-1.70,-0.43,0.00,1.70,0.00,1.91,3.62,2.77,4.04,5.96,5.11,5.53,6.17,7.87,,,,,,,,,,,,,,
1799999992507418398,2027-01-15T07:59:52.507418398Z,-1.49,0.85,0.00,2.55,1.49,2.13,2.98,3.83,4.68,5.74,4.68,4.89,5.53,7.66,,,,,,,,,,,,,,
1799999992522255193,2027-01-15T07:59:52.522255193Z,-0.21,1.06,0.00,2.55,1.49,1.70,3.62,2.98,4.26,5.11,5.53,4.68,5.53,7.02,,,,,,,,,,,,,,
1799999992537091989,2027-01-15T07:59:52.537091989Z,-0.43,-0.21,1.06,1.28,1.28,1.28,3.62,1.91,3.83,4.68,6.60,5.53,4.89,7.45,,,,,,,,,,,,,,
1799999992551928784,2027-01-15T07:59:52.551928784Z,-1.91,-1.91,2.34,1.06,0.43,1.70,2.98,1.49,6.17,4.47,6.60,6.60,5.53,7.45,,,,,,,,,,,,,,
1799999992566765579,2027-01-15T07:59:52.566765579Z,-0.43,-1.70,0.43,0.43,1.49,2.13,3.62,2.55,5.74,4.89,6.60,6.38,5.53,7.02,,,,,,,,,,,,,,
1799999992581602374,2027-01-15T07:59:52.581602374Z,-1.28,-1.49,-1.70,-0.21,0.64,2.98,4.47,2.13,4.47,5.32,5.53,5.32,6.17,7.02,,,,,,,,,,,,,,
1799999992596439170,2027-01-15T07:59:52.596439170Z,-1.28,0.64,-1.06,0.00,-0.43,1.06,3.83,2.13,4.89,5.96,5.11,5.53,7.02,6.60,,,,,,,,,,,,,,
1799999992611275965,2027-01-15T07:59:52.611275965Z,-1.06,1.06,-1.49,1.06,0.21,1.06,2.98,2.98,4.68,5.74,5.32,6.38,7.45,7.23,,,,,,,,,,,,,,
1799999992626112760,2027-01-15T07:59:52.626112760Z,-0.85,0.43,-0.85,0.21,1.49,1.70,3.40,2.77,4.89,5.32,4.89,6.81,6.38,8.72,,,,,,,,,,,,,,
1799999992640949555,2027-01-15T07:59:52.640949555Z,-1.28,-0.64,-1.06,-0.21,1.06,3.62,3.83,3.40,4.89,4.89,5.53,7.02,6.17,8.51,,,,,,,,,,,,,,
1799999992655786351,2027-01-15T07:59:52.655786351Z,-1.28,-1.49,-0.21,0.00,2.55,3.40,3.62,2.77,2.55,4.26,5.53,7.45,6.60,7.66,,,,,,,,,,,,,,
1799999992670623146,2027-01-15T07:59:52.670623146Z,-1.06,-0.64,0.21,-0.43,2.34,3.19,2.13,1.70,1.70,4.47,5.96,6.81,6.17,6.60,,,,,,,,,,,,,,
1799999992685459941,2027-01-15T07:59:52.685459941Z,0.21,-0.21,-1.28,-1.06,1.06,2.34,2.13,3.19,2.34,4.68,6.17,7.45,6.38,6.17,,,,,,,,,,,,,,
1799999992700296736,2027-01-15T07:59:52.700296736Z,-1.28,0.64,-1.70,-0.21,1.49,1.49,1.70,4.89,4.26,5.11,5.53,5.96,7.23,6.81,,,,,,,,,,,,,,
1799999992715133532,2027-01-15T07:59:52.715133532Z,-0.85,-0.64,-1.70,1.49,2.13,1.70,1.91,4.47,2.77,4.89,4.26,5.32,6.60,6.60,,,,,,,,,,,,,,
1799999992729970327,2027-01-15T07:59:52.729970327Z,-1.06,-1.91,-0.64,1.49,1.91,2.98,1.49,3.19,2.98,4.68,2.98,6.17,5.11,5.53,,,,,,,,,,,,,,
1799999992744807122,2027-01-15T07:59:52.744807122Z,-0.64,-1.06,-1.28,0.85,1.28,1.91,1.91,3.62,3.19,4.68,4.04,7.23,5.96,7.45,,,,,,,,,,,,,,
1799999992759643917,2027-01-15T07:59:52.759643917Z,0.00,-0.64,-0.85,-0.85,1.06,0.85,2.34,4.47,4.04,4.26,6.60,6.60,8.30,8.94,,,,,,,,,,,,,,
1799999992774480713,2027-01-15T07:59:52.774480713Z,0.00,-1.91,0.21,1.28,0.85,1.49,2.13,4.47,3.40,4.68,4.89,5.74,7.45,7.23,,,,,,,,,,,,,,
1799999992789317508,2027-01-15T07:59:52.789317508Z,0.21,-0.64,-0.21,0.00,0.21,2.13,3.62,3.83,1.91,4.26,4.89,6.38,5.96,8.72,,,,,,,,,,,,,,
1799999992804154303,2027-01-15T07:59:52.804154303Z,-0.85,0.00,0.64,-0.21,0.64,0.64,2.77,2.98,3.62,4.47,4.26,6.17,8.09,7.87,,,,,,,,,,,,,,
1799999992818991098,2027-01-15T07:59:52.818991098Z,0.00,0.64,1.28,1.49,1.28,0.85,1.49,4.26,5.11,4.89,5.32,6.38,7.87,7.02,,,,,,,,,,,,,,
1799999992833827894,2027-01-15T07:59:52.833827894Z,-2.77,0.00,0.64,1.70,0.85,2.34,1.70,5.32,4.04,4.47,7.02,7.23,7.87,8.09,,,,,,,,,,,,,,
1799999992848664689,2027-01-15T07:59:52.848664689Z,-1.91,-0.21,-0.64,0.85,2.34,2.34,2.34,5.96,5.11,4.89,4.68,6.81,6.17,6.17,,,,,,,,,,,,,,
1799999992863501484,2027-01-15T07:59:52.863501484Z,-1.70,-0.43,-1.06,0.64,3.40,2.34,2.98,3.83,3.83,4.89,4.89,6.81,6.38,5.32,,,,,,,,,,,,,,
1799999992878338279,2027-01-15T07:59:52.878338279Z,-2.55,-0.64,-1.06,1.28,2.77,3.19,2.55,3.19,2.98,4.68,3.83,6.17,6.17,5.74,,,,,,,,,,,,,,
1799999992893175075,2027-01-15T07:59:52.893175075Z,-2.55,-1.06,0.00,0.64,2.34,1.91,2.13,2.34,2.98,4.26,4.04,6.81,6.60,6.38,,,,,,,,,,,,,,
1799999992908011870,2027-01-15T07:59:52.908011870Z,-1.06,-0.43,0.85,-0.64,1.70,2.13,2.55,2.98,3.19,5.11,6.38,7.66,7.66,6.17,,,,,,,,,,,,,,
1799999992922848665,2027-01-15T07:59:52.922848665Z,-0.43,-0.64,0.85,-0.43,0.64,1.91,2.77,4.26,3.83,4.89,6.17,6.17,6.60,7.45,,,,,,,,,,,,,,
1799999992937685460,2027-01-15T07:59:52.937685460Z,0.43,-0.64,2.34,1.06,1.49,1.28,3.83,2.77,3.83,4.26,4.89,6.38,6.17,9.57,,,,,,,,,,,,,,
1799999992952522256,2027-01-15T07:59:52.952522256Z,0.43,-1.28,0.85,1.28,1.70,1.91,4.26,1.91,3.83,4.47,4.47,7.02,5.74,9.57,,,,,,,,,,,,,,
1799999992967359051,2027-01-15T07:59:52.967359051Z,-2.13,-1.06,-1.06,0.85,0.64,2.34,2.34,2.98,4.68,4.26,3.62,7.45,6.17,7.45,,,,,,,,,,,,,,
1799999992982195846,2027-01-15T07:59:52.982195846Z,-2.13,0.21,-0.64,0.43,1.91,2.34,1.91,4.26,4.04,4.04,6.38,7.87,6.38,6.81,,,,,,,,,,,,,,
1799999992997032641,2027-01-15T07:59:52.997032641Z,-0.43,-0.64,-1.49,0.43,2.34,1.49,3.19,3.62,4.26,4.04,9.79,5.96,6.17,7.45,,,,,,,,,,,,,,
1799999993011869437,2027-01-15T07:59:53.011869437Z,-0.43,-1.28,-0.21,1.06,1.49,1.70,4.68,2.98,4.68,2.55,8.72,4.68,7.45,7.66,,,,,,,,,,,,,,
1799999993026706232,2027-01-15T07:59:53.026706232Z,-1.70,-0.21,0.43,0.85,0.85,2.34,4.68,2.77,4.04,2.98,7.02,4.47,7.45,7.45,,,,,,,,,,,,,,
1799999993041543027,2027-01-15T07:59:53.041543027Z,-0.43,0.43,0.00,0.85,1.49,2.34,3.62,2.34,3.62,3.62,5.53,6.38,6.81,8.72,,,,,,,,,,,,,,
1799999993056379822,2027-01-15T07:59:53.056379822Z,-0.43,0.43,0.21,0.00,1.70,1.70,3.40,2.98,5.11,5.11,4.68,7.02,4.89,8.30,,,,,,,,,,,,,,
1799999993071216618,2027-01-15T07:59:53.071216618Z,-2.55,-1.49,0.00,0.00,2.13,1.49,4.04,3.19,4.68,5.11,5.11,7.02,6.17,7.02,,,,,,,,,,,,,,
1799999993086053413,2027-01-15T07:59:53.086053413Z,1.49,-1.49,-1.70,0.21,2.77,2.13,3.83,1.70,2.98,5.11,5.53,4.47,6.17,7.66,,,,,,,,,,,,,,
1799999993100890208,2027-01-15T07:59:53.100890208Z,0.85,-0.64,-1.49,0.85,2.34,2.77,3.40,1.49,3.62,4.26,4.68,5.96,5.74,7.87,,,,,,,,,,,,,,
1799999993115727003,2027-01-15T07:59:53.115727003Z,-1.06,0.64,-0.64,0.64,1.70,2.34,2.55,1.49,4.47,4.26,5.53,6.81,6.38,6.38,,,,,,,,,,,,,,
1799999993130563799,2027-01-15T07:59:53.130563799Z,-0.21,1.28,0.21,-0.43,2.34,1.49,2.98,2.55,4.04,4.04,6.17,6.38,6.17,7.23,,,,,,,,,,,,,,
1799999993145400594,2027-01-15T07:59:53.145400594Z,-0.43,0.43,0.21,1.28,1.70,1.06,1.91,3.19,4.89,4.68,5.53,7.23,5.74,6.81,,,,,,,,,,,,,,
1799999993160237389,2027-01-15T07:59:53.160237389Z,1.28,0.21,0.21,-0.43,1.49,1.91,1.91,2.55,5.53,4.47,7.23,8.09,5.96,7.66,,,,,,,,,,,,,,
1799999993175074184,2027-01-15T07:59:53.175074184Z,0.00,0.21,-0.43,0.64,1.06,2.13,2.55,2.55,4.89,4.68,7.23,7.45,6.81,8.09,,,,,,,,,,,,,,
1799999993189910980,2027-01-15T07:59:53.189910980Z,0.64,1.49,-0.85,1.06,1.70,2.77,3.19,2.98,4.04,5.53,5.96,5.96,6.81,7.02,,,,,,,,,,,,,,
1799999993204747775,2027-01-15T07:59:53.204747775Z,1.49,-0.43,-0.21,2.55,1.28,2.34,2.34,3.40,3.62,4.89,5.53,4.89,7.45,7.66,,,,,,,,,,,,,,
1799999993219584570,2027-01-15T07:59:53.219584570Z,-0.64,-1.91,0.43,2.13,0.64,2.55,2.34,3.62,3.62,4.89,6.38,5.32,6.38,8.09,,,,,,,,,,,,,,
1799999993234421365,2027-01-15T07:59:53.234421365Z,-1.91,0.64,0.21,0.21,0.00,2.55,2.98,4.68,5.53,4.89,6.60,4.89,6.17,7.87,,,,,,,,,,,,,,
1799999993249258161,2027-01-15T07:59:53.249258161Z,0.21,-0.21,-0.21,-0.85,0.21,2.77,2.98,4.89,4.47,4.89,5.53,4.89,6.60,8.51,,,,,,,,,,,,,,
1799999993264094956,2027-01-15T07:59:53.264094956Z,-0.21,-1.28,-0.43,0.43,1.06,3.62,2.98,4.68,4.04,5.74,5.32,4.68,6.60,7.23,,,,,,,,,,,,,,
1799999993278931751,2027-01-15T07:59:53.278931751Z,0.43,-1.28,-0.64,1.70,1.06,3.40,2.34,3.19,4.47,5.96,4.89,5.32,7.66,5.74,,,,,,,,,,,,,,
1799999993293768546,2027-01-15T07:59:53.293768546Z,0.43,-0.64,0.21,1.91,1.49,3.19,2.34,2.98,3.62,4.89,4.89,6.81,6.81,5.74,,,,,,,,,,,,,,
1799999993308605342,2027-01-15T07:59:53.308605342Z,0.21,-0.64,-0.64,0.64,1.28,2.55,3.62,4.68,4.04,5.11,4.47,6.60,7.02,7.23,,,,,,,,,,,,,,
1799999993323442137,2027-01-15T07:59:53.323442137Z,-1.49,-1.28,-0.64,0.64,1.49,2.34,3.83,4.47,2.77,5.32,5.11,6.38,7.23,8.94,,,,,,,,,,,,,,
1799999993338278932,2027-01-15T07:59:53.338278932Z,-2.13,-2.13,-0.21,1.28,0.21,2.77,2.34,3.62,2.55,4.47,5.53,7.45,6.17,5.96,,,,,,,,,,,,,,
1799999993353115728,2027-01-15T07:59:53.353115728Z,-1.28,-2.34,0.43,0.21,-0.21,2.34,3.40,2.55,3.40,4.26,6.17,7.02,5.74,5.74,,,,,,,,,,,,,,
1799999993367952523,2027-01-15T07:59:53.367952523Z,-1.28,-2.13,1.91,-0.43,0.21,1.49,1.70,3.40,3.62,4.04,7.02,6.81,5.96,7.02,,,,,,,,,,,,,,
1799999993382789318,2027-01-15T07:59:53.382789318Z,-2.98,-2.34,-0.43,-0.21,-0.21,0.85,1.28,2.77,4.47,4.89,6.81,5.96,5.96,7.02,,,,,,,,,,,,,,
1799999993397626113,2027-01-15T07:59:53.397626113Z,-0.43,-0.85,-1.91,1.06,1.70,2.34,2.77,2.55,3.83,5.11,6.38,6.17,6.81,6.60,,,,,,,,,,,,,,
1799999993412462909,2027-01-15T07:59:53.412462909Z,0.64,-0.21,-1.28,-0.43,2.34,2.77,1.70,3.40,4.04,4.89,4.89,5.74,7.02,6.81,,,,,,,,,,,,,,
1799999993427299704,2027-01-15T07:59:53.427299704Z,,-2.34,-1.70,-0.85,1.91,1.70,1.06,2.55,4.68,4.68,5.96,4.68,7.02,6.81,,,,,,,,,,,,,,
1799999993442136499,2027-01-15T07:59:53.442136499Z,-1.06,-1.49,-0.21,0.64,1.06,2.55,1.06,3.19,4.47,4.26,5.32,6.60,6.17,5.96,,,,,,,,,,,,,,
1799999993456973294,2027-01-15T07:59:53.456973294Z,-2.77,-0.43,-0.64,1.49,1.49,3.19,1.49,3.62,4.68,4.04,5.11,7.02,5.53,6.38,,,,,,,,,,,,,,
1799999993471810090,2027-01-15T07:59:53.471810090Z,-2.13,1.28,-1.06,0.43,0.64,3.40,1.28,3.19,5.74,3.62,6.17,6.17,5.11,8.72,,,,,,,,,,,,,,
1799999993486646885,2027-01-15T07:59:53.486646885Z,-2.55,0.00,0.43,-0.21,1.91,1.70,2.77,3.83,4.68,3.83,4.47,7.87,4.47,7.02,,,,,,,,,,,,,,
1799999993501483680,2027-01-15T07:59:53.501483680Z,-0.64,-0.21,0.00,0.85,2.55,0.85,3.83,3.83,3.40,4.04,4.47,7.45,4.89,6.60,,,,,,,,,,,,,,
1799999993516320475,2027-01-15T07:59:53.516320475Z,-0.85,-0.85,-0.64,-0.64,0.64,1.49,4.04,2.34,3.19,4.47,5.74,5.74,6.38,6.38,,,,,,,,,,,,,,
1799999993531157271,2027-01-15T07:59:53.531157271Z,-0.21,-0.85,-0.64,-1.49,1.49,2.13,1.28,1.70,4.47,4.26,5.53,5.96,7.66,5.53,,,,,,,,,,,,,,
1799999993545994066,2027-01-15T07:59:53.545994066Z,-1.91,-0.85,0.21,0.85,1.91,1.28,1.70,2.34,5.32,3.62,4.68,5.96,7.87,6.60,,,,,,,,,,,,,,
1799999993560830861,2027-01-15T07:59:53.560830861Z,-0.21,-0.64,-0.43,1.49,2.34,0.21,1.49,4.26,4.26,2.98,5.74,4.89,7.23,7.87,,,,,,,,,,,,,,
1799999993575667656,2027-01-15T07:59:53.575667656Z,-0.43,0.21,-0.64,0.85,0.85,-0.43,1.49,2.98,3.62,3.62,6.38,5.53,7.02,7.87,,,,,,,,,,,,,,
1799999993590504452,2027-01-15T07:59:53.590504452Z,-0.21,-0.43,-0.21,-0.64,0.00,0.64,4.04,2.77,3.62,5.32,2.13,8.51,5.11,7.45,,,,,,,,,,,,,,
1799999993605341247,2027-01-15T07:59:53.605341247Z,-0.85,-0.64,0.21,-0.64,0.85,1.28,3.83,2.98,2.77,5.96,2.77,8.30,6.17,5.96,,,,,,,,,,,,,,
1799999993620178042,2027-01-15T07:59:53.620178042Z,0.00,-1.28,-0.43,0.00,2.77,2.55,2.98,2.98,2.77,5.11,5.53,6.60,7.45,8.94,,,,,,,,,,,,,,
1799999993635014837,2027-01-15T07:59:53.635014837Z,-0.85,-0.85,0.00,0.85,2.55,3.19,5.32,2.34,3.62,5.11,4.89,6.38,6.17,9.79,,,,,,,,,,,,,,
1799999993649851633,2027-01-15T07:59:53.649851633Z,-1.28,-0.21,1.06,0.21,2.55,3.40,6.17,2.34,4.04,5.32,4.47,6.17,6.81,8.09,,,,,,,,,,,,,,
1799999993664688428,2027-01-15T07:59:53.664688428Z,-0.43,-0.21,-0.21,1.28,2.98,1.49,6.38,3.83,2.34,5.32,3.40,5.74,7.66,7.87,,,,,,,,,,,,,,
1799999993679525223,2027-01-15T07:59:53.679525223Z,,-0.64,-0.43,-0.43,2.34,0.64,4.26,2.34,1.49,5.32,3.40,5.32,7.02,7.02,,,,,,,,,,,,,,
1799999993694362018,2027-01-15T07:59:53.694362018Z,0.00,-1.70,-0.21,0.21,0.64,0.85,3.83,3.19,4.89,5.11,5.53,6.17,6.60,8.09,,,,,,,,,,,,,,
1799999993709198814,2027-01-15T07:59:53.709198814Z,-0.43,-1.06,-1.06,2.55,-0.85,0.64,3.40,4.04,4.68,4.89,5.96,6.60,6.81,8.30,,,,,,,,,,,,,,
1799999993724035609,2027-01-15T07:59:53.724035609Z,-0.85,0.43,0.43,1.06,1.06,0.64,3.19,5.32,4.89,4.89,6.60,6.81,7.87,5.74,,,,,,,,,,,,,,
1799999993738872404,2027-01-15T07:59:53.738872404Z,-0.43,1.49,1.49,1.91,2.98,2.98,2.98,3.40,4.68,4.89,5.11,4.26,6.60,5.32,,,,,,,,,,,,,,
1799999993753709199,2027-01-15T07:59:53.753709199Z,-0.43,0.43,0.64,0.85,1.91,3.40,2.77,2.77,4.04,4.89,4.47,3.19,5.53,5.74,,,,,,,,,,,,,,
1799999993768545995,2027-01-15T07:59:53.768545995Z,0.43,-0.64,-0.64,0.21,0.85,1.91,3.19,1.28,4.68,4.89,4.89,4.26,5.74,7.02,,,,,,,,,,,,,,
1799999993783382790,2027-01-15T07:59:53.783382790Z,-0.85,0.00,-2.98,-0.64,1.49,2.98,4.04,0.85,4.47,4.89,6.17,5.53,6.60,6.81,,,,,,,,,,,,,,
1799999993798219585,2027-01-15T07:59:53.798219585Z,-1.06,0.43,-2.77,-0.64,1.28,2.55,4.47,3.19,4.68,5.32,5.32,5.96,5.11,6.60,,,,,,,,,,,,,,
1799999993813056380,2027-01-15T07:59:53.813056380Z,0.64,-1.49,-2.13,-0.43,0.43,1.70,4.04,5.11,5.53,5.96,5.11,5.74,6.38,6.81,,,,,,,,,,,,,,
1799999993827893176,2027-01-15T07:59:53.827893176Z,-1.28,-1.06,0.00,-1.06,0.85,2.13,1.49,4.04,3.83,5.96,6.38,6.60,6.60,6.60,,,,,,,,,,,,,,
1799999993842729971,2027-01-15T07:59:53.842729971Z,-0.43,-0.21,1.06,-0.85,1.28,2.98,2.13,3.83,2.98,5.32,6.81,7.45,7.02,6.81,,,,,,,,,,,,,,
1799999993857566766,2027-01-15T07:59:53.857566766Z,-0.64,-0.64,-0.21,0.43,1.49,3.40,2.13,2.34,4.68,5.11,5.74,5.74,7.87,6.60,,,,,,,,,,,,,,
1799999993872403561,2027-01-15T07:59:53.872403561Z,-0.64,-1.06,-1.49,1.28,1.91,2.77,2.55,2.98,3.62,4.26,6.17,7.02,7.66,6.38,,,,,,,,,,,,,,
1799999993887240357,2027-01-15T07:59:53.887240357Z,0.64,0.43,-1.06,1.49,1.06,2.34,3.40,4.04,4.26,3.62,5.32,8.30,7.23,6.81,,,,,,,,,,,,,,
1799999993902077152,2027-01-15T07:59:53.902077152Z,,-0.64,0.00,1.06,1.49,0.85,1.91,3.62,1.49,4.04,3.19,6.60,7.02,7.23,,,,,,,,,,,,,,
1799999993916913947,2027-01-15T07:59:53.916913947Z,-0.85,-1.70,1.49,1.49,1.91,1.70,1.91,2.34,2.55,3.83,4.26,5.32,7.02,8.09,,,,,,,,,,,,,,
1799999993931750742,2027-01-15T07:59:53.931750742Z,-1.70,-1.06,1.06,-0.21,1.49,1.91,2.98,1.70,3.62,4.26,5.32,5.74,7.02,8.51,,,,,,,,,,,,,,
1799999993946587538,2027-01-15T07:59:53.946587538Z,-1.70,0.00,0.64,-0.85,0.85,1.49,3.62,1.49,2.55,5.11,4.68,5.32,5.96,8.51,,,,,,,,,,,,,,
1799999993961424333,2027-01-15T07:59:53.961424333Z,-1.49,-0.64,-0.21,0.00,1.06,3.83,3.83,2.13,2.98,4.68,5.11,4.89,6.17,8.30,,,,,,,,,,,,,,
1799999993976261128,2027-01-15T07:59:53.976261128Z,-0.21,0.21,0.85,1.06,0.43,2.77,2.55,2.77,3.83,4.26,7.02,5.53,7.02,8.94,,,,,,,,,,,,,,
1799999993991097923,2027-01-15T07:59:53.991097923Z,0.64,0.43,-0.64,1.06,1.70,2.55,2.13,3.19,3.62,4.68,6.60,7.66,5.96,7.87,,,,,,,,,,,,,,
1799999994005934719,2027-01-15T07:59:54.005934719Z,-2.34,-0.21,-0.85,1.70,0.64,2.77,3.40,4.47,3.19,5.53,5.96,6.81,5.11,6.17,,,,,,,,,,,,,,
1799999994020771514,2027-01-15T07:59:54.020771514Z,-3.83,-0.64,1.28,1.06,-0.64,2.13,2.98,3.62,3.83,5.32,5.32,4.68,6.17,6.60,,,,,,,,,,,,,,
1799999994035608309,2027-01-15T07:59:54.035608309Z,-1.49,-0.43,0.21,0.00,-0.21,1.91,2.34,2.13,3.62,4.89,5.32,4.68,6.17,7.02,,,,,,,,,,,,,,
1799999994050445104,2027-01-15T07:59:54.050445104Z,-0.85,-0.64,-1.49,0.21,2.55,2.55,3.83,3.40,3.83,4.26,6.38,7.23,5.74,7.45,,,,,,,,,,,,,,
1799999994065281900,2027-01-15T07:59:54.065281900Z,-0.85,-0.64,-0.85,0.85,1.70,3.19,2.98,3.62,4.26,5.32,5.96,7.23,4.89,7.66,,,,,,,,,,,,,,
1799999994080118695,2027-01-15T07:59:54.080118695Z,0.43,0.00,0.64,1.49,1.06,2.55,1.70,2.98,4.47,4.68,4.04,6.60,5.11,8.09,,,,,,,,,,,,,,
1799999994094955490,2027-01-15T07:59:54.094955490Z,1.28,-1.28,-0.21,0.64,3.19,1.70,1.28,3.83,5.11,4.04,5.11,6.17,5.32,8.30,,,,,,,,,,,,,,
1799999994109792285,2027-01-15T07:59:54.109792285Z,1.28,-0.43,-1.06,0.64,2.34,2.13,2.55,4.89,5.11,4.68,5.32,7.23,5.96,7.02,,,,,,,,,,,,,,
1799999994124629081,2027-01-15T07:59:54.124629081Z,-0.85,0.85,-0.64,0.64,0.21,1.49,2.34,5.32,3.40,4.89,3.40,7.23,6.38,6.17,,,,,,,,,,,,,,
1799999994139465876,2027-01-15T07:59:54.139465876Z,-0.21,0.43,0.43,1.28,0.64,1.70,0.00,2.77,1.28,4.68,5.96,7.45,6.81,7.23,,,,,,,,,,,,,,
1799999994154302671,2027-01-15T07:59:54.154302671Z,1.49,-0.21,1.06,-0.64,0.43,2.77,0.21,3.19,1.70,5.11,6.38,7.87,6.17,6.81,,,,,,,,,,,,,,
1799999994169139466,2027-01-15T07:59:54.169139466Z,-0.21,-2.34,1.49,-0.43,0.85,2.55,-0.43,2.98,3.40,4.68,5.53,6.38,6.38,7.45,,,,,,,,,,,,,,
1799999994183976262,2027-01-15T07:59:54.183976262Z,0.21,-2.77,1.70,1.06,0.64,0.85,0.43,2.55,4.26,4.26,4.47,5.74,6.81,8.30,,,,,,,,,,,,,,
1799999994198813057,2027-01-15T07:59:54.198813057Z,-2.77,-1.49,0.85,1.28,0.85,1.91,0.85,4.26,5.32,3.62,4.47,5.74,6.81,5.96,,,,,,,,,,,,,,
1799999994213649852,2027-01-15T07:59:54.213649852Z,-0.85,-1.49,-0.43,0.43,-0.21,1.49,2.13,3.40,3.83,3.62,5.32,4.89,7.45,6.17,,,,,,,,,,,,,,
1799999994228486647,2027-01-15T07:59:54.228486647Z,1.28,-1.28,0.21,-0.43,-0.85,0.85,2.98,2.77,3.19,4.68,4.89,5.96,6.81,8.09,,,,,,,,,,,,,,
1799999994243323443,2027-01-15T07:59:54.243323443Z,-1.06,-1.28,-0.85,0.00,-0.21,1.91,2.55,3.19,3.19,4.89,5.11,7.02,6.60,8.30,,,,,,,,,,,,,,
1799999994258160238,2027-01-15T07:59:54.258160238Z,-0.64,-0.64,0.00,-0.21,1.06,2.98,2.13,3.83,3.62,4.68,6.38,5.53,7.23,8.51,,,,,,,,,,,,,,
1799999994272997033,2027-01-15T07:59:54.272997033Z,-0.64,0.00,1.49,1.06,1.91,2.98,2.13,2.77,4.04,4.47,5.96,5.96,6.60,8.51,,,,,,,,,,,,,,
1799999994287833828,2027-01-15T07:59:54.287833828Z,-2.77,-0.43,0.21,1.49,2.77,2.98,5.11,2.13,4.26,4.04,4.26,6.60,7.02,7.66,,,,,,,,,,,,,,
1799999994302670624,2027-01-15T07:59:54.302670624Z,-3.83,-0.64,0.64,1.06,2.55,1.06,3.83,1.70,3.83,5.11,4.04,6.38,7.02,8.09,,,,,,,,,,,,,,
1799999994317507419,2027-01-15T07:59:54.317507419Z,-2.13,0.00,-0.64,1.49,1.06,1.91,2.98,2.98,3.40,5.11,3.62,4.68,6.60,8.30,,,,,,,,,,,,,,
1799999994332344214,2027-01-15T07:59:54.332344214Z,-2.13,-0.64,-1.49,1.91,1.28,2.55,3.83,2.98,2.55,4.04,4.89,5.53,6.81,7.02,,,,,,,,,,,,,,
1799999994347181009,2027-01-15T07:59:54.347181009Z,-0.85,-1.28,0.43,1.70,1.06,2.13,4.47,0.43,2.98,3.62,6.60,5.53,8.09,5.32,,,,,,,,,,,,,,
1799999994362017805,2027-01-15T07:59:54.362017805Z,0.85,-0.64,0.64,0.43,2.55,1.06,4.68,0.64,3.40,5.11,6.38,5.53,7.23,7.45,,,,,,,,,,,,,,
1799999994376854600,2027-01-15T07:59:54.376854600Z,-0.64,-0.43,0.64,-0.43,2.34,-0.21,4.47,3.83,4.04,5.74,7.02,5.32,7.02,8.30,,,,,,,,,,,,,,
1799999994391691395,2027-01-15T07:59:54.391691395Z,-0.21,-1.28,-0.21,-0.21,1.70,1.28,3.83,4.47,4.47,4.68,6.60,4.26,7.66,5.53,,,,,,,,,,,,,,
1799999994406528190,2027-01-15T07:59:54.406528190Z,-1.49,-1.06,-0.64,0.00,1.28,1.70,3.19,3.62,4.04,4.89,5.53,5.53,6.38,7.02,,,,,,,,,,,,,,
1799999994421364986,2027-01-15T07:59:54.421364986Z,0.85,0.43,1.49,1.70,0.85,0.85,1.49,2.98,4.04,3.83,4.68,7.23,5.53,8.09,,,,,,,,,,,,,,
1799999994436201781,2027-01-15T07:59:54.436201781Z,0.21,0.43,0.85,1.70,0.85,1.49,2.34,1.91,3.83,3.83,5.32,7.87,5.53,7.02,,,,,,,,,,,,,,
1799999994451038576,2027-01-15T07:59:54.451038576Z,0.21,-0.64,-0.43,1.06,3.19,1.49,2.98,2.34,4.04,5.53,6.38,7.23,6.81,6.17,,,,,,,,,,,,,,
1799999994465875371,2027-01-15T07:59:54.465875371Z,-1.28,-1.70,-2.34,1.28,3.83,2.13,2.98,2.98,4.68,5.53,7.02,6.38,7.66,6.38,,,,,,,,,,,,,,
1799999994480712167,2027-01-15T07:59:54.480712167Z,-1.28,-1.28,-1.91,1.06,3.19,1.70,2.55,2.13,4.47,5.32,7.87,5.53,7.02,5.53,,,,,,,,,,,,,,
1799999994495548962,2027-01-15T07:59:54.495548962Z,0.43,-0.21,-0.21,1.49,2.55,1.91,1.49,2.77,5.11,5.53,6.17,5.11,6.17,6.81,,,,,,,,,,,,,,
1799999994510385757,2027-01-15T07:59:54.510385757Z,-2.13,-0.64,0.00,2.34,2.34,2.55,3.19,2.77,5.74,3.83,5.32,6.17,6.60,7.45,,,,,,,,,,,,,,
1799999994525222552,2027-01-15T07:59:54.525222552Z,-1.91,-1.28,-1.28,0.64,1.49,2.13,4.04,2.13,5.53,3.40,5.96,7.23,6.81,8.30,,,,,,,,,,,,,,
1799999994540059348,2027-01-15T07:59:54.540059348Z,-1.49,0.43,-1.91,0.85,1.70,1.70,2.77,1.49,4.68,4.68,6.60,6.81,6.60,8.09,,,,,,,,,,,,,,
1799999994554896143,2027-01-15T07:59:54.554896143Z,-1.91,1.06,-0.85,1.49,2.13,1.49,3.83,3.19,4.89,4.04,7.45,6.60,7.02,7.02,,,,,,,,,,,,,,
1799999994569732938,2027-01-15T07:59:54.569732938Z,-3.19,0.00,0.21,0.00,1.49,1.70,2.77,4.04,4.47,4.47,6.81,6.60,6.60,6.38,,,,,,,,,,,,,,
1799999994584569733,2027-01-15T07:59:54.584569733Z,-1.49,-0.21,0.00,0.00,1.49,1.70,3.62,4.26,3.19,5.32,5.74,6.81,5.74,6.17,,,,,,,,,,,,,,
1799999994599406529,2027-01-15T07:59:54.599406529Z,0.85,0.85,0.85,0.21,0.43,1.70,5.11,4.04,3.40,5.11,6.81,6.17,6.60,8.09,,,,,,,,,,,,,,
1799999994614243324,2027-01-15T07:59:54.614243324Z,-0.21,0.00,0.43,-0.43,1.49,2.34,5.32,3.19,3.83,4.68,5.74,5.96,7.23,7.87,,,,,,,,,,,,,,
1799999994629080119,2027-01-15T07:59:54.629080119Z,-1.28,0.21,-0.85,0.00,2.77,2.55,4.26,2.34,2.98,5.11,4.68,6.17,6.38,8.30,,,,,,,,,,,,,,
1799999994643916914,2027-01-15T07:59:54.643916914Z,1.06,0.85,-2.55,-1.06,2.55,2.77,1.91,3.62,2.55,7.02,3.62,8.09,4.89,7.45,,,,,,,,,,,,,,
1799999994658753710,2027-01-15T07:59:54.658753710Z,-0.85,-0.21,-2.13,-0.43,1.28,3.19,2.13,3.40,3.83,5.96,3.83,7.45,5.32,6.38,,,,,,,,,,,,,,
1799999994673590505,2027-01-15T07:59:54.673590505Z,-1.28,-2.77,-1.49,0.64,0.21,1.28,2.77,2.77,4.04,5.11,3.83,6.17,6.38,7.45,,,,,,,,,,,,,,
1799999994688427300,2027-01-15T07:59:54.688427300Z,-1.28,-2.13,-2.55,-0.64,0.21,1.06,3.62,2.55,3.62,5.96,4.68,5.53,5.96,7.02,,,,,,,,,,,,,,
1799999994703264095,2027-01-15T07:59:54.703264095Z,0.00,0.43,-1.28,-1.06,1.49,1.49,3.62,1.91,4.04,4.89,5.53,7.23,6.81,7.87,,,,,,,,,,,,,,
1799999994718100891,2027-01-15T07:59:54.718100891Z,-1.06,0.64,0.43,0.21,0.21,1.06,3.19,2.98,4.26,3.19,5.74,7.02,7.45,7.66,,,,,,,,,,,,,,
1799999994732937686,2027-01-15T07:59:54.732937686Z,-1.28,0.00,1.06,0.64,1.28,1.91,4.26,4.04,4.26,3.83,5.74,6.81,8.72,6.38,,,,,,,,,,,,,,
1799999994747774481,2027-01-15T07:59:54.747774481Z,-0.64,-1.91,0.21,1.06,1.91,1.49,3.62,3.62,3.83,4.68,5.53,7.23,7.87,7.02,,,,,,,,,,,,,,
1799999994762611276,2027-01-15T07:59:54.762611276Z,-2.13,-1.70,-0.21,0.43,0.85,1.28,2.34,3.83,4.26,5.96,4.89,6.81,6.38,7.45,,,,,,,,,,,,,,
1799999994777448072,2027-01-15T07:59:54.777448072Z,-2.13,-1.49,0.43,1.06,0.85,1.70,1.70,2.98,5.11,5.53,4.68,6.60,7.23,6.38,,,,,,,,,,,,,,
1799999994792284867,2027-01-15T07:59:54.792284867Z,-1.49,-0.85,0.21,1.49,1.06,1.06,2.77,3.83,4.47,3.62,5.32,6.38,6.17,7.02,,,,,,,,,,,,,,
1799999994807121662,2027-01-15T07:59:54.807121662Z,0.21,-0.21,-0.43,0.64,1.70,2.55,2.77,2.98,4.89,4.47,5.96,5.11,5.32,6.60,,,,,,,,,,,,,,
1799999994821958457,2027-01-15T07:59:54.821958457Z,-0.85,0.64,0.21,1.49,2.13,3.19,2.34,2.13,5.11,3.83,5.32,4.68,5.74,7.23,,,,,,,,,,,,,,
1799999994836795253,2027-01-15T07:59:54.836795253Z,0.85,-0.85,1.49,0.85,0.85,2.77,2.55,2.77,4.47,3.19,5.53,5.32,7.23,5.74,,,,,,,,,,,,,,
1799999994851632048,2027-01-15T07:59:54.851632048Z,-0.85,0.43,1.49,0.21,1.28,2.55,2.55,2.55,4.26,4.47,5.11,5.53,7.23,5.11,,,,,,,,,,,,,,
1799999994866468843,2027-01-15T07:59:54.866468843Z,-0.21,-0.64,0.43,-0.21,0.85,3.40,2.77,2.98,3.19,4.89,4.47,6.60,5.53,6.60,,,,,,,,,,,,,,
1799999994881305638,2027-01-15T07:59:54.881305638Z,-0.21,-1.70,1.06,0.21,-0.64,2.77,2.34,1.91,3.40,5.32,3.62,6.17,4.26,7.45,,,,,,,,,,,,,,
1799999994896142434,2027-01-15T07:59:54.896142434Z,-0.64,-0.64,0.64,0.64,1.06,2.13,1.91,3.62,3.62,4.68,3.19,5.74,4.04,9.15,,,,,,,,,,,,,,
1799999994910979229,2027-01-15T07:59:54.910979229Z,-1.70,-0.21,1.28,0.64,1.70,1.49,2.34,4.68,2.77,5.96,4.26,5.32,4.68,7.66,,,,,,,,,,,,,,
1799999994925816024,2027-01-15T07:59:54.925816024Z,-1.49,-0.21,0.43,1.70,1.28,1.91,3.62,5.53,4.04,5.74,5.11,5.11,5.74,6.60,,,,,,,,,,,,,,
1799999994940652819,2027-01-15T07:59:54.940652819Z,-1.06,-0.85,0.64,-0.21,-0.64,2.55,2.34,4.89,3.83,3.62,6.17,4.89,5.96,7.87,,,,,,,,,,,,,,
1799999994955489615,2027-01-15T07:59:54.955489615Z,-0.43,-0.21,1.28,-0.43,0.85,1.91,2.34,3.83,3.19,3.83,5.32,5.96,6.81,7.87,,,,,,,,,,,,,,
1799999994970326410,2027-01-15T07:59:54.970326410Z,-2.77,-0.64,0.21,0.64,1.70,0.85,3.40,3.40,3.40,3.40,4.89,6.60,6.60,8.72,,,,,,,,,,,,,,
1799999994985163205,2027-01-15T07:59:54.985163205Z,-1.70,-1.06,0.85,2.13,1.70,2.55,5.53,3.83,4.04,4.04,4.04,5.96,7.66,8.30,,,,,,,,,,,,,,
1799999995000000000,2027-01-15T07:59:55.000000000Z,1.70,-2.34,1.28,0.43,0.43,2.55,5.96,3.19,2.77,5.32,3.62,7.02,6.60,5.74,,,,,,,,,,,,,,
1799999995014836796,2027-01-15T07:59:55.014836796Z,0.00,-0.85,0.64,-0.21,1.06,2.34,1.91,2.55,3.19,4.68,4.89,6.60,4.68,5.96,,,,,,,,,,,,,,
1799999995029673591,2027-01-15T07:59:55.029673591Z,-2.55,0.64,-1.70,0.85,1.49,1.91,1.06,1.28,3.62,4.04,6.60,5.96,5.96,7.87,,,,,,,,,,,,,,
1799999995044510386,2027-01-15T07:59:55.044510386Z,-0.43,1.49,-2.34,0.43,1.28,1.91,0.85,2.55,3.40,3.40,7.23,7.23,6.81,9.15,,,,,,,,,,,,,,
1799999995059347182,2027-01-15T07:59:55.059347182Z,-0.43,-0.85,-2.13,-0.64,1.49,2.55,1.91,3.40,4.04,3.83,7.02,6.81,7.02,8.30,,,,,,,,,,,,,,
1799999995074183977,2027-01-15T07:59:55.074183977Z,-0.43,-0.85,-1.49,0.00,0.21,2.98,2.34,1.91,3.62,5.11,5.96,5.96,5.96,7.87,,,,,,,,,,,,,,
1799999995089020772,2027-01-15T07:59:55.089020772Z,-0.21,0.21,-0.21,0.64,0.64,2.13,2.34,3.19,4.47,5.53,5.32,6.81,7.02,9.36,,,,,,,,,,,,,,
1799999995103857567,2027-01-15T07:59:55.103857567Z,1.28,0.00,0.00,1.06,1.06,1.28,1.91,2.77,4.47,4.89,4.89,6.17,6.60,9.36,,,,,,,,,,,,,,
1799999995118694363,2027-01-15T07:59:55.118694363Z,-0.85,-0.85,0.21,1.49,1.06,0.64,0.21,2.34,5.32,4.89,5.11,5.96,6.38,7.02,,,,,,,,,,,,,,
1799999995133531158,2027-01-15T07:59:55.133531158Z,-0.21,-1.49,-0.43,1.28,1.49,1.06,0.43,2.98,5.53,4.68,7.23,6.60,7.02,5.53,,,,,,,,,,,,,,
1799999995148367953,2027-01-15T07:59:55.148367953Z,0.43,-1.28,-0.43,0.43,1.28,1.28,3.19,3.83,5.11,5.11,6.60,5.32,6.81,5.32,,,,,,,,,,,,,,
1799999995163204748,2027-01-15T07:59:55.163204748Z,-1.06,-0.85,-1.49,0.00,0.64,1.91,3.40,4.04,4.04,5.32,5.74,5.53,6.60,6.17,,,,,,,,,,,,,,
1799999995178041544,2027-01-15T07:59:55.178041544Z,-2.98,-0.21,-1.49,-0.43,2.13,2.98,3.62,3.40,4.04,7.23,4.26,5.53,6.60,8.09,,,,,,,,,,,,,,
1799999995192878339,2027-01-15T07:59:55.192878339Z,-1.91,1.28,-1.28,0.00,3.19,3.40,1.70,3.19,3.19,6.17,4.68,5.32,6.60,8.51,,,,,,,,,,,,,,
1799999995207715134,2027-01-15T07:59:55.207715134Z,-2.13,1.28,-1.70,0.64,2.98,2.13,2.34,2.55,4.04,2.55,7.02,6.60,6.38,8.94,,,,,,,,,,,,,,
1799999995222551929,2027-01-15T07:59:55.222551929Z,-1.06,1.06,-2.13,1.49,0.64,2.34,3.83,2.13,5.32,4.89,7.45,7.02,6.17,8.09,,,,,,,,,,,,,,
1799999995237388725,2027-01-15T07:59:55.237388725Z,-0.85,-0.21,-0.85,0.21,1.28,3.83,2.98,2.13,2.34,5.11,6.17,4.68,8.09,7.87,,,,,,,,,,,,,,
1799999995252225520,2027-01-15T07:59:55.252225520Z,0.21,-0.64,-0.64,0.64,1.70,3.62,2.13,2.13,2.34,4.26,6.60,5.32,7.87,8.30,,,,,,,,,,,,,,
1799999995267062315,2027-01-15T07:59:55.267062315Z,1.06,-0.64,-1.28,1.28,1.06,3.40,1.06,2.34,2.98,4.04,5.96,6.17,7.45,7.23,,,,,,,,,,,,,,
1799999995281899110,2027-01-15T07:59:55.281899110Z,1.28,-1.28,-1.49,0.00,0.64,3.19,2.98,3.19,1.91,3.40,5.32,6.17,7.87,6.60,,,,,,,,,,,,,,
1799999995296735906,2027-01-15T07:59:55.296735906Z,0.21,0.43,1.28,0.00,1.91,3.19,3.62,3.62,4.04,3.40,5.74,5.96,8.30,7.45,,,,,,,,,,,,,,
1799999995311572701,2027-01-15T07:59:55.311572701Z,-0.21,0.43,0.43,-0.85,1.91,2.77,4.47,3.19,4.47,4.68,6.60,7.23,7.23,8.30,,,,,,,,,,,,,,
1799999995326409496,2027-01-15T07:59:55.326409496Z,-1.70,-0.64,-1.06,-1.06,2.34,3.62,4.04,2.98,3.83,4.89,4.89,7.87,5.53,8.30,,,,,,,,,,,,,,
1799999995341246291,2027-01-15T07:59:55.341246291Z,-2.13,-1.70,-0.85,0.64,1.91,3.62,2.98,3.19,2.98,5.11,4.47,7.45,4.26,7.87,,,,,,,,,,,,,,
1799999995356083087,2027-01-15T07:59:55.356083087Z,-0.85,-1.06,-1.28,2.77,0.64,2.34,2.98,4.47,3.40,3.83,4.89,7.02,4.89,7.87,,,,,,,,,,,,,,
1799999995370919882,2027-01-15T07:59:55.370919882Z,-0.64,-1.28,-1.06,0.64,1.49,2.98,2.77,4.89,4.89,3.83,5.32,8.30,5.96,7.87,,,,,,,,,,,,,,
1799999995385756677,2027-01-15T07:59:55.385756677Z,-0.21,-1.49,0.43,-0.21,0.64,2.55,3.19,4.47,5.11,5.32,5.74,5.53,5.74,6.17,,,,,,,,,,,,,,
1799999995400593472,2027-01-15T07:59:55.400593472Z,-1.28,-1.28,1.28,0.00,0.00,2.55,2.98,4.04,4.89,4.47,5.11,4.04,5.32,4.68,,,,,,,,,,,,,,
1799999995415430268,2027-01-15T07:59:55.415430268Z,0.85,-1.70,-0.64,1.28,0.00,3.19,2.55,3.19,4.47,4.89,4.47,5.96,6.17,5.32,,,,,,,,,,,,,,
1799999995430267063,2027-01-15T07:59:55.430267063Z,-1.06,-1.06,-1.70,0.85,1.06,2.55,2.98,2.77,4.04,6.81,4.89,6.17,6.60,6.17,,,,,,,,,,,,,,
1799999995445103858,2027-01-15T07:59:55.445103858Z,-0.64,0.21,-0.21,-0.64,0.00,1.70,2.13,3.19,4.04,5.11,5.32,6.17,6.17,7.45,,,,,,,,,,,,,,
1799999995459940653,2027-01-15T07:59:55.459940653Z,-1.70,-1.28,1.49,-0.64,1.06,2.98,2.13,2.55,4.04,4.89,5.74,6.60,7.66,7.02,,,,,,,,,,,,,,
1799999995474777449,2027-01-15T07:59:55.474777449Z,-0.64,-1.91,1.06,-0.21,2.55,2.55,2.55,4.26,3.40,3.40,5.96,6.60,7.23,6.81,,,,,,,,,,,,,,
1799999995489614244,2027-01-15T07:59:55.489614244Z,1.49,-0.43,1.06,1.49,1.06,2.13,4.47,5.32,3.19,2.55,6.17,6.60,8.72,6.81,,,,,,,,,,,,,,
1799999995504451039,2027-01-15T07:59:55.504451039Z,-1.70,-0.21,0.64,2.55,0.00,0.64,3.83,3.62,3.62,3.62,6.17,6.17,7.23,6.81,,,,,,,,,,,,,,
1799999995519287834,2027-01-15T07:59:55.519287834Z,-3.40,-1.06,0.64,1.49,0.64,0.21,2.34,3.62,2.55,4.47,5.96,5.32,5.74,6.17,,,,,,,,,,,,,,
1799999995534124630,2027-01-15T07:59:55.534124630Z,-1.06,-1.70,-0.21,1.28,2.55,0.00,3.83,2.77,2.98,2.98,5.53,6.81,4.89,5.74,,,,,,,,,,,,,,
1799999995548961425,2027-01-15T07:59:55.548961425Z,-1.28,-0.43,-0.85,-0.21,1.28,1.28,4.47,2.34,4.47,3.62,4.89,7.02,6.17,6.60,,,,,,,,,,,,,,
1799999995563798220,2027-01-15T07:59:55.563798220Z,-2.77,0.00,-0.64,0.43,1.28,1.91,2.13,2.13,6.38,4.47,5.11,7.23,6.60,8.30,,,,,,,,,,,,,,
1799999995578635015,2027-01-15T07:59:55.578635015Z,-3.40,0.64,-0.21,0.64,2.34,1.49,1.06,2.34,4.47,4.47,5.74,5.11,6.17,7.02,,,,,,,,,,,,,,
1799999995593471811,2027-01-15T07:59:55.593471811Z,-2.34,0.64,0.00,0.21,1.49,1.91,1.49,2.77,3.40,4.47,6.60,5.32,6.38,6.81,,,,,,,,,,,,,,
1799999995608308606,2027-01-15T07:59:55.608308606Z,-2.13,-1.28,-1.06,0.64,0.21,3.62,3.40,2.55,3.19,4.68,6.60,6.81,6.38,7.02,,,,,,,,,,,,,,
1799999995623145401,2027-01-15T07:59:55.623145401Z,-1.49,-1.70,0.00,-1.06,3.83,1.91,3.62,2.77,3.40,4.89,5.53,7.02,5.11,7.45,,,,,,,,,,,,,,
1799999995637982196,2027-01-15T07:59:55.637982196Z,-0.85,-1.06,0.00,0.00,5.32,1.06,2.55,1.91,4.47,4.04,4.89,7.23,5.53,6.60,,,,,,,,,,,,,,
1799999995652818992,2027-01-15T07:59:55.652818992Z,-2.34,0.43,-0.43,0.64,3.40,-0.85,2.13,3.40,4.47,3.40,4.68,6.38,5.74,6.60,,,,,,,,,,,,,,
1799999995667655787,2027-01-15T07:59:55.667655787Z,-2.77,1.91,1.49,-0.85,1.49,-0.64,3.83,4.89,4.26,5.32,6.17,6.81,7.02,6.81,,,,,,,,,,,,,,
1799999995682492582,2027-01-15T07:59:55.682492582Z,-1.49,1.06,-1.49,-0.64,2.77,1.70,2.55,3.19,4.89,6.81,5.96,6.38,8.09,6.60,,,,,,,,,,,,,,
1799999995697329377,2027-01-15T07:59:55.697329377Z,-1.06,0.64,-0.64,0.64,1.91,2.98,2.13,2.98,5.32,5.74,5.32,5.53,6.81,7.66,,,,,,,,,,,,,,
1799999995712166173,2027-01-15T07:59:55.712166173Z,-0.64,-1.28,-0.64,0.64,0.85,1.28,2.77,2.55,4.68,3.83,5.53,7.02,6.38,8.51,,,,,,,,,,,,,,
1799999995727002968,2027-01-15T07:59:55.727002968Z,0.85,-1.49,-0.64,0.43,1.06,0.64,4.04,1.91,4.26,4.26,5.32,8.72,5.53,8.51,,,,,,,,,,,,,,
1799999995741839763,2027-01-15T07:59:55.741839763Z,-1.28,-0.43,-0.43,1.49,1.28,1.70,2.77,2.34,4.68,4.26,4.68,7.02,5.96,7.23,,,,,,,,,,,,,,
1799999995756676558,2027-01-15T07:59:55.756676558Z,-2.13,-0.21,-0.43,1.70,3.19,2.55,1.91,2.77,4.68,5.11,5.53,6.17,6.38,6.17,,,,,,,,,,,,,,
1799999995771513354,2027-01-15T07:59:55.771513354Z,-1.91,-1.28,0.00,0.85,2.13,1.49,2.98,2.77,4.89,6.81,5.53,5.53,5.74,7.23,,,,,,,,,,,,,,
1799999995786350149,2027-01-15T07:59:55.786350149Z,1.49,-0.85,-0.64,2.34,2.55,0.64,4.04,3.83,5.11,5.11,5.53,5.32,5.11,7.45,,,,,,,,,,,,,,
1799999995801186944,2027-01-15T07:59:55.801186944Z,0.64,0.00,-0.85,0.21,3.19,0.21,4.68,4.47,3.19,5.11,5.11,4.68,7.23,6.38,,,,,,,,,,,,,,
1799999995816023739,2027-01-15T07:59:55.816023739Z,0.00,-1.49,0.00,-1.06,2.34,1.06,3.83,3.83,2.13,4.47,4.89,4.47,8.30,6.17,,,,,,,,,,,,,,
1799999995830860535,2027-01-15T07:59:55.830860535Z,0.21,-0.21,0.43,-1.06,2.13,1.49,2.77,2.77,2.98,3.62,5.11,6.81,7.87,6.81,,,,,,,,,,,,,,
1799999995845697330,2027-01-15T07:59:55.845697330Z,-0.43,-0.43,0.85,0.00,2.13,0.85,4.68,2.13,3.40,4.68,5.11,7.23,6.81,7.23,,,,,,,,,,,,,,
1799999995860534125,2027-01-15T07:59:55.860534125Z,0.21,-0.85,0.64,-0.21,1.70,0.85,4.89,2.34,3.62,5.74,5.53,6.81,7.45,8.51,,,,,,,,,,,,,,
1799999995875370920,2027-01-15T07:59:55.875370920Z,-0.43,-0.43,0.64,-1.06,0.43,0.43,2.55,2.98,3.40,4.47,4.68,5.53,7.87,7.87,,,,,,,,,,,,,,
1799999995890207716,2027-01-15T07:59:55.890207716Z,0.85,-0.21,0.00,-0.64,-0.21,3.19,3.83,3.40,3.19,3.40,5.53,4.89,7.23,8.51,,,,,,,,,,,,,,
1799999995905044511,2027-01-15T07:59:55.905044511Z,-0.64,-0.85,0.64,1.06,0.00,2.34,3.83,4.26,2.98,3.19,5.53,5.11,5.53,8.51,,,,,,,,,,,,,,
1799999995919881306,2027-01-15T07:59:55.919881306Z,-0.64,-1.49,0.43,0.64,3.19,1.28,2.13,2.34,3.19,4.89,4.89,5.96,6.38,8.94,,,,,,,,,,,,,,
1799999995934718101,2027-01-15T07:59:55.934718101Z,-1.70,-2.13,-0.85,0.64,4.26,2.55,1.28,0.00,2.98,5.53,5.11,6.38,6.38,7.02,,,,,,,,,,,,,,
1799999995949554897,2027-01-15T07:59:55.949554897Z,-1.28,-2.13,-0.85,1.28,2.77,4.04,1.06,2.13,4.04,5.32,4.68,6.17,5.96,4.89,,,,,,,,,,,,,,
1799999995964391692,2027-01-15T07:59:55.964391692Z,0.43,-1.49,-1.49,1.49,2.77,4.04,2.55,2.98,4.68,4.26,5.11,5.32,6.17,5.96,,,,,,,,,,,,,,
1799999995979228487,2027-01-15T07:59:55.979228487Z,0.00,-1.28,-0.64,1.49,0.43,2.77,4.04,1.91,5.74,5.53,4.47,6.38,6.81,7.23,,,,,,,,,,,,,,
1799999995994065282,2027-01-15T07:59:55.994065282Z,0.64,-0.43,-1.28,1.06,-0.85,1.06,4.26,2.55,3.62,5.11,5.11,6.60,7.02,8.51,,,,,,,,,,,,,,
1799999996008902078,2027-01-15T07:59:56.008902078Z,-1.28,0.85,-1.06,0.64,-1.70,1.28,1.49,1.49,2.55,4.89,5.11,5.32,6.60,7.66,,,,,,,,,,,,,,
1799999996023738873,2027-01-15T07:59:56.023738873Z,0.00,0.64,-0.21,0.21,0.21,2.34,-0.43,2.98,2.13,5.11,5.11,6.38,6.60,7.23,,,,,,,,,,,,,,
1799999996038575668,2027-01-15T07:59:56.038575668Z,-0.85,0.00,0.43,0.85,1.06,2.55,0.00,3.83,2.55,6.38,4.47,7.02,6.17,7.02,,,,,,,,,,,,,,
1799999996053412463,2027-01-15T07:59:56.053412463Z,-1.70,-0.43,0.00,0.21,1.70,0.64,0.21,3.62,4.47,5.74,5.11,7.45,5.96,7.45,,,,,,,,,,,,,,
1799999996068249259,2027-01-15T07:59:56.068249259Z,-1.91,0.64,-0.21,0.43,2.13,1.49,0.85,4.68,3.83,4.89,5.96,7.02,5.74,7.45,,,,,,,,,,,,,,
1799999996083086054,2027-01-15T07:59:56.083086054Z,0.64,1.49,-0.21,1.70,0.64,2.77,0.85,3.40,4.47,5.32,4.47,5.96,7.23,7.23,,,,,,,,,,,,,,
1799999996097922849,2027-01-15T07:59:56.097922849Z,-0.85,1.70,-0.21,1.91,0.00,1.91,0.85,3.83,5.11,4.68,4.68,5.96,7.87,8.51,,,,,,,,,,,,,,
1799999996112759644,2027-01-15T07:59:56.112759644Z,-0.85,0.00,0.43,1.91,-1.06,1.28,0.64,4.68,4.89,5.53,5.53,5.96,7.23,8.72,,,,,,,,,,,,,,
1799999996127596440,2027-01-15T07:59:56.127596440Z,-0.21,-1.28,0.00,0.43,0.21,1.06,1.28,4.89,3.40,5.96,5.96,6.17,5.32,7.23,,,,,,,,,,,,,,
1799999996142433235,2027-01-15T07:59:56.142433235Z,0.85,-0.85,0.21,0.21,0.64,2.13,3.83,4.26,2.98,4.89,4.89,5.74,5.53,5.96,,,,,,,,,,,,,,
1799999996157270030,2027-01-15T07:59:56.157270030Z,-0.43,-0.43,0.85,1.28,0.00,1.70,4.26,4.26,2.77,4.26,4.89,5.53,5.74,5.32,,,,,,,,,,,,,,
1799999996172106825,2027-01-15T07:59:56.172106825Z,0.43,-0.43,0.64,0.85,-0.21,1.49,3.62,3.83,4.26,5.11,5.74,6.60,6.60,4.68,,,,,,,,,,,,,,
1799999996186943621,2027-01-15T07:59:56.186943621Z,-1.70,-1.28,0.43,-0.43,1.28,3.40,2.55,2.34,3.40,4.89,5.74,5.96,7.02,4.68,,,,,,,,,,,,,,
1799999996201780416,2027-01-15T07:59:56.201780416Z,-1.70,-1.06,0.21,-0.43,1.28,3.62,5.32,4.04,3.62,4.04,5.32,5.32,5.74,6.17,,,,,,,,,,,,,,
1799999996216617211,2027-01-15T07:59:56.216617211Z,-1.49,-0.85,0.21,0.21,1.70,3.19,3.62,4.89,4.47,2.34,5.32,5.74,5.32,7.02,,,,,,,,,,,,,,
1799999996231454006,2027-01-15T07:59:56.231454006Z,-0.43,-0.64,1.06,-0.64,0.21,2.98,1.91,4.04,3.83,2.77,6.60,6.81,6.60,8.09,,,,,,,,,,,,,,
1799999996246290802,2027-01-15T07:59:56.246290802Z,0.00,-2.77,-0.85,-0.85,-0.85,2.34,2.77,4.26,4.47,4.04,5.53,6.17,6.17,8.51,,,,,,,,,,,,,,
1799999996261127597,2027-01-15T07:59:56.261127597Z,-1.06,-3.40,-1.06,-0.64,0.85,1.91,2.13,4.47,3.83,5.74,4.47,5.11,6.81,7.02,,,,,,,,,,,,,,
1799999996275964392,2027-01-15T07:59:56.275964392Z,-2.34,-1.91,-0.21,-1.06,1.49,2.77,2.55,3.62,4.04,6.38,5.11,5.53,7.66,7.02,,,,,,,,,,,,,,
1799999996290801187,2027-01-15T07:59:56.290801187Z,-1.70,0.00,0.43,-0.43,1.70,0.85,3.19,3.19,6.17,6.17,5.32,8.51,7.66,9.57,,,,,,,,,,,,,,
1799999996305637983,2027-01-15T07:59:56.305637983Z,0.00,-0.21,-0.64,0.00,0.85,0.21,2.13,2.98,5.96,5.11,4.89,7.87,6.60,9.36,,,,,,,,,,,,,,
1799999996320474778,2027-01-15T07:59:56.320474778Z,-1.28,0.00,-2.13,-0.64,0.85,1.06,2.13,2.98,4.89,3.83,4.68,7.23,6.38,8.94,,,,,,,,,,,,,,
1799999996335311573,2027-01-15T07:59:56.335311573Z,-1.49,0.00,-3.40,0.43,2.98,2.34,2.77,2.98,3.83,4.04,4.68,6.60,6.81,9.36,,,,,,,,,,,,,,
1799999996350148368,2027-01-15T07:59:56.350148368Z,-1.91,0.43,-2.55,0.64,0.85,2.13,2.55,3.40,2.77,4.26,5.32,4.68,7.45,7.02,,,,,,,,,,,,,,
1799999996364985164,2027-01-15T07:59:56.364985164Z,-0.21,0.21,-1.49,2.55,1.28,2.77,3.40,3.40,3.19,3.62,5.74,5.53,7.45,5.74,,,,,,,,,,,,,,
1799999996379821959,2027-01-15T07:59:56.379821959Z,1.28,-1.49,-0.21,2.13,2.13,4.04,3.19,2.13,2.13,4.89,4.89,5.53,6.81,7.02,,,,,,,,,,,,,,
1799999996394658754,2027-01-15T07:59:56.394658754Z,-0.64,-2.34,0.21,1.49,2.34,6.17,2.55,3.19,2.55,4.89,5.96,5.32,6.17,8.09,,,,,,,,,,,,,,
1799999996409495549,2027-01-15T07:59:56.409495549Z,0.85,-1.06,0.43,1.70,1.49,4.47,3.62,3.19,2.55,3.19,6.60,5.53,7.02,8.94,,,,,,,,,,,,,,
1799999996424332345,2027-01-15T07:59:56.424332345Z,-0.64,0.21,-0.43,2.55,1.28,1.06,2.55,2.13,3.83,3.83,5.74,5.32,7.23,10.21,,,,,,,,,,,,,,
1799999996439169140,2027-01-15T07:59:56.439169140Z,-0.21,0.43,0.00,1.49,0.85,-0.43,3.40,1.91,5.96,4.47,5.11,6.60,7.87,9.57,,,,,,,,,,,,,,
1799999996454005935,2027-01-15T07:59:56.454005935Z,-2.55,-0.21,0.43,0.85,0.21,-0.21,2.34,2.77,5.32,5.96,4.68,7.45,7.23,7.45,,,,,,,,,,,,,,
1799999996468842730,2027-01-15T07:59:56.468842730Z,-0.64,-2.98,-0.21,0.00,-0.85,-0.43,2.77,3.40,4.47,5.96,5.74,6.60,7.02,6.60,,,,,,,,,,,,,,
1799999996483679526,2027-01-15T07:59:56.483679526Z,0.64,-2.13,0.21,0.21,-1.28,-0.21,3.19,3.62,3.62,4.04,7.02,6.17,6.17,6.81,,,,,,,,,,,,,,
1799999996498516321,2027-01-15T07:59:56.498516321Z,-0.85,-0.21,0.43,1.49,-0.43,1.06,1.70,3.40,2.77,4.68,6.81,5.11,5.32,6.17,,,,,,,,,,,,,,
1799999996513353116,2027-01-15T07:59:56.513353116Z,-0.85,0.43,0.00,1.49,0.85,0.00,1.70,3.40,4.68,4.26,7.02,5.74,5.96,7.23,,,,,,,,,,,,,,
1799999996528189911,2027-01-15T07:59:56.528189911Z,0.43,0.00,0.00,1.49,0.00,0.43,1.91,2.34,4.47,4.47,5.32,6.81,8.51,7.87,,,,,,,,,,,,,,
1799999996543026707,2027-01-15T07:59:56.543026707Z,0.00,-0.85,-0.85,1.06,1.70,1.70,4.89,2.13,3.62,4.89,5.53,6.81,6.81,8.30,,,,,,,,,,,,,,
1799999996557863502,2027-01-15T07:59:56.557863502Z,-0.43,-1.06,-0.64,1.70,2.77,0.85,3.40,3.83,4.26,4.68,6.81,6.17,4.89,7.66,,,,,,,,,,,,,,
1799999996572700297,2027-01-15T07:59:56.572700297Z,-1.28,-1.28,0.21,0.00,2.55,0.64,1.70,4.68,4.68,4.04,6.81,5.74,5.74,6.81,,,,,,,,,,,,,,
1799999996587537092,2027-01-15T07:59:56.587537092Z,-0.85,-1.28,-0.21,0.21,1.91,0.85,3.40,3.62,4.26,2.77,5.96,5.11,6.81,7.02,,,,,,,,,,,,,,
1799999996602373888,2027-01-15T07:59:56.602373888Z,-0.64,-1.70,-1.06,1.91,3.62,2.77,3.19,2.34,3.40,4.04,5.32,6.38,6.81,7.87,,,,,,,,,,,,,,
1799999996617210683,2027-01-15T07:59:56.617210683Z,-0.85,-1.70,-0.43,0.64,2.77,3.40,3.83,2.55,2.98,4.47,5.53,7.02,5.96,7.87,,,,,,,,,,,,,,
1799999996632047478,2027-01-15T07:59:56.632047478Z,-0.85,-0.21,0.21,0.21,0.85,1.91,3.19,2.77,4.68,3.83,5.74,6.17,6.81,5.96,,,,,,,,,,,,,,
1799999996646884273,2027-01-15T07:59:56.646884273Z,-0.43,1.06,1.06,0.00,-0.64,2.55,1.06,0.85,5.11,4.04,5.53,7.02,8.30,6.17,,,,,,,,,,,,,,
1799999996661721069,2027-01-15T07:59:56.661721069Z,-1.91,0.64,0.43,0.85,1.06,2.98,2.34,3.19,3.83,4.26,4.68,7.66,7.87,5.11,,,,,,,,,,,,,,
1799999996676557864,2027-01-15T07:59:56.676557864Z,-1.70,0.00,-1.49,0.43,1.49,1.91,1.70,2.77,3.19,2.98,4.89,7.45,6.60,5.11,,,,,,,,,,,,,,
1799999996691394659,2027-01-15T07:59:56.691394659Z,0.00,-1.06,-0.64,0.43,0.85,2.77,0.64,1.06,3.19,4.04,5.11,6.81,6.17,7.45,,,,,,,,,,,,,,
1799999996706231455,2027-01-15T07:59:56.706231455Z,0.00,-1.70,0.85,0.00,1.06,2.55,1.06,1.91,1.91,5.32,5.74,6.60,5.32,7.87,,,,,,,,,,,,,,
1799999996721068250,2027-01-15T07:59:56.721068250Z,-0.64,-2.55,1.91,0.43,1.70,2.34,2.13,2.77,1.91,4.89,5.96,5.96,5.32,7.02,,,,,,,,,,,,,,
1799999996735905045,2027-01-15T07:59:56.735905045Z,-0.64,-1.70,-0.43,-0.21,4.68,2.55,1.91,2.55,3.19,5.74,5.96,5.53,5.11,4.26,,,,,,,,,,,,,,
1799999996750741840,2027-01-15T07:59:56.750741840Z,0.85,-0.21,-2.13,-1.28,3.19,1.91,3.19,2.77,3.19,6.38,5.74,5.96,5.11,5.11,,,,,,,,,,,,,,
1799999996765578636,2027-01-15T07:59:56.765578636Z,-1.28,0.43,0.00,-1.06,2.77,1.49,3.62,2.98,3.40,5.74,6.38,6.81,5.96,5.32,,,,,,,,,,,,,,
1799999996780415431,2027-01-15T07:59:56.780415431Z,-1.06,0.85,1.06,-0.21,2.98,2.13,4.04,2.77,2.13,4.89,5.32,6.60,5.74,5.96,,,,,,,,,,,,,,
1799999996795252226,2027-01-15T07:59:56.795252226Z,-1.28,-0.21,-0.43,0.00,1.91,1.70,4.47,3.19,3.62,5.32,5.11,6.17,5.96,7.02,,,,,,,,,,,,,,
1799999996810089021,2027-01-15T07:59:56.810089021Z,-1.49,-0.43,-0.43,0.64,2.77,1.70,3.83,3.83,4.04,4.89,5.74,5.96,6.38,7.66,,,,,,,,,,,,,,
1799999996824925817,2027-01-15T07:59:56.824925817Z,1.70,-0.21,0.64,0.64,2.13,2.13,3.83,3.83,4.89,4.89,5.74,5.96,5.96,7.87,,,,,,,,,,,,,,
1799999996839762612,2027-01-15T07:59:56.839762612Z,1.06,-0.43,0.00,0.43,0.43,1.49,2.77,2.55,4.89,5.11,5.11,6.38,7.23,6.17,,,,,,,,,,,,,,
1799999996854599407,2027-01-15T07:59:56.854599407Z,-2.13,-0.85,0.00,0.64,0.21,2.55,2.55,2.55,3.83,4.89,5.32,5.96,6.38,8.09,,,,,,,,,,,,,,
1799999996869436202,2027-01-15T07:59:56.869436202Z,-1.70,-0.85,0.21,0.43,0.00,1.91,2.55,2.55,2.13,5.11,5.32,5.53,5.53,9.15,,,,,,,,,,,,,,
1799999996884272998,2027-01-15T07:59:56.884272998Z,-1.70,-1.28,0.64,-0.43,-0.43,2.55,1.49,3.40,3.19,4.04,6.17,4.47,6.38,10.00,,,,,,,,,,,,,,
1799999996899109793,2027-01-15T07:59:56.899109793Z,-1.91,-1.28,1.28,-0.21,1.06,3.40,4.26,4.04,4.26,4.68,5.74,3.62,6.81,8.30,,,,,,,,,,,,,,
1799999996913946588,2027-01-15T07:59:56.913946588Z,0.43,-0.43,0.85,1.06,0.21,2.55,6.38,3.62,5.32,5.53,4.89,4.04,7.87,7.02,,,,,,,,,,,,,,
1799999996928783383,2027-01-15T07:59:56.928783383Z,0.00,0.00,-1.06,1.06,-0.43,1.06,4.47,2.55,6.60,4.26,4.47,5.74,5.96,6.60,,,,,,,,,,,,,,
1799999996943620179,2027-01-15T07:59:56.943620179Z,-0.64,0.64,-0.21,1.06,-0.64,3.40,3.62,2.55,5.96,5.11,4.47,6.17,4.89,6.81,,,,,,,,,,,,,,
1799999996958456974,2027-01-15T07:59:56.958456974Z,0.21,0.00,0.21,1.49,2.55,4.68,4.47,2.98,4.89,5.96,4.89,7.66,3.83,8.09,,,,,,,,,,,,,,
1799999996973293769,2027-01-15T07:59:56.973293769Z,-0.43,-1.28,1.28,0.21,4.04,4.47,4.04,2.13,5.32,5.96,4.47,6.81,4.68,8.09,,,,,,,,,,,,,,
1799999996988130564,2027-01-15T07:59:56.988130564Z,0.64,-0.43,-0.43,-0.85,1.06,2.34,2.98,1.91,5.32,4.89,4.47,6.38,5.74,8.30,,,,,,,,,,,,,,
1799999997002967360,2027-01-15T07:59:57.002967360Z,-0.43,0.64,-1.70,0.43,0.64,1.91,4.04,1.91,4.47,4.04,5.32,5.96,4.89,8.09,,,,,,,,,,,,,,
1799999997017804155,2027-01-15T07:59:57.017804155Z,0.43,0.85,-1.70,1.49,1.49,1.91,3.19,2.77,3.83,3.40,6.17,5.53,5.74,7.23,,,,,,,,,,,,,,
1799999997032640950,2027-01-15T07:59:57.032640950Z,-0.64,-0.43,-1.70,0.64,2.55,2.77,1.06,4.89,3.62,4.04,4.26,6.17,7.23,7.66,,,,,,,,,,,,,,
1799999997047477745,2027-01-15T07:59:57.047477745Z,-0.21,-1.49,-0.64,0.21,1.28,3.40,1.28,4.47,3.62,5.11,4.68,5.96,7.87,7.66,,,,,,,,,,,,,,
1799999997062314541,2027-01-15T07:59:57.062314541Z,-0.43,-1.28,-0.85,1.06,1.70,2.13,2.34,3.19,3.83,5.11,5.32,4.89,7.02,8.51,,,,,,,,,,,,,,
1799999997077151336,2027-01-15T07:59:57.077151336Z,-1.06,0.00,0.00,0.43,2.55,2.13,2.34,5.32,4.04,4.89,4.47,4.89,5.53,7.87,,,,,,,,,,,,,,
1799999997091988131,2027-01-15T07:59:57.091988131Z,-0.64,0.85,0.21,-0.64,2.77,2.34,1.70,5.53,4.47,4.26,5.32,7.23,6.81,7.23,,,,,,,,,,,,,,
1799999997106824926,2027-01-15T07:59:57.106824926Z,0.00,0.64,0.00,0.21,2.34,2.34,1.70,4.89,5.53,4.68,5.96,6.17,7.66,8.09,,,,,,,,,,,,,,
1799999997121661722,2027-01-15T07:59:57.121661722Z,-0.43,0.43,0.43,1.28,1.70,2.55,3.40,3.62,3.19,5.53,5.11,5.11,6.17,6.81,,,,,,,,,,,,,,
1799999997136498517,2027-01-15T07:59:57.136498517Z,-0.85,0.43,-0.43,1.28,1.91,1.28,3.83,3.40,3.19,5.96,4.47,5.32,7.02,5.32,,,,,,,,,,,,,,
1799999997151335312,2027-01-15T07:59:57.151335312Z,0.00,0.43,-0.85,1.49,1.70,1.28,3.19,4.47,2.98,5.74,4.47,6.60,7.87,7.23,,,,,,,,,,,,,,
1799999997166172107,2027-01-15T07:59:57.166172107Z,-0.85,0.00,-1.06,2.13,2.34,2.77,1.49,3.62,2.77,5.53,4.47,8.30,8.30,7.66,,,,,,,,,,,,,,
1799999997181008903,2027-01-15T07:59:57.181008903Z,0.43,-0.21,0.00,0.21,2.77,1.70,0.43,2.34,4.04,5.32,4.68,7.23,8.09,6.81,,,,,,,,,,,,,,
1799999997195845698,2027-01-15T07:59:57.195845698Z,-1.06,-0.64,-0.64,0.00,2.13,1.49,1.49,1.49,3.40,4.89,4.47,5.74,7.45,7.02,,,,,,,,,,,,,,
1799999997210682493,2027-01-15T07:59:57.210682493Z,-1.49,-1.28,-1.49,0.64,0.21,1.91,2.77,1.28,2.77,4.47,5.11,5.74,5.32,7.87,,,,,,,,,,,,,,
1799999997225519288,2027-01-15T07:59:57.225519288Z,-1.28,-2.34,-1.91,1.28,-0.43,1.49,2.34,1.28,4.26,4.47,7.02,7.02,6.38,8.30,,,,,,,,,,,,,,
1799999997240356084,2027-01-15T07:59:57.240356084Z,-2.55,-1.91,-0.21,0.43,-0.64,1.91,1.91,2.13,3.40,4.47,5.96,6.17,7.87,8.72,,,,,,,,,,,,,,
1799999997255192879,2027-01-15T07:59:57.255192879Z,-3.19,-2.55,1.06,0.00,-1.28,3.40,1.91,2.77,2.55,3.62,6.17,5.74,7.87,8.72,,,,,,,,,,,,,,
1799999997270029674,2027-01-15T07:59:57.270029674Z,-2.34,-1.28,-1.06,-1.49,0.21,2.77,3.19,3.19,3.40,4.04,6.17,6.81,8.51,7.87,,,,,,,,,,,,,,
1799999997284866469,2027-01-15T07:59:57.284866469Z,-1.28,-0.85,-0.43,0.00,1.70,2.77,3.83,2.34,4.47,4.89,5.53,5.96,6.38,7.45,,,,,,,,,,,,,,
1799999997299703265,2027-01-15T07:59:57.299703265Z,-2.34,-0.21,0.85,0.00,1.06,2.13,2.34,1.91,4.47,4.26,6.17,6.60,5.32,7.02,,,,,,,,,,,,,,
1799999997314540060,2027-01-15T07:59:57.314540060Z,-2.55,-0.85,1.28,-0.85,0.85,0.64,1.70,2.98,5.32,3.83,5.96,6.81,6.81,5.96,,,,,,,,,,,,,,
1799999997329376855,2027-01-15T07:59:57.329376855Z,-1.91,-1.70,0.21,1.28,0.21,2.55,3.62,2.98,5.74,4.04,5.32,7.66,5.96,7.23,,,,,,,,,,,,,,
1799999997344213650,2027-01-15T07:59:57.344213650Z,0.43,-1.06,-0.85,2.34,1.49,2.34,3.40,3.40,5.53,4.68,5.96,7.45,5.53,7.66,,,,,,,,,,,,,,
1799999997359050446,2027-01-15T07:59:57.359050446Z,-0.64,-1.06,-1.91,2.13,2.13,1.70,3.40,3.40,2.98,3.40,5.74,6.60,4.89,7.23,,,,,,,,,,,,,,
1799999997373887241,2027-01-15T07:59:57.373887241Z,-0.43,-1.28,-1.91,0.85,1.06,1.91,3.62,4.47,2.34,4.68,4.89,6.17,5.53,6.60,,,,,,,,,,,,,,
1799999997388724036,2027-01-15T07:59:57.388724036Z,0.43,0.43,-1.28,-0.43,0.21,1.91,2.34,5.74,3.40,4.89,5.74,5.32,6.17,5.53,,,,,,,,,,,,,,
1799999997403560831,2027-01-15T07:59:57.403560831Z,1.28,0.00,0.21,-0.21,1.06,3.19,2.77,3.40,3.83,3.62,5.53,4.68,6.38,6.81,,,,,,,,,,,,,,
1799999997418397627,2027-01-15T07:59:57.418397627Z,-0.85,-0.64,-0.64,1.28,1.70,3.83,3.83,2.34,3.83,4.26,5.11,4.89,6.81,6.81,,,,,,,,,,,,,,
1799999997433234422,2027-01-15T07:59:57.433234422Z,0.43,0.21,-0.43,0.00,1.91,1.28,3.62,2.34,3.83,4.26,4.26,6.38,6.81,6.60,,,,,,,,,,,,,,
1799999997448071217,2027-01-15T07:59:57.448071217Z,-4.47,-1.49,-0.21,2.13,1.70,1.06,1.70,4.26,4.26,5.11,5.96,5.53,5.74,7.45,,,,,,,,,,,,,,
1799999997462908012,2027-01-15T07:59:57.462908012Z,-2.77,-1.70,-1.28,2.98,2.34,1.49,1.28,4.89,2.98,6.17,7.02,5.32,5.74,6.60,,,,,,,,,,,,,,
1799999997477744808,2027-01-15T07:59:57.477744808Z,-0.21,-0.64,-0.21,0.64,2.13,3.62,3.40,4.26,3.40,5.32,6.38,7.02,5.32,6.60,,,,,,,,,,,,,,
1799999997492581603,2027-01-15T07:59:57.492581603Z,-1.28,-0.64,1.91,0.43,0.64,3.83,3.62,3.83,2.55,5.11,5.96,5.53,4.68,7.02,,,,,,,,,,,,,,
1799999997507418398,2027-01-15T07:59:57.507418398Z,-2.55,-0.21,1.49,1.49,-0.43,1.70,3.40,4.04,3.62,4.89,5.53,5.32,5.32,7.45,,,,,,,,,,,,,,
1799999997522255193,2027-01-15T07:59:57.522255193Z,-0.64,0.21,0.43,2.55,1.28,2.13,2.13,3.19,4.68,4.26,4.89,5.53,6.81,6.38,,,,,,,,,,,,,,
1799999997537091989,2027-01-15T07:59:57.537091989Z,-0.85,0.64,-1.06,2.55,2.34,2.34,2.55,2.55,4.68,3.83,5.74,5.11,7.45,7.45,,,,,,,,,,,,,,
1799999997551928784,2027-01-15T07:59:57.551928784Z,-1.70,-1.28,-1.28,1.49,3.40,1.91,5.11,3.83,4.47,4.04,6.60,6.17,7.87,7.66,,,,,,,,,,,,,,
1799999997566765579,2027-01-15T07:59:57.566765579Z,-0.85,-2.13,-0.21,0.43,2.98,0.43,4.04,4.68,4.68,5.32,5.32,5.53,7.02,7.45,,,,,,,,,,,,,,
1799999997581602374,2027-01-15T07:59:57.581602374Z,-1.06,-1.28,0.21,-1.28,2.34,0.21,2.34,4.89,4.04,4.47,4.89,5.96,6.38,8.09,,,,,,,,,,,,,,
1799999997596439170,2027-01-15T07:59:57.596439170Z,,-0.85,0.21,-1.49,3.40,1.70,2.77,5.32,2.34,4.26,5.11,6.38,8.51,8.51,,,,,,,,,,,,,,
1799999997611275965,2027-01-15T07:59:57.611275965Z,,-0.85,0.21,-0.85,3.62,2.34,2.77,4.68,1.70,4.26,5.32,5.96,7.23,7.23,,,,,,,,,,,,,,
1799999997626112760,2027-01-15T07:59:57.626112760Z,,-1.91,0.85,-0.21,1.28,1.06,3.19,2.98,3.19,4.04,5.11,5.96,5.74,6.81,,,,,,,,,,,,,,
1799999997640949555,2027-01-15T07:59:57.640949555Z,,-1.06,0.64,-0.21,0.64,1.06,1.70,2.55,3.19,3.62,4.89,6.81,6.38,7.23,,,,,,,,,,,,,,
1799999997655786351,2027-01-15T07:59:57.655786351Z,,0.21,1.06,0.43,0.85,2.55,0.85,2.34,2.98,4.26,5.11,8.72,7.23,5.53,,,,,,,,,,,,,,
1799999997670623146,2027-01-15T07:59:57.670623146Z,,-1.06,0.85,0.64,2.77,2.55,-0.21,1.91,3.83,4.04,5.32,6.38,7.45,6.38,,,,,,,,,,,,,,
1799999997685459941,2027-01-15T07:59:57.685459941Z,,-1.70,1.28,0.43,3.19,1.91,2.13,2.13,4.26,4.47,5.11,5.32,6.60,7.66,,,,,,,,,,,,,,
1799999997700296736,2027-01-15T07:59:57.700296736Z,,-0.21,0.43,0.43,1.28,2.13,2.55,1.70,3.83,4.47,4.68,5.53,6.81,8.51,,,,,,,,,,,,,,
1799999997715133532,2027-01-15T07:59:57.715133532Z,,-0.43,-0.21,-0.85,1.91,3.62,1.49,3.40,3.83,4.04,4.47,5.96,6.38,7.23,,,,,,,,,,,,,,
1799999997729970327,2027-01-15T07:59:57.729970327Z,,-1.06,0.21,-1.28,1.49,4.04,2.34,3.19,3.19,4.26,4.89,4.89,5.96,6.81,,,,,,,,,,,,,,
1799999997744807122,2027-01-15T07:59:57.744807122Z,,-1.28,-0.85,0.43,1.49,3.62,2.13,1.91,4.26,4.68,4.68,5.96,5.96,7.45,,,,,,,,,,,,,,
1799999997759643917,2027-01-15T07:59:57.759643917Z,,0.00,-1.06,0.64,2.13,1.91,2.98,3.19,5.32,5.53,5.96,7.66,7.45,7.66,,,,,,,,,,,,,,
1799999997774480713,2027-01-15T07:59:57.774480713Z,,0.85,0.64,1.06,1.91,1.49,4.04,3.19,3.83,4.04,6.38,7.45,6.81,7.66,,,,,,,,,,,,,,
1799999997789317508,2027-01-15T07:59:57.789317508Z,,-1.06,0.21,0.43,1.06,1.91,3.19,2.77,4.68,4.26,5.74,6.60,7.23,8.51,,,,,,,,,,,,,,
1799999997804154303,2027-01-15T07:59:57.804154303Z,,-1.70,0.21,-0.64,0.64,1.49,1.91,3.19,5.11,4.89,5.96,4.68,7.66,7.23,,,,,,,,,,,,,,
1799999997818991098,2027-01-15T07:59:57.818991098Z,,-0.64,0.43,-1.06,-0.64,1.91,3.19,3.40,3.62,4.89,5.53,5.11,6.38,7.23,,,,,,,,,,,,,,
1799999997833827894,2027-01-15T07:59:57.833827894Z,,-0.64,-0.85,-0.43,0.00,2.55,4.26,2.77,4.68,5.74,4.89,5.53,5.32,7.87,,,,,,,,,,,,,,
1799999997848664689,2027-01-15T07:59:57.848664689Z,,-2.34,-1.06,0.85,0.43,2.55,4.04,2.77,4.68,4.47,5.53,6.38,7.23,6.60,,,,,,,,,,,,,,
1799999997863501484,2027-01-15T07:59:57.863501484Z,,-1.49,-0.21,-0.64,-0.21,2.77,4.04,1.49,3.40,4.26,6.17,6.17,7.87,7.66,,,,,,,,,,,,,,
1799999997878338279,2027-01-15T07:59:57.878338279Z,,-0.64,-0.21,1.06,-0.64,2.13,3.40,1.28,3.19,4.89,6.81,6.17,7.23,8.72,,,,,,,,,,,,,,
1799999997893175075,2027-01-15T07:59:57.893175075Z,,1.70,-1.49,1.70,-0.85,2.98,3.62,1.28,2.77,4.26,7.02,7.02,6.38,6.81,,,,,,,,,,,,,,
1799999997908011870,2027-01-15T07:59:57.908011870Z,,1.49,-1.28,0.85,-0.43,2.55,4.26,1.06,2.55,4.47,5.96,7.45,5.53,6.38,,,,,,,,,,,,,,
1799999997922848665,2027-01-15T07:59:57.922848665Z,,-0.85,-1.28,-0.64,0.43,4.26,5.96,1.49,3.62,5.74,6.17,6.81,5.74,5.74,,,,,,,,,,,,,,
1799999997937685460,2027-01-15T07:59:57.937685460Z,,-0.64,-0.21,-0.43,0.85,2.98,4.47,4.26,4.68,4.89,5.96,7.02,6.60,6.60,,,,,,,,,,,,,,
1799999997952522256,2027-01-15T07:59:57.952522256Z,,-0.85,0.21,1.28,1.28,1.06,3.40,5.11,4.47,4.68,5.53,6.60,6.38,7.23,,,,,,,,,,,,,,
1799999997967359051,2027-01-15T07:59:57.967359051Z,,-0.85,-0.64,1.49,1.49,2.98,2.77,4.04,4.47,4.68,6.38,6.38,5.11,8.30,,,,,,,,,,,,,,
1799999997982195846,2027-01-15T07:59:57.982195846Z,,1.70,-2.34,0.85,1.70,0.85,2.55,2.55,4.47,4.47,6.17,5.74,5.96,9.15,,,,,,,,,,,,,,
1799999997997032641,2027-01-15T07:59:57.997032641Z,,0.21,-2.13,0.21,0.85,0.43,3.62,4.47,4.04,3.40,5.11,5.32,6.60,6.38,,,,,,,,,,,,,,
1799999998011869437,2027-01-15T07:59:58.011869437Z,,-1.28,-1.91,0.43,0.64,1.06,2.98,4.89,4.04,4.26,4.68,5.74,7.23,5.11,,,,,,,,,,,,,,
1799999998026706232,2027-01-15T07:59:58.026706232Z,,-0.43,-0.43,0.43,1.91,1.49,2.13,3.62,4.04,5.53,4.26,5.74,6.60,7.23,,,,,,,,,,,,,,
1799999998041543027,2027-01-15T07:59:58.041543027Z,,1.06,0.64,1.28,0.64,1.49,1.70,2.98,5.11,4.68,4.47,6.38,6.38,6.81,,,,,,,,,,,,,,
1799999998056379822,2027-01-15T07:59:58.056379822Z,,0.00,0.21,1.28,0.21,0.64,2.77,2.77,4.04,3.83,5.11,6.17,6.17,6.81,,,,,,,,,,,,,,
1799999998071216618,2027-01-15T07:59:58.071216618Z,,-0.64,1.06,1.28,1.49,0.00,0.64,4.47,3.19,4.89,4.04,5.74,5.53,5.53,,,,,,,,,,,,,,
1799999998086053413,2027-01-15T07:59:58.086053413Z,,-0.85,0.21,1.70,1.06,1.70,1.49,3.62,4.04,5.53,3.62,6.60,6.38,7.45,,,,,,,,,,,,,,
1799999998100890208,2027-01-15T07:59:58.100890208Z,,-1.70,-0.64,1.28,-0.21,2.98,1.91,4.26,3.83,6.81,3.40,7.23,7.02,6.38,,,,,,,,,,,,,,
1799999998115727003,2027-01-15T07:59:58.115727003Z,,-1.49,-0.43,1.91,1.06,3.40,1.06,3.62,3.83,5.96,3.40,7.45,6.38,5.32,,,,,,,,,,,,,,
1799999998130563799,2027-01-15T07:59:58.130563799Z,,0.43,-0.64,1.91,2.55,2.55,1.70,3.19,3.83,5.11,4.47,7.45,6.81,7.23,,,,,,,,,,,,,,
1799999998145400594,2027-01-15T07:59:58.145400594Z,,-0.21,-0.43,0.85,1.49,0.64,1.91,2.77,4.26,4.47,6.81,7.87,8.09,9.79,,,,,,,,,,,,,,
1799999998160237389,2027-01-15T07:59:58.160237389Z,,0.21,-1.06,-0.85,0.85,1.49,2.34,2.34,4.68,4.04,5.53,7.02,6.60,8.30,,,,,,,,,,,,,,
1799999998175074184,2027-01-15T07:59:58.175074184Z,,0.21,-1.28,0.00,2.77,1.91,2.34,2.98,5.74,3.40,5.11,5.32,6.38,7.87,,,,,,,,,,,,,,
1799999998189910980,2027-01-15T07:59:58.189910980Z,,-1.06,1.28,0.43,0.64,2.13,1.70,4.04,5.74,3.83,6.17,5.96,7.87,7.87,,,,,,,,,,,,,,
1799999998204747775,2027-01-15T07:59:58.204747775Z,,-1.28,1.06,-0.21,0.00,1.91,1.06,3.19,5.11,4.26,5.11,7.23,7.23,7.23,,,,,,,,,,,,,,
1799999998219584570,2027-01-15T07:59:58.219584570Z,,-0.85,0.43,-0.43,0.43,0.85,1.91,0.43,3.62,4.47,4.47,7.87,7.23,7.87,,,,,,,,,,,,,,
1799999998234421365,2027-01-15T07:59:58.234421365Z,,-0.85,0.21,0.43,0.21,1.70,1.70,0.85,2.98,3.62,5.11,7.02,7.23,7.66,,,,,,,,,,,,,,
1799999998249258161,2027-01-15T07:59:58.249258161Z,,-0.43,0.64,0.00,1.70,0.64,1.28,2.34,3.40,4.26,5.11,6.81,5.96,7.23,,,,,,,,,,,,,,
1799999998264094956,2027-01-15T07:59:58.264094956Z,,0.43,0.00,-0.21,2.13,1.70,1.28,3.40,4.26,4.26,4.89,5.53,6.60,7.45,,,,,,,,,,,,,,
1799999998278931751,2027-01-15T07:59:58.278931751Z,,-0.85,0.00,0.21,1.28,2.13,2.77,5.11,4.26,3.62,6.17,5.96,7.87,7.66,,,,,,,,,,,,,,
1799999998293768546,2027-01-15T07:59:58.293768546Z,,-1.49,0.85,0.00,-0.43,1.28,4.47,4.04,4.89,4.04,5.74,5.74,7.87,7.02,,,,,,,,,,,,,,
1799999998308605342,2027-01-15T07:59:58.308605342Z,,-1.49,0.64,-1.70,0.00,1.49,2.55,3.19,4.04,4.89,6.17,4.68,8.09,7.45,,,,,,,,,,,,,,
1799999998323442137,2027-01-15T07:59:58.323442137Z,,-1.91,0.43,-1.06,1.28,2.55,2.34,3.62,3.40,4.47,6.17,5.53,7.02,7.23,,,,,,,,,,,,,,
1799999998338278932,2027-01-15T07:59:58.338278932Z,,-0.21,1.06,1.06,0.43,2.55,2.77,2.77,3.19,7.02,4.89,5.53,5.32,7.02,,,,,,,,,,,,,,
1799999998353115728,2027-01-15T07:59:58.353115728Z,,0.85,0.43,0.64,0.64,2.13,3.62,2.55,3.40,8.09,5.74,6.17,3.83,6.38,,,,,,,,,,,,,,
1799999998367952523,2027-01-15T07:59:58.367952523Z,,1.28,-0.21,1.28,2.13,2.34,1.49,2.55,3.83,4.26,6.60,6.60,5.32,6.60,,,,,,,,,,,,,,
1799999998382789318,2027-01-15T07:59:58.382789318Z,,0.43,-0.21,1.91,2.13,3.19,1.49,4.26,2.77,3.62,7.23,6.38,6.17,7.02,,,,,,,,,,,,,,
1799999998397626113,2027-01-15T07:59:58.397626113Z,,-0.85,0.43,2.13,1.70,2.34,2.55,3.40,2.34,4.68,5.11,6.17,4.68,7.45,,,,,,,,,,,,,,
1799999998412462909,2027-01-15T07:59:58.412462909Z,,-1.28,0.64,1.91,0.64,2.13,2.77,1.28,2.98,3.62,3.83,5.53,5.32,7.87,,,,,,,,,,,,,,
1799999998427299704,2027-01-15T07:59:58.427299704Z,,-0.85,-0.64,2.34,0.00,2.13,2.55,2.34,5.32,3.40,4.68,4.89,5.74,7.66,,,,,,,,,,,,,,
1799999998442136499,2027-01-15T07:59:58.442136499Z,,-1.49,-1.06,0.85,1.49,1.06,1.70,2.55,4.47,4.26,4.89,5.32,5.11,6.38,,,,,,,,,,,,,,
1799999998456973294,2027-01-15T07:59:58.456973294Z,,-1.91,-0.43,-0.85,1.28,3.19,2.98,2.34,2.77,5.32,4.89,5.53,5.96,6.38,,,,,,,,,,,,,,
1799999998471810090,2027-01-15T07:59:58.471810090Z,,-1.49,0.00,-0.21,-0.21,2.98,4.68,2.34,2.55,5.53,4.26,4.89,5.96,7.23,,,,,,,,,,,,,,
1799999998486646885,2027-01-15T07:59:58.486646885Z,,-1.70,-0.85,1.49,1.06,1.06,4.89,4.26,2.77,5.53,4.68,5.32,6.81,7.66,,,,,,,,,,,,,,
1799999998501483680,2027-01-15T07:59:58.501483680Z,,-1.28,-0.64,-0.21,2.13,0.85,5.11,4.26,3.19,7.66,5.96,5.74,7.87,7.87,,,,,,,,,,,,,,
1799999998516320475,2027-01-15T07:59:58.516320475Z,,0.00,-1.49,-1.49,3.19,0.43,3.40,4.89,4.26,5.74,5.53,6.17,7.02,7.87,,,,,,,,,,,,,,
1799999998531157271,2027-01-15T07:59:58.531157271Z,,0.43,-1.70,0.21,3.83,3.19,3.40,5.11,5.11,4.47,6.60,7.02,6.81,6.17,,,,,,,,,,,,,,
1799999998545994066,2027-01-15T07:59:58.545994066Z,,0.64,-0.85,2.34,2.77,4.26,3.83,4.26,5.32,5.74,5.74,7.23,7.02,6.81,,,,,,,,,,,,,,
1799999998560830861,2027-01-15T07:59:58.560830861Z,,0.43,-0.64,2.34,2.77,2.34,4.04,5.11,2.34,4.26,5.53,5.74,7.45,7.02,,,,,,,,,,,,,,
1799999998575667656,2027-01-15T07:59:58.575667656Z,,-0.85,0.00,1.06,3.40,1.06,4.26,2.34,2.77,3.19,6.17,4.89,7.87,5.96,,,,,,,,,,,,,,
1799999998590504452,2027-01-15T07:59:58.590504452Z,,-1.28,0.00,-1.06,2.13,0.00,4.47,1.91,3.83,4.89,5.11,4.68,7.02,7.23,,,,,,,,,,,,,,
1799999998605341247,2027-01-15T07:59:58.605341247Z,,-1.06,-0.85,-0.85,1.49,2.77,5.53,3.19,3.19,3.62,5.11,7.02,5.96,7.66,,,,,,,,,,,,,,
1799999998620178042,2027-01-15T07:59:58.620178042Z,,-0.21,-0.64,0.85,2.13,2.77,4.26,3.40,2.98,3.83,4.89,7.23,6.38,7.66,,,,,,,,,,,,,,
1799999998635014837,2027-01-15T07:59:58.635014837Z,,0.43,0.00,1.28,1.70,1.06,1.70,2.55,2.77,3.62,5.11,6.60,5.96,7.66,,,,,,,,,,,,,,
1799999998649851633,2027-01-15T07:59:58.649851633Z,,0.43,1.28,0.85,1.06,1.28,1.70,1.49,1.91,4.26,5.74,5.53,5.32,7.02,,,,,,,,,,,,,,
1799999998664688428,2027-01-15T07:59:58.664688428Z,,0.00,0.00,0.21,0.64,2.34,3.19,1.70,2.77,4.04,5.32,5.74,6.60,6.81,,,,,,,,,,,,,,
1799999998679525223,2027-01-15T07:59:58.679525223Z,,-1.06,-0.43,0.85,0.43,2.55,1.70,3.19,2.77,3.62,5.96,6.38,6.81,7.45,,,,,,,,,,,,,,
1799999998694362018,2027-01-15T07:59:58.694362018Z,,0.43,-0.43,1.28,-0.64,1.91,1.06,2.55,4.04,4.47,5.74,6.60,7.23,7.02,,,,,,,,,,,,,,
1799999998709198814,2027-01-15T07:59:58.709198814Z,,1.06,0.00,2.13,0.64,2.34,3.19,2.77,4.68,5.32,5.32,8.09,7.45,7.02,,,,,,,,,,,,,,
1799999998724035609,2027-01-15T07:59:58.724035609Z,,0.43,0.43,2.13,0.21,2.34,1.70,3.40,4.26,5.32,5.11,7.87,6.81,7.45,,,,,,,,,,,,,,
1799999998738872404,2027-01-15T07:59:58.738872404Z,,-0.43,-0.43,0.85,0.43,1.70,0.64,4.47,3.40,4.68,5.11,6.60,5.74,6.38,,,,,,,,,,,,,,
1799999998753709199,2027-01-15T07:59:58.753709199Z,,0.00,-0.43,1.28,1.28,2.13,2.34,3.83,5.53,7.23,4.89,5.11,5.96,5.96,,,,,,,,,,,,,,
1799999998768545995,2027-01-15T07:59:58.768545995Z,,0.64,0.43,0.43,1.28,3.19,3.62,3.40,5.11,6.17,5.32,5.53,6.38,7.02,,,,,,,,,,,,,,
1799999998783382790,2027-01-15T07:59:58.783382790Z,,0.43,0.64,-0.64,0.43,1.91,4.04,2.34,5.32,5.11,4.47,6.60,6.38,7.45,,,,,,,,,,,,,,
1799999998798219585,2027-01-15T07:59:58.798219585Z,,-1.06,0.21,-0.43,0.64,1.28,3.40,1.91,5.74,4.04,5.11,6.38,6.17,8.30,,,,,,,,,,,,,,
1799999998813056380,2027-01-15T07:59:58.813056380Z,,-1.70,-0.64,-0.21,1.28,1.91,1.28,1.70,5.32,4.68,5.74,6.60,6.81,8.09,,,,,,,,,,,,,,
1799999998827893176,2027-01-15T07:59:58.827893176Z,,0.21,-1.06,-1.70,2.34,1.70,4.04,2.13,3.19,4.68,7.87,6.38,7.45,7.45,,,,,,,,,,,,,,
1799999998842729971,2027-01-15T07:59:58.842729971Z,,0.43,-0.64,-1.91,2.34,0.85,4.26,2.98,2.98,4.26,5.53,5.74,6.81,7.87,,,,,,,,,,,,,,
1799999998857566766,2027-01-15T07:59:58.857566766Z,,0.43,0.43,-0.85,1.91,1.06,4.26,2.98,3.40,3.62,4.89,6.17,6.38,7.87,,,,,,,,,,,,,,
1799999998872403561,2027-01-15T07:59:58.872403561Z,,-0.21,1.06,0.00,1.28,2.55,2.77,2.34,4.26,4.47,5.53,6.17,6.81,7.45,,,,,,,,,,,,,,
1799999998887240357,2027-01-15T07:59:58.887240357Z,,0.00,0.64,-0.64,0.85,2.98,3.40,2.55,4.89,5.32,5.53,3.62,7.87,7.45,,,,,,,,,,,,,,
1799999998902077152,2027-01-15T07:59:58.902077152Z,,-0.64,0.85,2.55,0.85,2.55,4.04,2.77,4.47,4.89,5.96,4.89,8.30,7.23,,,,,,,,,,,,,,
1799999998916913947,2027-01-15T07:59:58.916913947Z,,-2.55,0.21,2.55,1.70,2.34,3.40,2.98,3.62,4.89,7.23,6.17,7.66,7.45,,,,,,,,,,,,,,
1799999998931750742,2027-01-15T07:59:58.931750742Z,,-1.28,-0.85,1.49,1.91,2.13,3.83,3.40,2.98,4.47,6.60,5.53,6.81,7.87,,,,,,,,,,,,,,
1799999998946587538,2027-01-15T07:59:58.946587538Z,,-1.06,-1.49,0.00,2.98,2.98,3.83,3.40,4.89,4.26,7.23,6.60,5.32,7.66,,,,,,,,,,,,,,
1799999998961424333,2027-01-15T07:59:58.961424333Z,,-1.06,-1.70,-0.43,2.34,3.19,4.04,3.62,4.89,4.47,6.38,7.66,5.74,7.02,,,,,,,,,,,,,,
1799999998976261128,2027-01-15T07:59:58.976261128Z,,-1.49,-0.43,-0.21,0.43,2.13,2.98,3.83,4.47,5.74,5.11,5.96,7.45,7.45,,,,,,,,,,,,,,
1799999998991097923,2027-01-15T07:59:58.991097923Z,,-1.70,0.00,0.21,-0.21,2.13,2.34,2.98,4.68,6.17,5.32,5.53,7.02,7.87,,,,,,,,,,,,,,
1799999999005934719,2027-01-15T07:59:59.005934719Z,,-0.43,-0.43,0.85,1.70,2.13,1.70,3.62,4.04,5.74,4.68,7.45,6.17,7.02,,,,,,,,,,,,,,
1799999999020771514,2027-01-15T07:59:59.020771514Z,,-0.64,-0.85,2.77,1.70,2.13,1.70,4.26,2.98,4.26,4.47,7.87,5.74,5.96,,,,,,,,,,,,,,
1799999999035608309,2027-01-15T07:59:59.035608309Z,,1.06,-0.85,1.91,2.13,1.91,3.40,5.53,5.11,4.47,5.32,6.81,5.32,5.96,,,,,,,,,,,,,,
1799999999050445104,2027-01-15T07:59:59.050445104Z,,0.43,-0.21,0.85,1.49,1.28,3.40,5.32,4.89,3.83,5.53,6.81,4.68,8.30,,,,,,,,,,,,,,
1799999999065281900,2027-01-15T07:59:59.065281900Z,,-1.28,-0.43,0.21,0.64,1.49,1.06,4.26,3.62,3.83,5.74,6.60,5.11,8.30,,,,,,,,,,,,,,
1799999999080118695,2027-01-15T07:59:59.080118695Z,,-2.98,-0.85,0.43,0.43,0.00,1.28,3.62,4.04,4.47,4.89,6.81,5.74,7.66,,,,,,,,,,,,,,
1799999999094955490,2027-01-15T07:59:59.094955490Z,,-0.43,-1.06,1.91,1.28,0.85,1.91,2.77,5.11,4.89,4.04,5.74,5.74,7.02,,,,,,,,,,,,,,
1799999999109792285,2027-01-15T07:59:59.109792285Z,,1.49,-0.85,2.13,1.49,3.40,2.77,2.98,3.83,4.26,5.11,5.32,6.60,7.23,,,,,,,,,,,,,,
1799999999124629081,2027-01-15T07:59:59.124629081Z,,-0.64,-1.70,0.85,1.06,5.32,3.62,2.55,2.34,4.68,4.47,5.53,5.74,7.45,,,,,,,,,,,,,,
1799999999139465876,2027-01-15T07:59:59.139465876Z,,-1.70,-1.91,-0.43,0.85,2.98,3.19,2.55,2.77,4.47,4.89,4.89,6.17,7.66,,,,,,,,,,,,,,
1799999999154302671,2027-01-15T07:59:59.154302671Z,,-1.06,-0.43,-0.43,0.00,0.64,2.13,2.98,3.19,4.47,5.11,5.53,6.81,7.45,,,,,,,,,,,,,,
1799999999169139466,2027-01-15T07:59:59.169139466Z,,-0.21,0.00,1.28,0.21,2.13,2.55,1.91,3.62,4.68,5.11,7.23,5.96,7.45,,,,,,,,,,,,,,
1799999999183976262,2027-01-15T07:59:59.183976262Z,,0.00,-0.21,1.91,0.85,2.13,1.70,3.19,3.83,6.17,5.53,6.38,6.38,7.02,,,,,,,,,,,,,,
1799999999198813057,2027-01-15T07:59:59.198813057Z,,0.00,-1.06,0.00,0.85,1.70,0.64,2.98,3.62,5.74,5.96,5.11,7.66,7.87,,,,,,,,,,,,,,
1799999999213649852,2027-01-15T07:59:59.213649852Z,,-1.49,0.21,-0.21,1.28,1.49,2.13,3.19,4.04,3.83,4.89,5.53,7.45,6.38,,,,,,,,,,,,,,
1799999999228486647,2027-01-15T07:59:59.228486647Z,,-1.28,1.49,-1.70,1.91,3.19,2.98,4.68,4.68,4.04,5.74,6.38,7.02,5.53,,,,,,,,,,,,,,
1799999999243323443,2027-01-15T07:59:59.243323443Z,,0.21,1.49,-1.49,1.06,2.55,2.34,3.40,6.17,4.68,7.23,5.96,5.74,6.17,,,,,,,,,,,,,,
1799999999258160238,2027-01-15T07:59:59.258160238Z,,-1.49,0.43,0.21,0.43,1.91,3.62,2.34,5.74,5.74,5.53,5.32,5.74,6.81,,,,,,,,,,,,,,
1799999999272997033,2027-01-15T07:59:59.272997033Z,,-3.83,0.64,0.43,0.85,2.77,2.98,1.91,3.62,4.89,4.26,5.74,7.66,5.96,,,,,,,,,,,,,,
1799999999287833828,2027-01-15T07:59:59.287833828Z,,-1.49,0.64,1.28,1.49,2.55,2.98,1.91,3.19,4.89,4.47,6.38,8.09,7.87,,,,,,,,,,,,,,
1799999999302670624,2027-01-15T07:59:59.302670624Z,,0.21,-0.43,2.34,1.91,1.91,4.47,3.62,3.19,4.68,4.89,6.38,7.23,8.72,,,,,,,,,,,,,,
1799999999317507419,2027-01-15T07:59:59.317507419Z,,0.85,-1.06,2.13,2.34,0.21,3.40,3.19,2.77,4.89,5.53,7.45,7.23,7.87,,,,,,,,,,,,,,
1799999999332344214,2027-01-15T07:59:59.332344214Z,,1.06,-0.43,2.13,1.49,0.00,4.68,2.13,2.98,4.89,5.11,6.60,7.87,8.30,,,,,,,,,,,,,,
1799999999347181009,2027-01-15T07:59:59.347181009Z,,0.21,-0.85,1.49,1.06,0.85,3.83,2.34,3.83,5.32,5.53,5.53,7.66,8.72,,,,,,,,,,,,,,
1799999999362017805,2027-01-15T07:59:59.362017805Z,,0.21,-1.06,1.49,1.06,2.34,3.19,3.19,3.62,4.89,6.60,6.17,8.72,9.36,,,,,,,,,,,,,,
1799999999376854600,2027-01-15T07:59:59.376854600Z,,-0.43,-1.06,0.00,1.06,1.91,1.70,4.68,3.19,4.26,5.74,7.45,8.72,7.45,,,,,,,,,,,,,,
1799999999391691395,2027-01-15T07:59:59.391691395Z,,-1.70,0.21,-1.06,1.28,2.13,2.55,3.19,3.62,4.47,5.74,7.02,8.09,6.38,,,,,,,,,,,,,,
1799999999406528190,2027-01-15T07:59:59.406528190Z,,-1.28,1.06,-2.13,0.64,2.55,1.91,2.34,4.68,4.26,5.53,6.60,8.30,5.96,,,,,,,,,,,,,,
1799999999421364986,2027-01-15T07:59:59.421364986Z,,-1.28,0.85,-0.85,-0.64,0.00,1.49,2.13,3.83,4.26,4.04,4.89,7.45,6.38,,,,,,,,,,,,,,
1799999999436201781,2027-01-15T07:59:59.436201781Z,,-0.43,0.43,0.00,-0.64,-0.21,3.19,1.91,3.62,7.87,3.19,5.32,5.11,6.38,,,,,,,,,,,,,,
1799999999451038576,2027-01-15T07:59:59.451038576Z,,0.00,-0.43,1.28,0.85,1.06,2.98,3.62,4.04,7.45,4.47,5.96,5.11,7.02,,,,,,,,,,,,,,
1799999999465875371,2027-01-15T07:59:59.465875371Z,,-0.21,-0.21,0.43,1.28,1.70,2.77,4.47,3.62,5.96,6.17,6.17,5.74,7.45,,,,,,,,,,,,,,
1799999999480712167,2027-01-15T07:59:59.480712167Z,,-1.28,-0.43,1.06,1.28,1.70,3.40,3.62,2.98,6.81,5.96,5.53,4.89,8.30,,,,,,,,,,,,,,
1799999999495548962,2027-01-15T07:59:59.495548962Z,,-2.55,-1.70,1.91,1.49,2.34,1.49,3.19,2.55,5.96,5.53,6.17,4.26,7.66,,,,,,,,,,,,,,
1799999999510385757,2027-01-15T07:59:59.510385757Z,,-1.70,-0.43,-0.43,1.91,2.55,1.06,4.26,3.40,1.70,6.81,7.02,5.32,7.45,,,,,,,,,,,,,,
1799999999525222552,2027-01-15T07:59:59.525222552Z,,-1.49,-1.91,1.06,0.64,2.34,1.91,4.04,4.68,3.62,5.11,5.53,5.96,7.66,,,,,,,,,,,,,,
1799999999540059348,2027-01-15T07:59:59.540059348Z,,-0.21,-0.64,0.21,1.70,1.49,1.91,3.83,3.62,4.26,4.47,5.11,5.53,7.66,,,,,,,,,,,,,,
1799999999554896143,2027-01-15T07:59:59.554896143Z,,-0.21,1.06,-0.85,2.34,2.13,1.91,3.62,2.55,7.23,4.47,6.38,5.32,7.66,,,,,,,,,,,,,,
1799999999569732938,2027-01-15T07:59:59.569732938Z,,-1.28,-1.06,0.43,1.91,3.62,3.40,2.98,4.04,7.45,3.62,7.45,6.17,7.02,,,,,,,,,,,,,,
1799999999584569733,2027-01-15T07:59:59.584569733Z,,-1.06,-0.85,0.85,2.34,3.40,3.19,3.19,3.83,5.96,4.47,7.66,6.17,5.74,,,,,,,,,,,,,,
1799999999599406529,2027-01-15T07:59:59.599406529Z,,-0.43,-0.43,0.64,3.62,1.91,1.28,2.98,3.40,6.17,6.17,7.02,6.17,6.60,,,,,,,,,,,,,,
1799999999614243324,2027-01-15T07:59:59.614243324Z,,0.43,-1.49,1.91,2.98,2.13,1.28,3.83,3.40,4.26,4.89,6.17,6.17,7.66,,,,,,,,,,,,,,
1799999999629080119,2027-01-15T07:59:59.629080119Z,,0.43,-0.64,1.28,1.70,2.13,2.13,2.77,3.62,2.34,4.89,5.32,7.23,7.45,,,,,,,,,,,,,,
1799999999643916914,2027-01-15T07:59:59.643916914Z,,0.64,0.64,0.64,1.49,3.62,2.77,3.40,3.62,3.40,5.11,4.26,6.60,7.45,,,,,,,,,,,,,,
1799999999658753710,2027-01-15T07:59:59.658753710Z,,0.43,-0.43,2.55,1.91,6.81,2.77,3.19,3.40,2.98,5.11,6.38,6.17,7.23,,,,,,,,,,,,,,
1799999999673590505,2027-01-15T07:59:59.673590505Z,,-0.21,-0.21,0.64,1.70,4.04,3.83,2.34,3.62,3.19,5.74,7.02,5.96,6.60,,,,,,,,,,,,,,
1799999999688427300,2027-01-15T07:59:59.688427300Z,,-1.28,0.64,-0.21,1.06,2.98,5.32,1.70,3.83,2.77,4.68,7.23,6.38,6.81,,,,,,,,,,,,,,
1799999999703264095,2027-01-15T07:59:59.703264095Z,,-0.43,1.28,-0.43,1.49,3.83,4.47,1.28,3.40,3.40,4.04,7.23,7.23,7.45,,,,,,,,,,,,,,
1799999999718100891,2027-01-15T07:59:59.718100891Z,,1.49,1.49,-1.06,1.49,3.62,1.49,3.19,2.98,3.62,5.53,7.02,6.60,8.30,,,,,,,,,,,,,,
1799999999732937686,2027-01-15T07:59:59.732937686Z,,1.06,1.06,-2.13,1.70,3.19,0.21,4.89,2.55,2.55,6.17,6.17,6.81,7.02,,,,,,,,,,,,,,
1799999999747774481,2027-01-15T07:59:59.747774481Z,,-0.85,-0.21,-1.70,1.70,2.34,3.19,3.19,4.68,3.19,5.74,4.89,7.87,5.96,,,,,,,,,,,,,,
1799999999762611276,2027-01-15T07:59:59.762611276Z,,1.06,0.00,-0.43,0.00,3.40,4.68,3.62,4.68,5.74,4.89,5.53,5.96,6.81,,,,,,,,,,,,,,
1799999999777448072,2027-01-15T07:59:59.777448072Z,,0.64,0.64,1.28,0.21,2.55,4.04,3.62,3.62,5.32,5.74,6.38,5.11,8.30,,,,,,,,,,,,,,
1799999999792284867,2027-01-15T07:59:59.792284867Z,,-1.06,0.21,-0.21,0.43,1.49,1.91,2.34,4.47,4.04,6.17,6.38,7.23,9.36,,,,,,,,,,,,,,
1799999999807121662,2027-01-15T07:59:59.807121662Z,,-1.91,-0.64,-0.21,1.49,1.49,2.13,2.55,4.68,4.26,5.96,6.38,7.45,7.87,,,,,,,,,,,,,,
1799999999821958457,2027-01-15T07:59:59.821958457Z,,-2.34,-0.43,-0.21,1.06,2.13,2.34,3.19,2.98,4.26,5.53,5.96,7.23,6.60,,,,,,,,,,,,,,
1799999999836795253,2027-01-15T07:59:59.836795253Z,,-0.43,-0.21,0.64,1.06,1.49,3.40,2.13,2.55,3.62,5.32,5.74,6.81,7.02,,,,,,,,,,,,,,
1799999999851632048,2027-01-15T07:59:59.851632048Z,,0.43,-0.43,1.28,1.06,1.06,3.62,1.91,3.19,3.62,6.38,6.38,5.96,6.81,,,,,,,,,,,,,,
1799999999866468843,2027-01-15T07:59:59.866468843Z,,-1.91,-0.85,0.64,0.64,0.85,4.26,2.55,4.89,3.83,6.17,8.51,5.53,7.23,,,,,,,,,,,,,,
1799999999881305638,2027-01-15T07:59:59.881305638Z,,-1.91,-1.28,1.06,1.49,1.28,4.68,3.62,5.53,5.32,5.74,8.30,5.96,8.09,,,,,,,,,,,,,,
1799999999896142434,2027-01-15T07:59:59.896142434Z,,0.43,0.00,1.91,2.55,2.13,4.26,3.62,3.83,5.11,5.11,7.02,6.38,8.51,,,,,,,,,,,,,,
1799999999910979229,2027-01-15T07:59:59.910979229Z,,-0.64,1.49,1.28,3.40,2.55,2.98,2.77,2.98,4.04,4.68,5.11,6.60,7.66,,,,,,,,,,,,,,
1799999999925816024,2027-01-15T07:59:59.925816024Z,,-1.28,0.85,0.43,3.62,2.34,3.62,2.34,4.26,4.04,5.53,5.53,7.66,8.72,,,,,,,,,,,,,,
1799999999940652819,2027-01-15T07:59:59.940652819Z,,-1.49,1.06,-0.85,1.49,1.06,3.19,2.34,4.89,4.04,6.17,6.17,7.23,7.66,,,,,,,,,,,,,,
1799999999955489615,2027-01-15T07:59:59.955489615Z,,-1.91,-0.43,-0.21,1.70,0.21,3.40,3.40,5.11,7.66,5.53,5.53,5.53,7.02,,,,,,,,,,,,,,
1799999999970326410,2027-01-15T07:59:59.970326410Z,,-1.06,-2.13,0.64,2.13,1.70,2.98,2.98,4.89,7.02,5.74,5.11,6.81,7.23,,,,,,,,,,,,,,
1799999999985163205,2027-01-15T07:59:59.985163205Z,,-0.85,-1.06,2.13,2.77,0.64,2.34,2.13,4.04,5.11,5.53,5.32,7.87,7.45,,,,,,,,,,,,,,
