# spacing_uv=20.0
timestamp_ns,timestamp_iso,AF3,F7,F3,FC5,T7,P7,O1,O2,P8,T8,FC6,F4,F8,AF4,AF3_q,F7_q,F3_q,FC5_q,T7_q,P7_q,O1_q,O2_q,P8_q,T8_q,FC6_q,F4_q,F8_q,AF4_q
1799999990000000000,2027-01-15T07:59:50.000000000Z,,,,,,,,,,,,,,,,,,,,,,,,,,,,
1799999990014265336,2027-01-15T07:59:50.014265336Z,-0.85,0.21,0.43,1.49,0.43,,3.40,2.98,4.04,6.60,4.68,6.81,6.60,9.79,,,,,,,,,,,,,,
1799999990028530671,2027-01-15T07:59:50.028530671Z,-0.64,-0.85,0.00,1.70,0.00,1.91,2.98,2.55,3.62,4.89,4.89,6.38,5.74,8.09,,,,,,,,,,,,,,
1799999990042796006,2027-01-15T07:59:50.042796006Z,0.00,-1.49,-0.43,1.91,0.00,2.13,3.40,2.55,4.47,4.68,5.74,6.60,6.38,8.09,,,,,,,,,,,,,,
1799999990057061341,2027-01-15T07:59:50.057061341Z,1.49,-1.06,0.00,-0.85,-0.43,1.49,3.83,3.62,2.34,2.98,6.17,6.38,6.81,8.94,,,,,,,,,,,,,,
1799999990071326677,2027-01-15T07:59:50.071326677Z,-1.28,-0.21,0.00,-0.64,0.85,1.70,4.04,2.55,0.85,2.13,5.74,4.47,5.74,7.23,,,,,,,,,,,,,,
1799999990085592012,2027-01-15T07:59:50.085592012Z,0.21,-1.70,-1.28,0.21,1.49,2.13,2.34,2.98,1.70,4.04,5.32,4.47,5.11,6.17,,,,,,,,,,,,,,
1799999990099857347,2027-01-15T07:59:50.099857347Z,0.43,-3.62,-1.91,-0.85,1.06,0.85,0.64,3.83,3.62,2.77,4.89,5.74,5.96,4.04,,,,,,,,,,,,,,
1799999990114122682,2027-01-15T07:59:50.114122682Z,-1.06,-0.85,-1.28,-1.28,2.34,0.85,0.85,3.83,4.89,2.98,4.89,7.23,6.81,5.74,,,,,,,,,,,,,,
1799999990128388018,2027-01-15T07:59:50.128388018Z,-0.85,-0.21,-1.70,-1.28,2.13,1.28,1.70,2.55,4.68,4.26,5.11,7.87,7.23,6.81,,,,,,,,,,,,,,
1799999990142653353,2027-01-15T07:59:50.142653353Z,0.00,0.43,-0.43,-1.06,0.64,1.91,1.49,2.98,2.13,4.89,5.32,6.38,6.60,7.66,,,,,,,,,,,,,,
1799999990156918688,2027-01-15T07:59:50.156918688Z,0.21,0.85,-0.21,-0.85,0.64,2.55,0.64,2.55,2.55,3.19,5.11,7.45,6.38,8.30,,,,,,,,,,,,,,
1799999990171184023,2027-01-15T07:59:50.171184023Z,-0.43,0.85,-1.06,0.00,1.06,2.98,2.55,2.55,3.62,1.91,5.32,8.09,5.96,8.72,,,,,,,,,,,,,,
1799999990185449359,2027-01-15T07:59:50.185449359Z,-1.70,1.28,-0.85,0.85,1.06,2.13,3.19,5.11,4.89,4.68,6.60,7.45,6.17,7.45,,,,,,,,,,,,,,
1799999990199714694,2027-01-15T07:59:50.199714694Z,1.70,0.21,-1.06,0.85,0.64,2.55,3.19,4.47,5.32,5.74,5.32,6.81,6.60,6.81,,,,,,,,,,,,,,
1799999990213980029,2027-01-15T07:59:50.213980029Z,0.43,-1.49,-1.28,0.64,-0.21,1.49,2.77,4.47,6.17,4.89,5.32,6.17,6.60,7.23,,,,,,,,,,,,,,
1799999990228245364,2027-01-15T07:59:50.228245364Z,0.64,-2.77,-0.85,1.06,0.43,1.91,3.40,2.55,4.04,2.13,5.74,6.81,7.45,7.66,,,,,,,,,,,,,,
1799999990242510700,2027-01-15T07:59:50.242510700Z,0.21,-2.13,-0.21,0.85,1.70,3.40,3.62,0.64,1.91,2.13,5.11,6.60,7.45,6.81,,,,,,,,,,,,,,
1799999990256776035,2027-01-15T07:59:50.256776035Z,0.85,-0.43,-0.85,0.64,1.91,2.98,1.91,2.55,4.26,4.89,4.89,7.66,6.17,7.02,,,,,,,,,,,,,,
1799999990271041370,2027-01-15T07:59:50.271041370Z,1.70,-0.64,-1.91,0.64,1.91,3.62,2.55,2.34,4.04,4.47,5.74,7.87,5.32,6.81,,,,,,,,,,,,,,
1799999990285306705,2027-01-15T07:59:50.285306705Z,0.00,-0.21,-0.85,1.06,1.06,3.40,3.40,2.98,4.68,3.83,5.74,7.66,5.74,7.23,,,,,,,,,,,,,,
1799999990299572040,2027-01-15T07:59:50.299572040Z,-0.43,-0.85,-1.06,-0.64,0.64,1.91,4.26,3.40,5.53,3.19,5.74,7.02,6.60,7.87,,,,,,,,,,,,,,
1799999990313837376,2027-01-15T07:59:50.313837376Z,-1.28,-1.28,-1.49,0.43,0.64,1.28,3.62,3.40,4.47,5.11,5.96,5.53,7.23,7.87,,,,,,,,,,,,,,
1799999990328102711,2027-01-15T07:59:50.328102711Z,-1.70,-1.28,-0.64,1.91,2.77,1.70,4.04,3.40,3.62,5.53,5.96,4.26,7.45,6.81,,,,,,,,,,,,,,
1799999990342368046,2027-01-15T07:59:50.342368046Z,-1.49,-0.85,-0.85,1.49,1.91,3.40,4.68,2.34,4.04,4.47,6.17,5.11,6.60,5.96,,,,,,,,,,,,,,
1799999990356633381,2027-01-15T07:59:50.356633381Z,1.91,-0.85,1.91,1.70,1.28,2.55,3.83,3.40,4.68,5.32,6.17,6.38,5.74,6.60,,,,,,,,,,,,,,
1799999990370898717,2027-01-15T07:59:50.370898717Z,-1.91,-0.43,1.70,2.34,-0.43,1.91,2.55,4.04,5.32,5.74,5.74,6.17,5.74,6.60,,,,,,,,,,,,,,
1799999990385164052,2027-01-15T07:59:50.385164052Z,-0.85,-0.43,-0.43,1.49,-0.43,1.70,3.62,0.43,4.26,4.89,4.89,5.53,6.60,5.96,,,,,,,,,,,,,,
1799999990399429387,2027-01-15T07:59:50.399429387Z,1.06,0.00,0.43,-1.06,0.43,0.64,3.83,1.70,2.98,5.96,5.96,5.74,7.23,6.81,,,,,,,,,,,,,,
1799999990413694722,2027-01-15T07:59:50.413694722Z,-1.06,1.91,2.13,-1.49,2.55,-0.21,2.77,2.55,2.55,5.32,6.81,5.96,6.60,7.02,,,,,,,,,,,,,,
1799999990427960058,2027-01-15T07:59:50.427960058Z,-1.28,2.34,1.91,1.49,1.28,1.49,1.91,3.40,4.47,2.55,5.96,4.89,5.96,7.23,,,,,,,,,,,,,,
1799999990442225393,2027-01-15T07:59:50.442225393Z,-2.77,0.85,0.21,0.85,1.06,2.34,2.13,3.40,5.96,2.77,6.38,4.26,5.96,7.66,,,,,,,,,,,,,,
1799999990456490728,2027-01-15T07:59:50.456490728Z,0.64,0.43,-0.85,0.43,1.06,1.70,2.98,4.04,5.11,5.74,5.74,5.53,6.81,7.87,,,,,,,,,,,,,,
1799999990470756063,2027-01-15T07:59:50.470756063Z,0.21,-0.64,-0.21,-0.21,1.49,1.91,2.55,3.83,3.40,5.74,4.68,6.17,6.38,7.66,,,,,,,,,,,,,,
1799999990485021399,2027-01-15T07:59:50.485021399Z,-1.91,-1.06,-0.64,-0.43,2.13,2.13,2.13,3.40,3.83,5.11,6.81,6.17,7.02,8.72,,,,,,,,,,,,,,
1799999990499286734,2027-01-15T07:59:50.499286734Z,-4.26,-1.91,-1.28,1.91,1.91,1.70,3.40,3.83,2.98,5.53,7.02,7.23,7.23,9.36,,,,,,,,,,,,,,
1799999990513552069,2027-01-15T07:59:50.513552069Z,-0.85,-1.91,-0.21,1.70,3.40,1.28,4.47,4.04,3.62,6.60,5.11,7.02,5.53,7.23,,,,,,,,,,,,,,
1799999990527817404,2027-01-15T07:59:50.527817404Z,0.43,-1.49,0.85,0.00,2.98,2.34,3.40,3.83,4.47,5.11,5.11,6.38,6.81,5.96,,,,,,,,,,,,,,
1799999990542082739,2027-01-15T07:59:50.542082739Z,1.28,0.21,-0.64,0.43,1.49,3.40,2.34,2.98,5.53,5.11,4.68,5.96,7.66,6.60,,,,,,,,,,,,,,
1799999990556348075,2027-01-15T07:59:50.556348075Z,-0.43,0.64,-0.64,0.64,4.68,1.91,3.40,2.98,4.47,4.89,5.11,5.96,6.81,7.45,,,,,,,,,,,,,,
1799999990570613410,2027-01-15T07:59:50.570613410Z,-1.49,-0.64,1.28,1.49,2.34,1.28,2.98,3.62,2.98,3.40,4.47,5.96,7.87,6.60,,,,,,,,,,,,,,
1799999990584878745,2027-01-15T07:59:50.584878745Z,1.91,0.43,2.13,1.28,-0.43,1.06,2.55,5.11,4.04,4.26,3.83,6.60,8.94,5.96,,,,,,,,,,,,,,
1799999990599144080,2027-01-15T07:59:50.599144080Z,-0.85,-0.43,0.85,0.21,1.70,1.70,2.55,5.11,5.96,5.74,4.68,5.53,8.09,6.17,,,,,,,,,,,,,,
1799999990613409416,2027-01-15T07:59:50.613409416Z,-0.85,0.64,1.28,1.28,1.49,1.49,2.34,4.68,3.19,6.81,3.83,5.53,7.45,6.17,,,,,,,,,,,,,,
1799999990627674751,2027-01-15T07:59:50.627674751Z,-1.28,0.85,1.28,0.64,2.13,1.28,1.70,4.89,2.34,6.38,4.89,6.38,5.32,7.23,,,,,,,,,,,,,,
1799999990641940086,2027-01-15T07:59:50.641940086Z,-1.49,-1.28,-0.43,-0.43,1.49,1.91,3.62,4.26,0.85,6.81,4.89,6.17,5.53,7.02,,,,,,,,,,,,,,
1799999990656205421,2027-01-15T07:59:50.656205421Z,-0.85,-1.70,-1.28,-0.21,1.06,2.13,5.11,3.19,1.49,8.51,5.53,5.53,6.81,7.87,,,,,,,,,,,,,,
1799999990670470757,2027-01-15T07:59:50.670470757Z,-0.64,-1.49,-0.43,-0.85,0.21,3.19,3.83,4.47,3.19,4.89,5.53,5.53,5.53,8.30,,,,,,,,,,,,,,
1799999990684736092,2027-01-15T07:59:50.684736092Z,-0.85,-1.49,-0.21,-0.21,1.28,3.62,2.13,4.04,3.62,4.47,4.89,6.60,4.68,8.09,,,,,,,,,,,,,,
1799999990699001427,2027-01-15T07:59:50.699001427Z,-1.70,-1.70,-0.64,1.06,1.49,3.19,1.06,2.34,4.89,5.32,5.53,5.32,6.38,6.81,,,,,,,,,,,,,,
1799999990713266762,2027-01-15T07:59:50.713266762Z,-1.28,0.43,-1.06,1.49,0.21,2.55,1.28,2.77,5.32,5.96,5.53,5.32,6.81,6.17,,,,,,,,,,,,,,
1799999990727532098,2027-01-15T07:59:50.727532098Z,-1.70,0.43,-0.85,1.70,1.06,1.91,1.49,3.83,5.32,6.17,5.74,6.81,6.81,5.74,,,,,,,,,,,,,,
1799999990741797433,2027-01-15T07:59:50.741797433Z,-1.49,-0.85,-1.06,1.06,1.06,2.34,2.34,2.55,5.11,6.17,5.74,7.87,5.96,5.53,,,,,,,,,,,,,,
1799999990756062768,2027-01-15T07:59:50.756062768Z,-0.21,0.64,-1.06,0.64,1.70,3.19,2.77,1.91,4.47,5.32,4.47,7.45,6.17,5.74,,,,,,,,,,,,,,
1799999990770328103,2027-01-15T07:59:50.770328103Z,-2.34,1.06,-1.91,0.43,1.28,3.40,1.06,2.77,3.40,4.89,4.68,6.38,5.53,6.81,,,,,,,,,,,,,,
1799999990784593438,2027-01-15T07:59:50.784593438Z,-2.55,0.00,-2.55,0.00,0.64,3.19,2.34,3.62,2.98,3.83,5.32,5.96,5.11,8.09,,,,,,,,,,,,,,
1799999990798858774,2027-01-15T07:59:50.798858774Z,-0.21,-0.85,-1.49,0.64,0.21,2.13,3.40,2.55,4.89,3.83,5.11,6.38,6.17,6.81,,,,,,,,,,,,,,
1799999990813124109,2027-01-15T07:59:50.813124109Z,0.43,1.06,-0.43,0.21,0.21,1.49,3.40,3.19,5.32,3.83,5.74,7.23,5.96,7.66,,,,,,,,,,,,,,
1799999990827389444,2027-01-15T07:59:50.827389444Z,-0.64,1.70,0.00,-0.85,0.00,2.13,4.26,4.68,4.26,3.83,6.81,6.17,5.96,8.30,,,,,,,,,,,,,,
1799999990841654779,2027-01-15T07:59:50.841654779Z,-0.64,-0.21,0.43,-0.21,0.85,1.28,3.19,2.98,4.26,5.96,4.68,4.26,5.96,8.30,,,,,,,,,,,,,,
1799999990855920115,2027-01-15T07:59:50.855920115Z,0.21,-1.49,0.43,0.00,0.64,1.28,3.19,1.70,4.89,5.96,4.26,4.47,6.38,8.09,,,,,,,,,,,,,,
1799999990870185450,2027-01-15T07:59:50.870185450Z,-0.43,-1.28,0.64,-1.70,1.49,2.13,4.26,2.13,6.60,5.32,5.74,6.38,7.45,7.87,,,,,,,,,,,,,,
1799999990884450785,2027-01-15T07:59:50.884450785Z,1.28,-1.28,1.28,-1.49,1.91,2.77,4.89,2.77,5.32,4.89,5.11,7.45,7.87,7.66,,,,,,,,,,,,,,
1799999990898716120,2027-01-15T07:59:50.898716120Z,-0.43,-1.28,1.06,-0.43,-1.28,2.55,2.34,2.13,4.26,3.62,5.74,6.60,7.87,7.87,,,,,,,,,,,,,,
1799999990912981456,2027-01-15T07:59:50.912981456Z,-1.28,-1.49,0.43,1.28,-1.70,2.55,1.49,0.64,2.77,3.19,6.60,5.74,7.02,8.94,,,,,,,,,,,,,,
1799999990927246791,2027-01-15T07:59:50.927246791Z,-0.85,-2.55,-0.85,3.83,0.43,3.40,2.77,1.06,1.06,5.53,6.81,5.53,7.23,8.09,,,,,,,,,,,,,,
1799999990941512126,2027-01-15T07:59:50.941512126Z,2.55,-1.06,0.21,2.98,1.70,2.55,2.34,1.28,1.91,4.89,7.45,6.38,7.23,7.45,,,,,,,,,,,,,,
1799999990955777461,2027-01-15T07:59:50.955777461Z,1.28,0.21,-0.21,1.28,0.85,0.43,1.70,1.70,0.85,3.83,6.38,6.60,7.02,7.66,,,,,,,,,,,,,,
1799999990970042797,2027-01-15T07:59:50.970042797Z,0.64,-1.70,-0.21,0.43,1.28,1.28,1.91,2.55,1.28,3.19,5.96,6.17,7.45,8.30,,,,,,,,,,,,,,
1799999990984308132,2027-01-15T07:59:50.984308132Z,-1.06,-2.13,-0.21,0.21,1.91,1.28,2.34,3.19,2.98,2.34,4.26,5.74,6.81,7.87,,,,,,,,,,,,,,
1799999990998573467,2027-01-15T07:59:50.998573467Z,-0.21,-1.28,-1.06,1.70,1.70,1.70,1.91,3.40,2.77,4.26,2.98,6.17,5.96,7.23,,,,,,,,,,,,,,
1799999991012838802,2027-01-15T07:59:51.012838802Z,0.64,0.64,-1.28,1.91,2.98,3.19,0.64,3.40,2.55,4.26,4.68,7.66,6.38,7.02,,,,,,,,,,,,,,
1799999991027104137,2027-01-15T07:59:51.027104137Z,0.21,-0.21,-0.64,1.28,1.06,2.77,1.06,3.83,3.40,4.26,6.81,7.45,6.17,7.66,,,,,,,,,,,,,,
1799999991041369473,2027-01-15T07:59:51.041369473Z,-2.55,-0.43,0.43,0.00,1.06,2.34,2.34,3.19,4.89,4.04,5.74,5.74,6.60,7.23,,,,,,,,,,,,,,
1799999991055634808,2027-01-15T07:59:51.055634808Z,1.06,0.85,0.43,0.85,1.70,2.77,3.19,3.19,4.04,3.62,4.68,5.11,7.02,7.02,,,,,,,,,,,,,,
1799999991069900143,2027-01-15T07:59:51.069900143Z,-0.64,1.91,-0.43,0.64,2.98,2.55,3.62,4.26,3.83,3.40,3.19,5.11,5.96,8.09,,,,,,,,,,,,,,
1799999991084165478,2027-01-15T07:59:51.084165478Z,-2.55,0.00,0.43,1.06,3.62,2.34,2.98,3.19,4.26,4.68,4.04,6.81,6.38,8.94,,,,,,,,,,,,,,
1799999991098430814,2027-01-15T07:59:51.098430814Z,0.85,-0.43,0.43,1.49,-0.21,1.70,2.55,3.83,3.83,3.19,3.83,6.38,7.02,8.51,,,,,,,,,,,,,,
1799999991112696149,2027-01-15T07:59:51.112696149Z,-0.64,-1.28,1.91,-0.85,0.00,2.13,2.77,4.89,4.47,2.55,3.62,5.74,7.66,5.74,,,,,,,,,,,,,,
1799999991126961484,2027-01-15T07:59:51.126961484Z,1.49,-0.85,2.13,-2.34,0.43,2.55,3.83,4.04,4.26,4.47,4.68,6.17,7.45,7.23,,,,,,,,,,,,,,
1799999991141226819,2027-01-15T07:59:51.141226819Z,-2.34,-1.28,-0.64,-1.06,0.64,1.91,4.26,4.04,5.32,5.96,6.38,6.81,6.81,7.23,,,,,,,,,,,,,,
1799999991155492155,2027-01-15T07:59:51.155492155Z,-1.70,-0.43,-1.06,1.28,1.49,1.06,4.47,3.62,4.89,6.81,7.23,7.02,5.74,5.53,,,,,,,,,,,,,,
1799999991169757490,2027-01-15T07:59:51.169757490Z,0.21,0.21,-1.06,0.43,0.85,0.85,4.47,3.62,4.89,4.89,4.89,5.96,7.02,6.17,,,,,,,,,,,,,,
1799999991184022825,2027-01-15T07:59:51.184022825Z,-0.21,-0.43,-1.49,0.85,-0.21,1.70,3.19,4.26,4.26,5.53,4.68,5.11,6.60,6.81,,,,,,,,,,,,,,
1799999991198288160,2027-01-15T07:59:51.198288160Z,-1.70,0.43,-2.34,1.28,1.06,1.70,2.55,4.04,3.62,4.26,4.89,4.68,6.17,7.66,,,,,,,,,,,,,,
1799999991212553496,2027-01-15T07:59:51.212553496Z,-1.06,-0.43,-3.19,1.28,1.06,2.77,0.85,2.34,4.26,5.11,4.47,5.11,5.53,7.66,,,,,,,,,,,,,,
1799999991226818831,2027-01-15T07:59:51.226818831Z,-2.13,-1.06,-0.43,0.85,2.77,2.77,1.91,3.83,3.83,4.04,5.11,5.53,5.74,7.66,,,,,,,,,,,,,,
1799999991241084166,2027-01-15T07:59:51.241084166Z,0.21,-0.64,0.64,0.85,3.62,3.19,2.98,4.26,3.83,3.83,5.96,5.32,5.96,8.30,,,,,,,,,,,,,,
1799999991255349501,2027-01-15T07:59:51.255349501Z,-3.19,0.21,2.34,1.28,1.49,2.55,4.04,2.77,4.89,2.98,5.11,6.81,5.32,7.45,,,,,,,,,,,,,,
1799999991269614836,2027-01-15T07:59:51.269614836Z,-3.62,-0.85,1.28,0.85,0.85,1.91,4.26,2.34,4.04,3.40,5.32,5.96,5.11,8.09,,,,,,,,,,,,,,
1799999991283880172,2027-01-15T07:59:51.283880172Z,1.91,-0.64,0.00,1.91,1.28,2.55,3.62,2.13,3.83,5.32,4.89,6.38,5.32,7.02,,,,,,,,,,,,,,
1799999991298145507,2027-01-15T07:59:51.298145507Z,-1.49,-0.85,0.21,0.64,1.70,2.34,2.77,2.34,2.77,3.40,4.04,7.02,5.96,6.60,,,,,,,,,,,,,,
1799999991312410842,2027-01-15T07:59:51.312410842Z,-0.21,-0.85,0.00,-0.43,-0.64,0.85,0.85,2.13,3.83,4.04,4.47,5.74,5.74,6.60,,,,,,,,,,,,,,
1799999991326676177,2027-01-15T07:59:51.326676177Z,-0.43,-0.85,-1.91,-0.21,0.85,0.64,1.70,2.77,4.26,2.34,5.11,6.17,5.11,6.17,,,,,,,,,,,,,,
1799999991340941513,2027-01-15T07:59:51.340941513Z,-0.43,-1.28,-0.21,-1.06,4.26,1.28,3.40,1.91,1.91,4.26,5.11,5.96,5.32,8.09,,,,,,,,,,,,,,
1799999991355206848,2027-01-15T07:59:51.355206848Z,0.43,0.43,1.06,-0.21,3.40,1.70,0.00,1.91,2.13,5.32,5.96,5.32,5.96,8.94,,,,,,,,,,,,,,
1799999991369472183,2027-01-15T07:59:51.369472183Z,-0.43,1.28,0.21,0.64,0.85,1.28,0.00,3.19,3.62,5.11,6.38,6.38,7.66,7.02,,,,,,,,,,,,,,
1799999991383737518,2027-01-15T07:59:51.383737518Z,1.28,0.43,-1.28,0.21,2.77,0.43,1.91,3.62,5.32,5.32,7.02,7.66,5.53,6.38,,,,,,,,,,,,,,
1799999991398002854,2027-01-15T07:59:51.398002854Z,0.64,0.00,-0.43,0.43,3.40,0.64,2.77,3.83,5.32,5.32,6.60,6.81,4.68,7.02,,,,,,,,,,,,,,
1799999991412268189,2027-01-15T07:59:51.412268189Z,0.00,-2.98,0.85,1.06,2.34,0.85,3.83,2.55,2.77,5.32,6.17,4.68,5.96,8.72,,,,,,,,,,,,,,
1799999991426533524,2027-01-15T07:59:51.426533524Z,-0.64,-1.91,1.06,1.28,1.06,1.28,2.98,2.77,3.40,4.89,6.38,4.89,7.02,8.30,,,,,,,,,,,,,,
1799999991440798859,2027-01-15T07:59:51.440798859Z,-1.49,-0.21,1.91,0.64,0.64,1.49,2.55,3.40,4.04,5.32,5.53,7.23,5.96,6.38,,,,,,,,,,,,,,
1799999991455064195,2027-01-15T07:59:51.455064195Z,-2.77,-0.85,2.98,0.21,1.91,1.70,1.49,2.55,4.04,4.04,6.17,6.81,6.38,6.17,,,,,,,,,,,,,,
1799999991469329530,2027-01-15T07:59:51.469329530Z,-0.85,-0.85,-0.21,-0.43,2.34,2.13,2.55,2.98,4.89,3.40,5.53,5.74,6.38,6.60,,,,,,,,,,,,,,
1799999991483594865,2027-01-15T07:59:51.483594865Z,-1.06,-1.49,-1.91,-0.85,0.43,2.34,2.34,3.83,5.32,4.47,4.04,5.53,6.60,6.81,,,,,,,,,,,,,,
1799999991497860200,2027-01-15T07:59:51.497860200Z,-3.40,-1.91,1.28,0.64,1.28,2.34,1.70,3.40,2.77,6.38,4.47,5.74,6.81,4.89,,,,,,,,,,,,,,
1799999991512125535,2027-01-15T07:59:51.512125535Z,0.43,-2.13,1.06,1.49,1.91,1.49,2.55,3.19,3.40,5.74,5.11,6.60,5.96,6.38,,,,,,,,,,,,,,
1799999991526390871,2027-01-15T07:59:51.526390871Z,1.49,-1.70,-1.28,-0.43,1.49,2.34,3.40,3.40,4.68,4.47,6.81,7.23,7.02,8.30,,,,,,,,,,,,,,
1799999991540656206,2027-01-15T07:59:51.540656206Z,-0.64,-0.64,-0.85,0.64,-0.21,2.77,1.70,3.19,5.11,3.83,6.81,6.60,8.72,8.30,,,,,,,,,,,,,,
1799999991554921541,2027-01-15T07:59:51.554921541Z,-2.34,-0.21,-1.06,-0.43,-0.43,2.98,2.34,5.53,5.11,4.26,6.60,5.53,7.87,8.94,,,,,,,,,,,,,,
1799999991569186876,2027-01-15T07:59:51.569186876Z,2.77,0.00,-1.70,-1.28,-0.85,3.83,4.04,5.96,4.68,3.19,7.23,5.74,7.23,7.45,,,,,,,,,,,,,,
1799999991583452212,2027-01-15T07:59:51.583452212Z,1.06,0.00,-2.55,1.28,2.13,3.83,5.74,4.68,4.47,3.19,5.74,7.45,6.81,6.17,,,,,,,,,,,,,,
1799999991597717547,2027-01-15T07:59:51.597717547Z,2.13,0.43,-2.98,1.28,0.85,1.91,3.62,3.62,4.26,3.83,5.32,6.60,6.38,6.60,,,,,,,,,,,,,,
1799999991611982882,2027-01-15T07:59:51.611982882Z,-1.91,0.85,-3.40,1.49,-0.64,1.28,2.55,4.47,4.89,5.74,5.32,6.60,6.38,8.09,,,,,,,,,,,,,,
1799999991626248217,2027-01-15T07:59:51.626248217Z,-2.55,-0.85,0.85,0.64,0.00,1.49,4.04,4.04,4.89,5.32,5.11,5.74,7.02,8.72,,,,,,,,,,,,,,
1799999991640513553,2027-01-15T07:59:51.640513553Z,-0.21,-1.49,1.49,1.49,1.06,2.77,3.83,3.19,4.47,4.04,5.32,4.89,7.87,7.02,,,,,,,,,,,,,,
1799999991654778888,2027-01-15T07:59:51.654778888Z,-0.64,-1.06,0.21,1.06,2.13,3.62,3.62,2.98,4.26,3.83,4.47,5.74,7.45,6.60,,,,,,,,,,,,,,
1799999991669044223,2027-01-15T07:59:51.669044223Z,1.49,-1.70,1.49,1.70,2.77,3.19,2.77,3.19,4.04,5.32,4.68,6.81,7.66,7.45,,,,,,,,,,,,,,
1799999991683309558,2027-01-15T07:59:51.683309558Z,-0.21,-1.28,0.64,1.70,1.91,2.34,2.77,2.34,4.26,4.26,5.11,7.23,7.23,6.81,,,,,,,,,,,,,,
1799999991697574894,2027-01-15T07:59:51.697574894Z,1.06,-1.06,-2.55,0.64,0.64,2.77,3.19,0.43,4.47,3.40,5.32,6.17,6.17,7.02,,,,,,,,,,,,,,
1799999991711840229,2027-01-15T07:59:51.711840229Z,-0.21,-1.49,-1.91,1.28,1.28,2.13,3.62,1.49,3.40,4.26,4.89,6.38,6.17,7.87,,,,,,,,,,,,,,
1799999991726105564,2027-01-15T07:59:51.726105564Z,0.85,0.00,-1.06,1.49,0.85,2.34,3.62,3.40,4.47,4.47,4.47,6.81,4.68,8.30,,,,,,,,,,,,,,
1799999991740370899,2027-01-15T07:59:51.740370899Z,-0.64,0.00,-0.85,0.85,0.64,2.13,3.62,3.19,5.53,3.40,4.68,7.02,4.47,8.30,,,,,,,,,,,,,,
1799999991754636234,2027-01-15T07:59:51.754636234Z,-1.06,-0.21,0.85,1.06,0.43,1.70,4.47,1.06,3.62,3.83,4.26,6.81,5.11,8.09,,,,,,,,,,,,,,
1799999991768901570,2027-01-15T07:59:51.768901570Z,-0.43,0.00,1.06,0.00,1.28,1.28,4.26,1.49,2.13,4.89,4.47,5.53,6.38,7.87,,,,,,,,,,,,,,
1799999991783166905,2027-01-15T07:59:51.783166905Z,0.64,0.00,0.43,0.85,1.70,0.21,4.04,3.40,1.70,5.96,6.17,6.17,7.66,7.45,,,,,,,,,,,,,,
1799999991797432240,2027-01-15T07:59:51.797432240Z,0.00,0.00,0.00,0.64,1.91,1.28,4.04,4.04,2.34,5.53,5.96,6.81,7.45,5.96,,,,,,,,,,,,,,
1799999991811697575,2027-01-15T07:59:51.811697575Z,0.85,0.43,-0.21,0.43,4.26,1.49,3.62,5.53,2.55,5.32,6.60,6.81,6.81,4.47,,,,,,,,,,,,,,
1799999991825962911,2027-01-15T07:59:51.825962911Z,0.43,0.21,-0.64,1.28,4.26,1.91,3.40,4.26,1.70,4.04,7.23,7.66,5.74,5.11,,,,,,,,,,,,,,
1799999991840228246,2027-01-15T07:59:51.840228246Z,-1.49,0.21,0.00,-0.64,2.77,2.55,3.40,2.98,2.55,4.47,7.02,7.02,5.96,6.17,,,,,,,,,,,,,,
1799999991854493581,2027-01-15T07:59:51.854493581Z,0.00,0.21,0.00,-1.49,0.64,1.91,2.55,3.62,2.34,5.11,5.53,6.38,6.17,8.51,,,,,,,,,,,,,,
1799999991868758916,2027-01-15T07:59:51.868758916Z,0.64,-0.43,0.21,0.00,1.06,2.77,3.83,4.89,4.04,6.81,5.11,5.74,5.32,6.81,,,,,,,,,,,,,,
1799999991883024252,2027-01-15T07:59:51.883024252Z,1.06,-0.64,1.28,0.21,2.13,3.62,4.68,4.47,6.38,6.81,5.96,5.11,5.53,5.11,,,,,,,,,,,,,,
1799999991897289587,2027-01-15T07:59:51.897289587Z,-2.55,0.64,1.91,1.06,1.49,4.26,4.04,3.19,6.60,6.17,5.96,5.96,6.17,5.96,,,,,,,,,,,,,,
1799999991911554922,2027-01-15T07:59:51.911554922Z,-1.70,0.00,3.19,2.13,2.98,3.19,2.98,2.98,4.68,4.04,4.68,6.38,7.02,7.87,,,,,,,,,,,,,,
1799999991925820257,2027-01-15T07:59:51.925820257Z,2.34,-0.21,2.55,-0.85,5.11,1.49,2.34,2.98,3.40,3.83,4.68,7.02,6.38,7.66,,,,,,,,,,,,,,
1799999991940085593,2027-01-15T07:59:51.940085593Z,-1.28,0.64,0.85,-2.13,0.85,1.70,1.49,2.34,4.47,4.68,5.74,7.45,5.32,7.02,,,,,,,,,,,,,,
1799999991954350928,2027-01-15T07:59:51.954350928Z,-1.06,0.85,-2.13,1.70,-0.21,2.34,1.28,2.77,4.89,5.53,5.11,5.96,5.96,6.60,,,,,,,,,,,,,,
1799999991968616263,2027-01-15T07:59:51.968616263Z,-1.06,-0.64,-3.19,1.70,1.49,1.49,2.98,3.40,3.83,5.96,3.83,6.38,5.74,7.02,,,,,,,,,,,,,,
1799999991982881598,2027-01-15T07:59:51.982881598Z,1.91,-2.77,-1.91,0.85,1.91,1.91,3.62,3.19,3.19,5.11,4.26,7.45,7.45,7.66,,,,,,,,,,,,,,
1799999991997146933,2027-01-15T07:59:51.997146933Z,-0.64,-2.34,-1.06,-1.49,-2.77,1.91,4.26,2.77,4.26,3.83,5.96,6.60,8.09,7.02,,,,,,,,,,,,,,
1799999992011412269,2027-01-15T07:59:52.011412269Z,0.43,0.00,-1.06,0.21,-2.13,1.49,3.19,3.62,4.04,4.47,7.02,5.96,7.87,7.23,,,,,,,,,,,,,,
1799999992025677604,2027-01-15T07:59:52.025677604Z,0.00,-0.21,-0.43,0.64,0.21,1.91,2.55,1.06,3.40,5.11,5.53,4.68,6.60,7.45,,,,,,,,,,,,,,
1799999992039942939,2027-01-15T07:59:52.039942939Z,-1.28,-1.06,-0.64,1.28,1.49,1.49,0.43,1.06,3.83,4.47,4.89,4.89,5.53,7.23,,,,,,,,,,,,,,
1799999992054208274,2027-01-15T07:59:52.054208274Z,-2.13,-1.49,-2.13,-0.21,3.19,1.91,1.28,1.70,3.40,3.40,4.26,6.17,5.32,7.45,,,,,,,,,,,,,,
1799999992068473610,2027-01-15T07:59:52.068473610Z,-1.06,0.00,0.21,-0.64,2.98,2.77,2.34,3.19,2.77,1.91,4.89,7.02,5.74,8.51,,,,,,,,,,,,,,
1799999992082738945,2027-01-15T07:59:52.082738945Z,-1.06,0.21,0.21,1.06,-0.43,2.55,2.13,4.89,2.77,3.62,5.74,7.45,7.45,8.30,,,,,,,,,,,,,,
1799999992097004280,2027-01-15T07:59:52.097004280Z,0.00,0.00,-0.43,1.91,-1.06,3.40,2.77,4.68,3.40,5.11,5.11,5.74,6.38,7.66,,,,,,,,,,,,,,
1799999992111269615,2027-01-15T07:59:52.111269615Z,0.64,0.43,-1.06,1.06,-1.49,2.77,2.77,3.19,4.04,5.96,5.74,4.89,6.17,8.72,,,,,,,,,,,,,,
1799999992125534951,2027-01-15T07:59:52.125534951Z,-0.21,-0.43,-0.85,1.28,-0.64,1.91,2.55,2.55,4.47,5.11,7.23,5.11,6.17,7.66,,,,,,,,,,,,,,
1799999992139800286,2027-01-15T07:59:52.139800286Z,-1.28,-1.49,0.43,1.06,-0.43,2.55,2.34,3.19,3.83,4.68,5.74,4.89,5.96,7.66,,,,,,,,,,,,,,
1799999992154065621,2027-01-15T07:59:52.154065621Z,0.21,-1.28,0.21,1.06,-0.43,2.98,2.55,2.77,3.62,4.26,4.47,4.47,5.74,8.30,,,,,,,,,,,,,,
1799999992168330956,2027-01-15T07:59:52.168330956Z,0.43,-1.06,-0.43,1.06,1.28,2.13,3.19,1.91,4.04,4.26,3.83,5.32,7.45,6.81,,,,,,,,,,,,,,
1799999992182596292,2027-01-15T07:59:52.182596292Z,-2.13,-0.64,0.21,-0.85,2.77,1.06,2.34,1.91,4.04,5.53,4.47,5.96,6.81,6.17,,,,,,,,,,,,,,
1799999992196861627,2027-01-15T07:59:52.196861627Z,0.21,0.43,0.64,-1.70,2.98,2.13,1.49,2.34,3.40,5.74,7.45,5.53,5.53,5.11,,,,,,,,,,,,,,
1799999992211126962,2027-01-15T07:59:52.211126962Z,-2.34,-0.21,0.00,-0.64,1.28,2.77,2.13,2.98,2.55,3.19,8.09,4.89,5.11,6.17,,,,,,,,,,,,,,
1799999992225392297,2027-01-15T07:59:52.225392297Z,-2.55,-1.28,0.00,-0.85,1.06,2.34,3.19,1.70,2.13,2.77,6.81,5.32,6.60,8.72,,,,,,,,,,,,,,
1799999992239657632,2027-01-15T07:59:52.239657632Z,-1.49,-2.13,2.13,1.06,4.04,1.28,3.19,2.13,3.62,4.26,6.38,4.68,8.09,8.09,,,,,,,,,,,,,,
1799999992253922968,2027-01-15T07:59:52.253922968Z,-1.28,-0.43,1.06,0.85,1.06,0.43,1.91,3.83,5.74,6.17,5.53,6.81,7.66,8.30,,,,,,,,,,,,,,
1799999992268188303,2027-01-15T07:59:52.268188303Z,-2.34,-1.49,-1.06,0.85,0.21,0.85,2.34,6.17,5.53,5.53,5.32,8.72,7.23,7.45,,,,,,,,,,,,,,
1799999992282453638,2027-01-15T07:59:52.282453638Z,-0.21,-0.85,0.00,-0.21,0.64,2.77,2.34,4.47,4.89,6.17,3.62,8.30,6.81,6.38,,,,,,,,,,,,,,
1799999992296718973,2027-01-15T07:59:52.296718973Z,0.85,-0.21,1.91,0.21,-0.64,2.13,2.13,2.98,4.89,4.68,5.74,5.74,7.45,6.17,,,,,,,,,,,,,,
1799999992310984309,2027-01-15T07:59:52.310984309Z,-1.28,-0.43,3.19,1.91,-0.64,1.91,1.49,3.83,4.89,4.26,7.23,5.32,7.87,6.38,,,,,,,,,,,,,,
1799999992325249644,2027-01-15T07:59:52.325249644Z,-1.28,-0.43,1.70,1.49,2.13,1.28,0.00,2.77,2.55,5.11,5.11,4.89,8.30,7.23,,,,,,,,,,,,,,
1799999992339514979,2027-01-15T07:59:52.339514979Z,-0.21,-4.04,-0.21,-0.21,4.26,1.70,1.70,3.62,2.98,5.11,4.04,4.04,6.81,7.87,,,,,,,,,,,,,,
1799999992353780314,2027-01-15T07:59:52.353780314Z,0.43,-3.19,0.00,-0.21,3.83,2.55,1.91,3.62,3.62,4.47,3.19,4.04,7.45,8.09,,,,,,,,,,,,,,
1799999992368045650,2027-01-15T07:59:52.368045650Z,-0.43,-2.13,0.43,0.43,-0.64,1.49,2.13,3.40,2.13,5.74,2.98,6.60,7.23,7.02,,,,,,,,,,,,,,
1799999992382310985,2027-01-15T07:59:52.382310985Z,-0.21,-0.21,-0.21,0.64,-1.49,0.85,2.34,2.55,4.04,5.53,3.62,7.45,6.38,7.23,,,,,,,,,,,,,,
1799999992396576320,2027-01-15T07:59:52.396576320Z,-1.28,-1.49,1.06,1.28,-1.49,1.91,2.98,1.49,4.68,4.47,3.19,8.09,6.38,7.45,,,,,,,,,,,,,,
1799999992410841655,2027-01-15T07:59:52.410841655Z,-0.43,-2.34,1.06,-0.21,1.06,2.55,3.19,1.70,3.62,4.04,4.47,6.81,5.74,6.81,,,,,,,,,,,,,,
1799999992425106991,2027-01-15T07:59:52.425106991Z,-1.49,-1.70,0.00,0.85,1.91,4.04,2.55,2.77,4.04,4.47,4.89,6.38,6.38,7.45,,,,,,,,,,,,,,
1799999992439372326,2027-01-15T07:59:52.439372326Z,-1.70,0.00,-1.70,1.70,1.28,3.19,2.98,3.19,4.47,5.96,4.26,7.02,5.74,8.30,,,,,,,,,,,,,,
1799999992453637661,2027-01-15T07:59:52.453637661Z,0.64,-0.21,-2.13,0.85,2.55,2.34,2.55,3.19,4.26,5.32,5.53,7.02,5.32,8.51,,,,,,,,,,,,,,
1799999992467902996,2027-01-15T07:59:52.467902996Z,1.06,-0.21,-1.28,-0.21,4.47,1.91,2.13,3.19,4.26,3.83,6.17,6.81,5.96,8.94,,,,,,,,,,,,,,
1799999992482168331,2027-01-15T07:59:52.482168331Z,-1.70,0.21,-1.28,0.21,3.40,2.13,2.55,4.68,4.04,2.34,5.53,6.17,6.38,9.15,,,,,,,,,,,,,,
1799999992496433667,2027-01-15T07:59:52.496433667Z,-1.70,0.64,-0.21,2.55,1.70,0.85,2.77,4.04,3.40,4.68,6.81,6.38,4.68,7.45,,,,,,,,,,,,,,
1799999992510699002,2027-01-15T07:59:52.510699002Z,0.21,0.00,-1.70,2.34,0.21,1.28,2.55,2.55,2.34,5.11,7.66,5.53,5.53,7.45,,,,,,,,,,,,,,
1799999992524964337,2027-01-15T07:59:52.524964337Z,-1.28,-2.13,-1.28,1.28,2.98,1.49,3.19,2.55,3.19,4.89,8.51,5.53,6.17,8.94,,,,,,,,,,,,,,
1799999992539229672,2027-01-15T07:59:52.539229672Z,-2.77,-0.21,0.21,1.06,3.83,1.70,4.68,5.74,4.68,5.11,6.38,5.96,6.60,8.51,,,,,,,,,,,,,,
1799999992553495008,2027-01-15T07:59:52.553495008Z,-1.91,2.34,-1.91,0.85,2.13,0.64,3.62,5.32,4.26,5.11,5.32,7.23,7.02,7.02,,,,,,,,,,,,,,
1799999992567760343,2027-01-15T07:59:52.567760343Z,-0.21,0.43,-1.70,0.00,-1.49,-0.43,2.77,2.98,4.47,5.11,6.17,7.02,6.38,6.17,,,,,,,,,,,,,,
1799999992582025678,2027-01-15T07:59:52.582025678Z,-0.85,-1.28,-0.85,0.43,0.00,1.70,3.62,0.85,2.13,4.68,5.53,7.02,6.17,5.53,,,,,,,,,,,,,,
1799999992596291013,2027-01-15T07:59:52.596291013Z,1.49,-0.43,-1.06,0.21,0.00,2.55,4.04,2.77,1.70,2.55,6.17,6.60,7.02,6.38,,,,,,,,,,,,,,
1799999992610556349,2027-01-15T07:59:52.610556349Z,-1.49,1.91,-1.91,0.00,1.49,2.13,3.83,2.55,3.19,2.77,5.32,5.32,7.02,7.23,,,,,,,,,,,,,,
1799999992624821684,2027-01-15T07:59:52.624821684Z,-2.13,1.06,0.00,0.00,2.98,1.28,4.26,1.49,2.55,3.40,4.89,5.53,6.60,7.23,,,,,,,,,,,,,,
1799999992639087019,2027-01-15T07:59:52.639087019Z,0.43,-1.28,1.49,0.00,2.98,0.85,4.68,1.06,2.13,4.68,5.96,6.38,6.60,6.17,,,,,,,,,,,,,,
1799999992653352354,2027-01-15T07:59:52.653352354Z,-0.85,-1.28,0.00,0.64,4.04,1.49,3.19,2.34,4.47,5.32,4.89,7.66,7.66,4.47,,,,,,,,,,,,,,
1799999992667617690,2027-01-15T07:59:52.667617690Z,-0.85,-1.06,-2.55,1.28,2.34,2.55,2.98,2.34,4.26,5.32,4.89,7.23,7.66,5.74,,,,,,,,,,,,,,
1799999992681883025,2027-01-15T07:59:52.681883025Z,-0.43,-2.34,-2.98,2.13,2.13,2.77,2.55,2.98,4.47,5.32,4.68,6.60,7.66,6.81,,,,,,,,,,,,,,
1799999992696148360,2027-01-15T07:59:52.696148360Z,-0.21,-1.06,-1.49,1.06,2.55,1.49,2.34,3.62,5.32,4.47,4.47,6.38,7.23,6.38,,,,,,,,,,,,,,
1799999992710413695,2027-01-15T07:59:52.710413695Z,0.43,-0.21,1.28,0.64,1.06,1.49,2.34,4.04,5.32,3.40,5.11,6.17,7.02,5.96,,,,,,,,,,,,,,
1799999992724679030,2027-01-15T07:59:52.724679030Z,-0.64,0.21,1.28,1.91,0.21,2.34,2.34,5.32,3.83,2.55,5.53,5.74,7.02,5.74,,,,,,,,,,,,,,
1799999992738944366,2027-01-15T07:59:52.738944366Z,-1.70,-0.21,-0.43,0.21,1.06,2.77,2.34,2.77,5.32,3.62,4.04,6.17,7.45,8.72,,,,,,,,,,,,,,
1799999992753209701,2027-01-15T07:59:52.753209701Z,0.43,-0.43,-1.49,0.85,0.00,1.91,1.28,1.49,5.11,4.68,5.96,4.68,7.23,8.51,,,,,,,,,,,,,,
1799999992767475036,2027-01-15T07:59:52.767475036Z,0.85,0.43,0.21,-0.43,-0.21,1.91,2.13,2.34,5.53,4.26,6.81,4.26,4.89,8.09,,,,,,,,,,,,,,
1799999992781740371,2027-01-15T07:59:52.781740371Z,0.64,0.85,1.28,-0.85,0.85,1.49,3.62,4.04,5.32,5.11,6.17,6.17,4.47,8.30,,,,,,,,,,,,,,
1799999992796005707,2027-01-15T07:59:52.796005707Z,0.85,-0.43,-0.21,-0.43,1.06,1.49,2.98,4.47,4.26,5.53,5.11,6.38,5.96,7.45,,,,,,,,,,,,,,
1799999992810271042,2027-01-15T07:59:52.810271042Z,1.06,0.00,-0.64,-1.28,0.64,2.13,2.34,4.26,5.11,5.32,5.96,5.96,6.17,5.74,,,,,,,,,,,,,,
1799999992824536377,2027-01-15T07:59:52.824536377Z,-0.85,1.70,-0.21,-0.21,-0.21,1.91,2.34,5.11,4.47,5.74,6.17,6.81,7.87,5.53,,,,,,,,,,,,,,
1799999992838801712,2027-01-15T07:59:52.838801712Z,-1.70,1.06,1.06,-0.64,0.00,1.49,2.34,4.04,3.40,5.32,5.53,6.17,6.81,6.38,,,,,,,,,,,,,,
1799999992853067048,2027-01-15T07:59:52.853067048Z,-3.19,-2.34,1.91,-0.21,-0.85,2.34,2.77,3.83,2.34,4.47,2.98,5.74,6.81,5.53,,,,,,,,,,,,,,
1799999992867332383,2027-01-15T07:59:52.867332383Z,-0.43,-2.77,-1.49,0.43,-0.64,3.62,3.19,4.26,1.91,3.83,3.83,7.23,5.32,6.38,,,,,,,,,,,,,,
1799999992881597718,2027-01-15T07:59:52.881597718Z,-1.28,-0.85,-2.77,-0.64,0.43,2.77,4.26,3.62,1.28,4.89,4.89,5.96,4.04,7.45,,,,,,,,,,,,,,
1799999992895863053,2027-01-15T07:59:52.895863053Z,-1.91,0.64,-2.55,-1.06,-0.21,1.91,4.89,3.83,1.70,5.11,5.96,5.32,5.11,8.51,,,,,,,,,,,,,,
1799999992910128389,2027-01-15T07:59:52.910128389Z,-0.85,0.43,1.49,0.85,2.13,2.98,4.89,3.19,3.40,4.89,5.32,6.38,5.11,7.87,,,,,,,,,,,,,,
1799999992924393724,2027-01-15T07:59:52.924393724Z,0.64,0.00,1.49,0.64,3.83,4.04,4.47,2.98,3.40,5.11,6.17,6.81,6.60,6.17,,,,,,,,,,,,,,
1799999992938659059,2027-01-15T07:59:52.938659059Z,1.28,-0.21,1.28,0.85,3.40,3.19,3.83,4.47,4.04,4.68,5.74,6.60,7.02,7.02,,,,,,,,,,,,,,
1799999992952924394,2027-01-15T07:59:52.952924394Z,2.34,0.43,1.91,0.21,2.13,2.98,2.98,5.32,2.13,3.83,4.47,7.45,7.02,5.96,,,,,,,,,,,,,,
1799999992967189729,2027-01-15T07:59:52.967189729Z,-2.13,-1.49,0.64,0.21,-0.21,1.28,2.13,4.47,2.77,4.68,5.53,5.96,7.66,6.60,,,,,,,,,,,,,,
1799999992981455065,2027-01-15T07:59:52.981455065Z,-1.49,-2.34,-2.34,1.28,0.00,0.00,1.91,3.19,4.26,5.11,6.17,5.11,7.66,7.87,,,,,,,,,,,,,,
1799999992995720400,2027-01-15T07:59:52.995720400Z,-1.49,-1.91,-0.85,0.43,0.85,0.21,3.83,2.34,2.34,3.83,7.23,5.74,7.87,7.02,,,,,,,,,,,,,,
1799999993009985735,2027-01-15T07:59:53.009985735Z,1.06,-0.43,0.43,1.49,1.06,1.28,2.13,1.28,2.34,3.62,6.60,7.02,6.81,7.23,,,,,,,,,,,,,,
1799999993024251070,2027-01-15T07:59:53.024251070Z,-2.55,-0.43,0.21,2.77,0.85,0.43,2.13,0.21,2.98,3.83,5.74,7.45,5.74,7.87,,,,,,,,,,,,,,
1799999993038516406,2027-01-15T07:59:53.038516406Z,-0.21,-1.28,0.21,1.49,1.28,0.00,2.77,1.06,3.83,3.62,5.74,6.17,7.23,6.60,,,,,,,,,,,,,,
1799999993052781741,2027-01-15T07:59:53.052781741Z,0.43,0.43,1.06,1.06,2.13,2.34,2.55,2.13,4.04,4.26,5.74,5.96,7.45,7.02,,,,,,,,,,,,,,
1799999993067047076,2027-01-15T07:59:53.067047076Z,0.85,0.00,1.49,1.70,1.49,2.55,2.55,3.83,4.04,4.68,3.62,5.11,6.17,7.87,,,,,,,,,,,,,,
1799999993081312411,2027-01-15T07:59:53.081312411Z,0.43,-0.64,-1.06,3.19,0.85,2.34,2.98,2.98,4.04,4.89,2.98,6.38,5.74,7.66,,,,,,,,,,,,,,
1799999993095577747,2027-01-15T07:59:53.095577747Z,0.00,-0.64,-2.13,1.49,1.06,2.13,3.62,2.34,5.74,4.68,5.96,7.02,5.74,7.45,,,,,,,,,,,,,,
1799999993109843082,2027-01-15T07:59:53.109843082Z,1.06,-1.28,0.43,1.28,2.34,2.77,1.91,2.13,5.74,3.62,5.74,7.02,7.02,6.60,,,,,,,,,,,,,,
1799999993124108417,2027-01-15T07:59:53.124108417Z,1.28,-1.06,1.49,1.70,3.62,2.55,0.85,2.77,5.53,4.04,4.68,6.81,6.81,6.17,,,,,,,,,,,,,,
1799999993138373752,2027-01-15T07:59:53.138373752Z,1.28,0.64,1.49,0.85,3.40,2.55,0.64,4.68,4.47,4.89,4.89,7.87,7.23,6.60,,,,,,,,,,,,,,
1799999993152639088,2027-01-15T07:59:53.152639088Z,0.85,-0.21,-1.49,1.70,2.13,2.77,0.64,3.19,3.40,4.68,5.11,7.87,7.66,8.30,,,,,,,,,,,,,,
1799999993166904423,2027-01-15T07:59:53.166904423Z,-0.64,0.64,-1.28,1.49,1.28,2.13,1.49,2.34,4.04,5.32,5.32,6.17,6.81,7.87,,,,,,,,,,,,,,
1799999993181169758,2027-01-15T07:59:53.181169758Z,-0.43,0.00,-0.85,-0.43,-0.43,2.34,2.55,2.77,4.26,5.53,5.53,5.53,6.38,7.45,,,,,,,,,,,,,,
1799999993195435093,2027-01-15T07:59:53.195435093Z,0.21,-1.06,1.70,-1.28,2.13,2.55,1.70,3.19,5.74,5.53,5.32,5.53,5.74,8.30,,,,,,,,,,,,,,
1799999993209700428,2027-01-15T07:59:53.209700428Z,0.85,0.00,0.21,-0.21,3.83,2.34,1.28,2.55,4.04,5.53,5.74,5.32,6.60,8.72,,,,,,,,,,,,,,
1799999993223965764,2027-01-15T07:59:53.223965764Z,-0.43,-1.28,-0.43,-0.21,3.19,1.91,1.28,1.49,2.98,4.89,6.17,5.11,6.81,7.66,,,,,,,,,,,,,,
1799999993238231099,2027-01-15T07:59:53.238231099Z,-0.64,-2.34,-0.64,-0.64,1.28,2.98,2.98,3.83,4.26,3.62,6.38,4.89,6.17,5.96,,,,,,,,,,,,,,
1799999993252496434,2027-01-15T07:59:53.252496434Z,-2.34,-0.64,0.43,-0.43,1.49,2.55,2.98,4.47,4.47,1.28,6.17,6.17,6.38,6.38,,,,,,,,,,,,,,
1799999993266761769,2027-01-15T07:59:53.266761769Z,1.70,-0.21,0.64,1.28,1.91,2.55,3.19,3.19,4.26,2.98,5.11,7.23,5.32,7.87,,,,,,,,,,,,,,
1799999993281027105,2027-01-15T07:59:53.281027105Z,0.85,-2.55,-0.43,0.64,0.00,2.55,3.19,2.98,3.40,4.47,3.62,5.74,5.74,7.23,,,,,,,,,,,,,,
1799999993295292440,2027-01-15T07:59:53.295292440Z,1.70,-1.28,-2.55,0.00,-1.06,1.06,4.89,4.04,3.62,4.04,4.04,6.81,7.23,6.81,,,,,,,,,,,,,,
1799999993309557775,2027-01-15T07:59:53.309557775Z,-6.38,1.06,-2.98,0.64,1.70,0.85,6.17,5.32,4.68,2.98,4.26,7.45,7.66,7.66,,,,,,,,,,,,,,
1799999993323823110,2027-01-15T07:59:53.323823110Z,0.43,0.43,-1.91,0.43,2.98,1.28,5.32,6.60,4.89,4.68,5.53,6.60,7.23,8.30,,,,,,,,,,,,,,
1799999993338088446,2027-01-15T07:59:53.338088446Z,0.00,-0.64,-1.06,-0.85,1.06,2.34,2.77,4.04,4.68,4.89,8.09,4.26,6.60,8.51,,,,,,,,,,,,,,
1799999993352353781,2027-01-15T07:59:53.352353781Z,2.34,0.43,-0.64,0.43,0.85,3.83,2.34,0.85,4.47,2.98,7.23,7.45,6.60,9.57,,,,,,,,,,,,,,
1799999993366619116,2027-01-15T07:59:53.366619116Z,-1.91,-0.21,-1.49,0.00,0.85,4.04,3.62,4.04,3.83,2.34,5.74,8.94,6.60,10.00,,,,,,,,,,,,,,
1799999993380884451,2027-01-15T07:59:53.380884451Z,-4.04,-0.85,-0.21,1.70,1.49,2.77,0.21,5.32,4.26,5.53,3.83,7.23,6.38,9.15,,,,,,,,,,,,,,
1799999993395149787,2027-01-15T07:59:53.395149787Z,-2.77,0.43,0.64,1.70,1.49,-0.85,-0.43,3.40,4.47,6.38,5.74,4.26,5.74,7.66,,,,,,,,,,,,,,
1799999993409415122,2027-01-15T07:59:53.409415122Z,-2.55,-0.85,0.85,-2.55,1.91,0.43,2.13,0.85,4.26,6.17,7.02,4.04,6.60,6.17,,,,,,,,,,,,,,
1799999993423680457,2027-01-15T07:59:53.423680457Z,-1.70,0.21,0.85,-1.49,2.13,1.70,4.47,2.34,4.04,6.17,5.53,5.32,5.96,5.74,,,,,,,,,,,,,,
1799999993437945792,2027-01-15T07:59:53.437945792Z,-0.64,-0.64,-0.43,0.43,2.77,3.83,4.04,4.04,2.98,5.74,2.55,5.96,5.74,6.60,,,,,,,,,,,,,,
1799999993452211127,2027-01-15T07:59:53.452211127Z,-0.64,-0.43,0.00,-0.21,-0.64,2.98,0.85,4.26,3.19,5.74,5.53,6.81,6.81,7.02,,,,,,,,,,,,,,
1799999993466476463,2027-01-15T07:59:53.466476463Z,0.85,0.64,0.43,-0.43,-1.49,2.98,-0.21,1.91,3.40,4.68,8.09,7.87,7.23,6.81,,,,,,,,,,,,,,
1799999993480741798,2027-01-15T07:59:53.480741798Z,-0.43,-2.13,-0.21,-0.43,4.26,3.62,2.55,4.89,2.34,2.34,6.17,7.66,7.45,7.02,,,,,,,,,,,,,,
1799999993495007133,2027-01-15T07:59:53.495007133Z,-1.06,-1.28,-0.64,0.43,2.55,4.89,4.26,5.74,4.68,4.89,6.17,6.81,7.02,6.81,,,,,,,,,,,,,,
1799999993509272468,2027-01-15T07:59:53.509272468Z,-1.06,0.00,-0.64,2.77,-0.43,3.40,3.40,4.04,5.74,3.83,6.38,6.38,5.74,6.17,,,,,,,,,,,,,,
1799999993523537804,2027-01-15T07:59:53.523537804Z,0.00,0.43,-0.21,1.70,0.85,1.06,3.40,2.77,4.04,3.40,7.02,7.02,7.02,6.17,,,,,,,,,,,,,,
1799999993537803139,2027-01-15T07:59:53.537803139Z,-0.43,-0.21,-0.21,-0.43,1.06,-0.21,3.40,0.21,2.98,4.89,7.02,6.81,6.81,7.45,,,,,,,,,,,,,,
1799999993552068474,2027-01-15T07:59:53.552068474Z,-3.62,-0.21,-0.64,0.00,4.04,-0.85,2.98,3.62,3.62,4.04,6.17,5.74,5.32,7.45,,,,,,,,,,,,,,
1799999993566333809,2027-01-15T07:59:53.566333809Z,2.13,1.06,0.21,2.55,3.62,1.49,1.70,3.83,5.32,4.89,3.19,5.53,6.38,6.38,,,,,,,,,,,,,,
1799999993580599145,2027-01-15T07:59:53.580599145Z,-0.64,0.21,-0.85,2.13,2.98,2.34,2.77,2.55,4.68,4.26,4.47,6.17,7.66,6.38,,,,,,,,,,,,,,
1799999993594864480,2027-01-15T07:59:53.594864480Z,1.49,0.43,-2.13,1.49,2.13,1.91,2.13,0.64,4.68,4.26,6.60,5.32,7.45,6.81,,,,,,,,,,,,,,
1799999993609129815,2027-01-15T07:59:53.609129815Z,0.21,-0.64,-1.70,1.28,3.40,1.28,0.85,3.83,4.26,5.53,3.62,5.53,6.60,7.66,,,,,,,,,,,,,,
1799999993623395150,2027-01-15T07:59:53.623395150Z,-0.85,0.21,-0.85,0.85,0.43,1.06,2.77,5.32,3.83,6.38,4.04,5.32,5.74,8.72,,,,,,,,,,,,,,
1799999993637660486,2027-01-15T07:59:53.637660486Z,0.43,0.64,-0.43,0.43,-2.55,1.49,3.40,3.62,3.62,5.74,5.32,4.89,5.74,7.45,,,,,,,,,,,,,,
1799999993651925821,2027-01-15T07:59:53.651925821Z,-0.85,-2.98,-0.64,0.21,-1.06,0.85,3.62,1.06,3.62,5.96,5.74,5.96,6.17,7.02,,,,,,,,,,,,,,
1799999993666191156,2027-01-15T07:59:53.666191156Z,0.00,-3.19,-0.21,0.00,1.28,0.85,3.19,2.34,4.04,5.32,5.32,5.74,6.81,7.45,,,,,,,,,,,,,,
1799999993680456491,2027-01-15T07:59:53.680456491Z,1.49,-1.70,0.43,1.49,1.49,1.28,2.55,3.62,4.89,5.32,4.68,5.96,6.38,7.66,,,,,,,,,,,,,,
1799999993694721826,2027-01-15T07:59:53.694721826Z,0.00,-1.28,0.64,1.28,0.00,1.49,2.77,3.83,5.11,4.04,4.26,5.96,6.60,7.02,,,,,,,,,,,,,,
1799999993708987162,2027-01-15T07:59:53.708987162Z,-2.13,0.00,1.28,-0.21,0.43,2.55,3.62,2.98,5.11,4.04,5.74,6.17,7.23,6.81,,,,,,,,,,,,,,
1799999993723252497,2027-01-15T07:59:53.723252497Z,-1.91,0.21,1.70,-1.06,0.64,2.13,3.62,2.34,5.53,4.04,6.38,5.96,6.60,6.60,,,,,,,,,,,,,,
1799999993737517832,2027-01-15T07:59:53.737517832Z,-0.85,-1.06,0.64,-1.70,2.13,1.49,1.49,3.62,4.89,5.96,5.11,5.11,5.53,7.45,,,,,,,,,,,,,,
1799999993751783167,2027-01-15T07:59:53.751783167Z,-0.21,-0.64,-0.85,0.85,3.83,1.49,3.40,1.49,3.40,5.32,3.83,5.53,6.17,7.87,,,,,,,,,,,,,,
1799999993766048503,2027-01-15T07:59:53.766048503Z,-0.21,1.49,0.21,1.49,2.55,2.34,4.68,1.28,2.98,3.62,4.68,6.38,6.38,6.81,,,,,,,,,,,,,,
1799999993780313838,2027-01-15T07:59:53.780313838Z,-0.64,-0.64,0.00,1.28,-0.43,2.13,5.11,2.13,3.40,5.11,6.17,5.53,6.17,6.81,,,,,,,,,,,,,,
1799999993794579173,2027-01-15T07:59:53.794579173Z,-2.34,-1.28,-1.06,0.43,-0.85,1.49,3.19,4.04,4.04,5.32,4.89,4.89,7.02,7.66,,,,,,,,,,,,,,
1799999993808844508,2027-01-15T07:59:53.808844508Z,0.00,-0.64,-1.06,1.70,1.91,1.70,3.62,4.04,2.77,5.53,4.47,4.04,7.87,8.51,,,,,,,,,,,,,,
1799999993823109844,2027-01-15T07:59:53.823109844Z,-0.64,-2.13,-1.06,0.00,2.55,3.40,3.62,2.98,3.83,5.96,4.04,4.89,7.23,7.87,,,,,,,,,,,,,,
1799999993837375179,2027-01-15T07:59:53.837375179Z,0.64,-0.85,-0.43,-0.64,0.64,2.77,3.62,3.19,2.13,6.38,6.60,5.11,5.53,7.02,,,,,,,,,,,,,,
1799999993851640514,2027-01-15T07:59:53.851640514Z,0.64,0.43,0.21,-0.64,-1.28,0.85,0.85,4.47,2.55,4.47,6.81,5.11,5.96,7.02,,,,,,,,,,,,,,
1799999993865905849,2027-01-15T07:59:53.865905849Z,-0.21,-0.64,-0.43,1.28,0.85,1.91,1.28,3.40,3.19,2.34,5.53,5.32,5.53,6.38,,,,,,,,,,,,,,
1799999993880171185,2027-01-15T07:59:53.880171185Z,-1.91,-0.64,-0.21,0.43,1.28,2.34,2.34,1.91,3.83,3.83,5.96,5.74,5.53,6.60,,,,,,,,,,,,,,
1799999993894436520,2027-01-15T07:59:53.894436520Z,-0.43,1.06,0.43,-0.21,1.28,3.40,4.26,2.34,6.81,4.47,7.87,6.60,7.02,7.87,,,,,,,,,,,,,,
1799999993908701855,2027-01-15T07:59:53.908701855Z,-1.70,0.21,0.64,0.21,-0.21,4.04,4.04,2.13,3.62,5.96,5.32,7.02,5.32,8.72,,,,,,,,,,,,,,
1799999993922967190,2027-01-15T07:59:53.922967190Z,-0.21,-2.34,0.85,0.43,-0.64,2.13,3.83,2.98,2.55,6.60,4.04,6.60,5.74,8.09,,,,,,,,,,,,,,
1799999993937232525,2027-01-15T07:59:53.937232525Z,2.13,-2.77,0.64,0.21,-1.91,0.64,4.04,2.55,2.13,6.17,2.77,7.87,7.45,6.81,,,,,,,,,,,,,,
1799999993951497861,2027-01-15T07:59:53.951497861Z,-1.06,-1.28,-0.43,0.21,0.64,1.49,3.40,1.28,2.98,4.04,4.89,8.72,6.17,7.23,,,,,,,,,,,,,,
1799999993965763196,2027-01-15T07:59:53.965763196Z,-2.77,0.21,-0.85,1.70,2.98,2.77,2.55,2.13,3.62,3.40,6.60,6.60,6.60,7.02,,,,,,,,,,,,,,
1799999993980028531,2027-01-15T07:59:53.980028531Z,0.43,-0.43,0.43,0.43,1.06,1.70,1.70,4.68,4.26,5.11,6.17,5.53,6.60,7.45,,,,,,,,,,,,,,
1799999993994293866,2027-01-15T07:59:53.994293866Z,-1.06,-1.70,1.06,-0.21,1.49,1.70,2.77,4.47,4.04,4.89,6.60,5.96,7.02,7.23,,,,,,,,,,,,,,
1799999994008559202,2027-01-15T07:59:54.008559202Z,-2.55,-0.64,1.70,-0.85,1.06,2.77,4.04,1.70,4.04,4.89,7.02,5.96,7.66,8.09,,,,,,,,,,,,,,
1799999994022824537,2027-01-15T07:59:54.022824537Z,-1.49,0.00,0.85,1.28,1.06,2.34,3.83,2.34,4.68,6.17,6.81,6.17,6.60,9.15,,,,,,,,,,,,,,
1799999994037089872,2027-01-15T07:59:54.037089872Z,-0.43,-0.43,-1.49,2.55,0.85,2.55,2.34,4.04,4.47,5.11,5.11,7.45,6.38,7.87,,,,,,,,,,,,,,
1799999994051355207,2027-01-15T07:59:54.051355207Z,-0.85,-1.49,-2.13,1.06,0.85,3.19,2.34,3.62,5.11,4.26,4.47,7.87,6.60,4.47,,,,,,,,,,,,,,
1799999994065620543,2027-01-15T07:59:54.065620543Z,1.28,1.06,-0.64,-2.13,0.64,3.62,2.98,2.98,6.38,4.26,5.96,6.38,6.17,6.17,,,,,,,,,,,,,,
1799999994079885878,2027-01-15T07:59:54.079885878Z,-2.98,-0.43,0.00,-1.28,1.06,4.04,2.77,5.53,4.47,4.47,4.26,7.66,7.02,7.23,,,,,,,,,,,,,,
1799999994094151213,2027-01-15T07:59:54.094151213Z,-1.28,-0.64,-1.28,1.28,4.04,3.62,2.55,5.74,4.68,4.68,5.32,7.45,7.66,7.23,,,,,,,,,,,,,,
1799999994108416548,2027-01-15T07:59:54.108416548Z,-0.21,-1.28,-1.70,1.70,2.77,2.55,2.34,6.17,4.26,4.68,5.74,5.74,7.45,6.81,,,,,,,,,,,,,,
1799999994122681884,2027-01-15T07:59:54.122681884Z,,-0.43,0.21,0.64,2.55,1.70,3.19,4.68,2.13,3.62,6.38,5.74,7.02,6.81,,,,,,,,,,,,,,
1799999994136947219,2027-01-15T07:59:54.136947219Z,0.00,-0.43,1.06,-0.85,2.55,1.28,3.83,4.26,1.91,4.89,6.38,5.96,6.38,7.02,,,,,,,,,,,,,,
1799999994151212554,2027-01-15T07:59:54.151212554Z,-1.28,-0.21,0.64,1.49,0.85,0.43,2.77,2.77,2.98,3.40,5.11,6.17,5.11,7.45,,,,,,,,,,,,,,
1799999994165477889,2027-01-15T07:59:54.165477889Z,-0.43,0.00,-0.43,2.13,0.85,-0.21,2.34,1.91,4.04,4.04,5.53,6.38,5.74,7.23,,,,,,,,,,,,,,
1799999994179743224,2027-01-15T07:59:54.179743224Z,-0.85,-0.43,-2.34,1.49,0.85,0.00,3.19,3.19,3.62,4.04,5.53,7.23,7.02,8.30,,,,,,,,,,,,,,
1799999994194008560,2027-01-15T07:59:54.194008560Z,1.49,0.85,-1.91,0.64,-1.06,0.00,2.77,3.40,3.19,4.04,4.68,7.23,7.02,6.60,,,,,,,,,,,,,,
1799999994208273895,2027-01-15T07:59:54.208273895Z,-1.06,0.43,0.64,1.91,0.43,1.06,2.55,4.47,2.77,5.11,3.62,7.23,6.81,5.74,,,,,,,,,,,,,,
1799999994222539230,2027-01-15T07:59:54.222539230Z,0.00,-1.06,1.06,2.34,2.55,2.34,2.77,5.11,2.98,3.62,4.04,6.60,6.81,8.72,,,,,,,,,,,,,,
1799999994236804565,2027-01-15T07:59:54.236804565Z,-0.43,-0.64,1.06,1.06,1.49,2.34,2.98,2.77,3.62,4.26,2.98,6.17,6.17,9.36,,,,,,,,,,,,,,
1799999994251069901,2027-01-15T07:59:54.251069901Z,0.21,0.00,1.91,-0.85,-1.28,1.28,1.70,2.13,4.89,4.26,2.77,4.89,5.96,8.94,,,,,,,,,,,,,,
1799999994265335236,2027-01-15T07:59:54.265335236Z,0.00,0.85,1.49,1.28,0.85,1.70,1.91,0.00,5.32,4.04,3.40,4.68,6.81,8.09,,,,,,,,,,,,,,
1799999994279600571,2027-01-15T07:59:54.279600571Z,-1.06,0.43,-1.49,1.49,3.40,2.55,3.19,-0.21,4.04,4.04,4.68,5.11,7.23,5.74,,,,,,,,,,,,,,
1799999994293865906,2027-01-15T07:59:54.293865906Z,1.49,-1.28,-2.34,0.85,2.98,2.13,2.34,1.28,3.19,3.40,7.02,4.89,6.81,5.74,,,,,,,,,,,,,,
1799999994308131242,2027-01-15T07:59:54.308131242Z,-2.34,-0.21,-2.13,-0.21,2.34,3.62,2.55,3.83,5.11,2.77,8.30,5.32,6.81,7.23,,,,,,,,,,,,,,
1799999994322396577,2027-01-15T07:59:54.322396577Z,-1.91,0.00,-0.21,0.85,2.55,3.62,2.55,4.47,5.32,4.04,8.94,5.74,6.38,7.02,,,,,,,,,,,,,,
1799999994336661912,2027-01-15T07:59:54.336661912Z,-2.55,-1.06,-0.64,2.98,2.55,2.55,2.13,4.89,4.26,5.32,6.38,5.53,6.17,6.17,,,,,,,,,,,,,,
1799999994350927247,2027-01-15T07:59:54.350927247Z,0.85,-1.49,-1.91,0.85,0.85,1.70,1.28,3.40,5.32,6.38,5.53,5.74,7.66,6.60,,,,,,,,,,,,,,
1799999994365192583,2027-01-15T07:59:54.365192583Z,-2.13,-1.49,-0.85,-0.43,0.64,0.85,0.64,4.04,4.04,5.53,7.23,5.96,7.87,7.66,,,,,,,,,,,,,,
1799999994379457918,2027-01-15T07:59:54.379457918Z,-1.49,-1.28,0.21,0.64,2.13,1.49,0.43,5.53,2.77,4.89,7.45,7.23,7.23,8.30,,,,,,,,,,,,,,
1799999994393723253,2027-01-15T07:59:54.393723253Z,0.21,-0.85,2.98,0.64,3.40,1.49,1.49,4.47,2.34,4.26,6.81,7.45,6.17,8.72,,,,,,,,,,,,,,
1799999994407988588,2027-01-15T07:59:54.407988588Z,0.43,-2.34,1.06,-1.06,1.70,1.28,3.40,2.77,3.19,4.89,6.81,6.81,5.96,7.23,,,,,,,,,,,,,,
1799999994422253923,2027-01-15T07:59:54.422253923Z,-0.43,-0.64,-0.64,-0.85,-0.21,1.49,4.68,2.13,4.89,5.53,6.38,6.17,5.96,7.23,,,,,,,,,,,,,,
1799999994436519259,2027-01-15T07:59:54.436519259Z,-0.43,0.43,-2.34,0.00,0.64,3.40,4.26,4.04,3.40,5.74,5.11,6.17,5.11,7.23,,,,,,,,,,,,,,
1799999994450784594,2027-01-15T07:59:54.450784594Z,-0.85,0.64,-1.06,-0.21,0.00,3.40,2.98,2.98,3.19,5.32,4.89,5.53,4.68,6.81,,,,,,,,,,,,,,
1799999994465049929,2027-01-15T07:59:54.465049929Z,-0.21,0.00,-0.43,0.21,0.21,1.49,1.91,1.91,3.62,5.11,5.53,4.68,5.53,6.60,,,,,,,,,,,,,,
1799999994479315264,2027-01-15T07:59:54.479315264Z,-0.85,0.43,-1.49,-0.64,2.77,2.77,0.21,1.70,2.98,5.74,6.38,5.74,7.23,8.09,,,,,,,,,,,,,,
1799999994493580600,2027-01-15T07:59:54.493580600Z,-0.43,1.06,-0.85,-0.43,1.70,2.98,0.00,2.77,2.77,6.17,5.32,7.23,7.45,8.51,,,,,,,,,,,,,,
1799999994507845935,2027-01-15T07:59:54.507845935Z,-1.06,0.85,-0.21,0.00,-0.64,2.13,2.13,4.26,2.55,5.32,5.74,7.45,6.17,7.87,,,,,,,,,,,,,,
1799999994522111270,2027-01-15T07:59:54.522111270Z,0.64,-1.28,-1.49,0.00,0.64,1.06,1.91,2.77,3.62,4.47,5.11,7.02,7.02,6.38,,,,,,,,,,,,,,
1799999994536376605,2027-01-15T07:59:54.536376605Z,-0.43,-2.13,0.00,1.49,-0.21,0.64,0.43,3.19,3.62,4.47,3.83,6.60,5.74,7.23,,,,,,,,,,,,,,
1799999994550641941,2027-01-15T07:59:54.550641941Z,-0.43,-0.85,0.64,2.77,0.21,1.49,2.13,3.83,2.77,4.26,3.62,7.02,5.53,5.74,,,,,,,,,,,,,,
1799999994564907276,2027-01-15T07:59:54.564907276Z,1.49,-1.06,-1.28,2.34,0.43,2.55,3.83,4.89,2.13,4.47,4.26,6.60,6.60,5.11,,,,,,,,,,,,,,
1799999994579172611,2027-01-15T07:59:54.579172611Z,0.00,0.21,-2.13,0.85,-0.21,2.55,5.53,5.11,3.40,3.40,3.83,7.45,6.81,7.66,,,,,,,,,,,,,,
1799999994593437946,2027-01-15T07:59:54.593437946Z,-1.70,1.49,-0.64,0.85,0.85,1.91,2.98,3.62,4.68,3.19,4.68,7.66,6.81,6.81,,,,,,,,,,,,,,
1799999994607703282,2027-01-15T07:59:54.607703282Z,-0.43,-0.85,0.85,1.06,2.77,2.98,1.28,3.40,3.83,4.47,5.96,7.02,7.02,7.66,,,,,,,,,,,,,,
1799999994621968617,2027-01-15T07:59:54.621968617Z,-0.43,-1.70,0.00,0.64,1.91,2.77,1.49,4.26,2.98,5.11,5.53,6.60,7.66,7.23,,,,,,,,,,,,,,
1799999994636233952,2027-01-15T07:59:54.636233952Z,-2.34,0.00,-1.49,1.91,-0.64,2.55,1.91,1.70,4.89,5.74,5.74,5.74,6.17,6.38,,,,,,,,,,,,,,
1799999994650499287,2027-01-15T07:59:54.650499287Z,0.43,-0.85,-0.85,1.49,-0.43,2.98,4.04,1.70,5.53,5.11,6.38,7.45,5.96,6.38,,,,,,,,,,,,,,
1799999994664764622,2027-01-15T07:59:54.664764622Z,0.21,-2.13,-0.85,0.64,-0.21,1.49,4.47,4.26,4.47,3.83,5.96,7.66,6.17,7.02,,,,,,,,,,,,,,
1799999994679029958,2027-01-15T07:59:54.679029958Z,-0.85,-1.91,-0.43,0.00,1.28,1.28,3.40,3.19,3.40,4.04,5.53,6.60,7.23,6.81,,,,,,,,,,,,,,
1799999994693295293,2027-01-15T07:59:54.693295293Z,-0.21,-1.28,1.06,-0.43,2.13,2.77,4.04,2.34,3.40,4.68,5.96,6.60,7.45,7.87,,,,,,,,,,,,,,
1799999994707560628,2027-01-15T07:59:54.707560628Z,0.21,0.21,1.28,0.21,3.83,4.47,2.98,2.34,3.19,4.89,5.74,7.02,7.02,9.15,,,,,,,,,,,,,,
1799999994721825963,2027-01-15T07:59:54.721825963Z,1.28,0.00,-0.85,0.85,1.91,1.49,0.85,2.13,3.83,5.53,5.32,4.89,6.17,6.81,,,,,,,,,,,,,,
1799999994736091299,2027-01-15T07:59:54.736091299Z,0.21,-0.43,-1.91,1.06,1.06,1.70,0.43,0.85,3.62,5.53,6.60,3.40,6.17,6.81,,,,,,,,,,,,,,
1799999994750356634,2027-01-15T07:59:54.750356634Z,-1.70,-0.64,0.85,1.49,0.21,2.55,1.06,0.43,2.34,4.26,5.53,5.53,6.60,7.45,,,,,,,,,,,,,,
1799999994764621969,2027-01-15T07:59:54.764621969Z,-3.19,-0.64,2.13,-0.43,0.21,2.77,2.34,1.28,3.83,4.26,4.68,7.02,6.38,6.60,,,,,,,,,,,,,,
1799999994778887304,2027-01-15T07:59:54.778887304Z,-1.91,0.21,3.19,-1.28,0.00,2.55,1.70,2.77,5.32,4.68,3.62,6.17,5.74,7.23,,,,,,,,,,,,,,
1799999994793152640,2027-01-15T07:59:54.793152640Z,0.85,0.21,0.85,-1.49,1.06,1.70,1.49,3.19,4.47,5.74,3.62,5.96,5.32,7.66,,,,,,,,,,,,,,
1799999994807417975,2027-01-15T07:59:54.807417975Z,1.28,-0.64,0.21,0.00,1.28,0.64,2.77,1.70,2.98,4.68,4.47,7.23,5.53,7.45,,,,,,,,,,,,,,
1799999994821683310,2027-01-15T07:59:54.821683310Z,-0.21,-1.49,1.28,0.21,1.49,0.43,4.04,2.98,4.26,4.68,4.47,5.53,6.60,7.23,,,,,,,,,,,,,,
1799999994835948645,2027-01-15T07:59:54.835948645Z,-1.49,-0.85,1.70,0.21,2.77,1.06,4.47,3.83,4.47,4.89,4.68,4.26,7.02,7.66,,,,,,,,,,,,,,
1799999994850213981,2027-01-15T07:59:54.850213981Z,-1.70,0.21,0.21,1.28,4.89,3.19,5.32,2.98,4.47,5.32,4.89,5.53,6.60,6.81,,,,,,,,,,,,,,
1799999994864479316,2027-01-15T07:59:54.864479316Z,-0.64,1.28,2.13,0.43,1.70,1.28,5.11,2.55,3.83,4.89,4.89,6.60,7.23,6.60,,,,,,,,,,,,,,
1799999994878744651,2027-01-15T07:59:54.878744651Z,-1.28,1.49,2.34,-0.21,-0.64,0.00,3.62,2.77,3.83,4.89,5.74,6.17,7.45,7.02,,,,,,,,,,,,,,
1799999994893009986,2027-01-15T07:59:54.893009986Z,-0.21,0.21,0.64,-1.06,3.62,1.70,4.26,4.89,4.47,3.83,7.45,5.74,5.32,6.38,,,,,,,,,,,,,,
1799999994907275321,2027-01-15T07:59:54.907275321Z,-1.28,-1.06,-1.28,0.21,4.47,2.34,2.55,4.04,4.04,5.32,6.17,6.17,5.74,6.60,,,,,,,,,,,,,,
1799999994921540657,2027-01-15T07:59:54.921540657Z,-1.06,-1.06,-2.55,0.21,2.34,1.70,2.55,2.98,2.98,5.11,5.53,5.53,6.81,8.09,,,,,,,,,,,,,,
1799999994935805992,2027-01-15T07:59:54.935805992Z,2.13,-1.49,-1.28,-0.43,2.34,0.64,3.62,4.26,4.04,3.62,6.17,4.89,6.81,7.87,,,,,,,,,,,,,,
1799999994950071327,2027-01-15T07:59:54.950071327Z,-0.43,-1.06,-0.64,0.43,3.83,2.77,4.26,3.62,5.53,3.19,6.38,5.11,6.38,8.09,,,,,,,,,,,,,,
1799999994964336662,2027-01-15T07:59:54.964336662Z,1.70,-0.85,-1.70,1.49,0.85,4.26,3.40,2.98,3.83,3.83,3.83,5.74,6.38,7.66,,,,,,,,,,,,,,
1799999994978601998,2027-01-15T07:59:54.978601998Z,-1.06,1.49,-0.64,1.70,1.28,4.68,4.04,3.83,3.83,3.83,4.04,6.60,5.53,7.45,,,,,,,,,,,,,,
1799999994992867333,2027-01-15T07:59:54.992867333Z,0.43,2.13,-1.06,1.70,1.70,4.26,3.19,2.13,5.32,3.83,5.96,7.45,6.81,8.09,,,,,,,,,,,,,,
1799999995007132668,2027-01-15T07:59:55.007132668Z,-2.34,1.70,0.85,0.00,1.70,3.19,2.13,2.77,5.32,4.04,5.96,6.17,6.81,8.72,,,,,,,,,,,,,,
1799999995021398003,2027-01-15T07:59:55.021398003Z,-1.49,0.64,2.77,1.06,1.28,2.34,2.55,5.53,4.26,5.96,5.11,6.60,6.17,8.51,,,,,,,,,,,,,,
1799999995035663339,2027-01-15T07:59:55.035663339Z,-2.34,-0.43,1.49,0.21,2.77,0.64,2.77,3.40,4.04,6.60,4.89,6.17,6.17,8.51,,,,,,,,,,,,,,
1799999995049928674,2027-01-15T07:59:55.049928674Z,-0.21,0.43,-1.28,-0.64,1.06,1.28,4.26,1.70,2.98,4.89,6.38,5.74,6.81,7.66,,,,,,,,,,,,,,
1799999995064194009,2027-01-15T07:59:55.064194009Z,-1.70,-0.43,-2.55,-0.21,0.64,2.34,4.26,2.13,3.83,4.68,5.53,6.38,7.02,8.09,,,,,,,,,,,,,,
1799999995078459344,2027-01-15T07:59:55.078459344Z,-1.06,-2.55,-2.13,-0.64,0.43,1.49,3.40,3.19,5.96,4.89,6.17,6.38,7.02,8.30,,,,,,,,,,,,,,
1799999995092724680,2027-01-15T07:59:55.092724680Z,-3.40,-1.06,-2.34,0.43,2.13,-0.43,1.06,3.40,5.74,5.74,6.81,4.68,6.38,7.02,,,,,,,,,,,,,,
1799999995106990015,2027-01-15T07:59:55.106990015Z,2.13,-1.70,-1.91,0.43,2.55,0.00,0.64,2.77,4.68,3.83,4.89,4.89,5.53,7.45,,,,,,,,,,,,,,
1799999995121255350,2027-01-15T07:59:55.121255350Z,1.91,-2.55,-1.49,-0.64,2.13,-0.21,1.49,1.70,5.32,2.55,4.89,5.53,5.74,8.09,,,,,,,,,,,,,,
1799999995135520685,2027-01-15T07:59:55.135520685Z,-0.21,-1.28,-0.85,-0.43,3.19,1.49,3.40,1.28,3.19,3.62,4.04,6.17,6.60,7.02,,,,,,,,,,,,,,
1799999995149786020,2027-01-15T07:59:55.149786020Z,-0.21,-1.06,-1.49,0.85,3.19,2.55,2.98,2.77,2.55,4.04,3.62,6.17,6.60,6.17,,,,,,,,,,,,,,
1799999995164051356,2027-01-15T07:59:55.164051356Z,0.85,-1.49,-2.34,2.13,2.13,2.98,1.70,3.62,3.19,3.83,4.26,6.81,7.02,6.17,,,,,,,,,,,,,,
1799999995178316691,2027-01-15T07:59:55.178316691Z,-0.64,-2.13,-2.55,0.00,-3.19,2.98,0.64,3.62,5.11,2.98,6.17,5.96,7.02,7.66,,,,,,,,,,,,,,
1799999995192582026,2027-01-15T07:59:55.192582026Z,1.06,0.00,-1.91,0.00,-4.68,2.98,1.28,3.62,2.34,4.04,5.96,5.96,6.38,7.45,,,,,,,,,,,,,,
1799999995206847361,2027-01-15T07:59:55.206847361Z,-0.21,0.00,-1.28,1.49,-3.62,2.77,2.98,2.55,3.62,3.83,5.96,7.23,6.60,6.17,,,,,,,,,,,,,,
1799999995221112697,2027-01-15T07:59:55.221112697Z,0.43,-2.98,1.06,1.28,1.28,0.64,1.06,2.13,2.13,4.26,6.38,6.81,5.32,5.53,,,,,,,,,,,,,,
1799999995235378032,2027-01-15T07:59:55.235378032Z,0.21,-1.28,0.64,0.43,2.34,1.49,1.70,2.13,1.49,4.89,4.26,5.74,4.89,6.17,,,,,,,,,,,,,,
1799999995249643367,2027-01-15T07:59:55.249643367Z,1.70,1.28,-0.64,1.49,2.77,2.55,1.70,2.77,4.04,4.04,4.47,5.32,4.89,7.87,,,,,,,,,,,,,,
1799999995263908702,2027-01-15T07:59:55.263908702Z,-0.21,0.85,-0.85,2.13,1.06,2.55,2.13,4.68,4.04,2.55,6.17,6.38,5.96,8.72,,,,,,,,,,,,,,
1799999995278174038,2027-01-15T07:59:55.278174038Z,-0.21,-0.21,-1.91,0.64,1.06,2.55,5.53,4.04,4.68,3.83,5.74,5.74,6.60,8.51,,,,,,,,,,,,,,
1799999995292439373,2027-01-15T07:59:55.292439373Z,-0.43,-0.64,-1.70,1.28,1.28,0.64,5.96,3.40,3.83,4.89,5.53,5.53,5.96,7.45,,,,,,,,,,,,,,
1799999995306704708,2027-01-15T07:59:55.306704708Z,0.00,1.06,-0.43,0.85,2.13,1.70,2.98,4.68,3.19,5.74,6.17,6.38,7.23,6.81,,,,,,,,,,,,,,
1799999995320970043,2027-01-15T07:59:55.320970043Z,0.21,0.85,-0.43,0.00,2.98,2.34,2.13,4.04,3.40,5.32,5.11,7.02,7.23,6.38,,,,,,,,,,,,,,
1799999995335235379,2027-01-15T07:59:55.335235379Z,0.64,-1.06,-0.43,1.06,2.55,2.34,2.13,3.40,4.04,4.47,3.83,7.02,6.38,6.60,,,,,,,,,,,,,,
1799999995349500714,2027-01-15T07:59:55.349500714Z,-0.43,-1.70,-1.06,0.21,0.85,3.40,4.89,3.62,3.83,5.32,4.47,7.23,7.45,6.81,,,,,,,,,,,,,,
1799999995363766049,2027-01-15T07:59:55.363766049Z,0.85,-1.28,0.21,0.00,-0.43,2.13,4.47,2.55,2.98,5.53,5.11,6.38,7.45,7.23,,,,,,,,,,,,,,
1799999995378031384,2027-01-15T07:59:55.378031384Z,-1.49,-0.43,0.64,0.85,-0.43,1.06,3.40,2.34,2.98,6.38,5.96,5.74,6.60,7.66,,,,,,,,,,,,,,
1799999995392296719,2027-01-15T07:59:55.392296719Z,-0.64,-0.64,0.00,-0.43,2.55,1.70,2.98,2.98,3.19,5.32,6.81,5.74,6.81,7.87,,,,,,,,,,,,,,
1799999995406562055,2027-01-15T07:59:55.406562055Z,0.00,-1.70,0.64,-1.49,1.70,2.13,3.40,4.04,2.55,5.11,5.96,7.02,6.60,7.87,,,,,,,,,,,,,,
1799999995420827390,2027-01-15T07:59:55.420827390Z,-0.43,-0.21,1.49,-1.49,-1.06,1.91,2.34,5.74,4.04,5.32,5.11,7.02,7.02,6.60,,,,,,,,,,,,,,
1799999995435092725,2027-01-15T07:59:55.435092725Z,-2.13,2.34,4.04,-0.43,0.00,2.34,2.98,5.11,5.11,5.11,5.96,5.32,7.45,6.38,,,,,,,,,,,,,,
1799999995449358060,2027-01-15T07:59:55.449358060Z,-3.83,0.21,3.62,0.64,0.85,2.77,3.62,3.40,4.26,5.53,6.60,5.74,7.02,6.38,,,,,,,,,,,,,,
1799999995463623396,2027-01-15T07:59:55.463623396Z,-1.28,-2.55,3.83,1.91,0.85,2.98,3.19,1.91,4.04,4.47,5.74,7.66,5.96,7.23,,,,,,,,,,,,,,
1799999995477888731,2027-01-15T07:59:55.477888731Z,1.28,-2.77,3.62,0.64,0.21,2.55,3.19,2.55,4.89,4.68,5.74,7.02,6.17,7.23,,,,,,,,,,,,,,
1799999995492154066,2027-01-15T07:59:55.492154066Z,0.00,-1.49,1.70,1.28,0.64,2.98,3.40,3.19,5.11,4.89,4.89,6.38,6.81,7.45,,,,,,,,,,,,,,
1799999995506419401,2027-01-15T07:59:55.506419401Z,-3.40,-0.21,1.28,1.91,1.28,1.70,3.40,2.55,4.89,5.32,3.40,5.96,7.66,8.09,,,,,,,,,,,,,,
1799999995520684737,2027-01-15T07:59:55.520684737Z,-0.64,-1.70,-0.21,0.85,0.21,1.70,2.77,4.04,4.89,4.47,4.47,5.74,6.17,7.45,,,,,,,,,,,,,,
1799999995534950072,2027-01-15T07:59:55.534950072Z,-1.49,-1.91,-1.06,0.85,0.00,4.89,3.40,4.47,4.47,3.83,6.60,5.74,5.11,7.23,,,,,,,,,,,,,,
1799999995549215407,2027-01-15T07:59:55.549215407Z,1.70,0.21,-1.49,1.06,1.70,6.17,3.40,3.62,4.04,4.68,6.17,5.53,6.60,8.09,,,,,,,,,,,,,,
1799999995563480742,2027-01-15T07:59:55.563480742Z,-0.85,0.00,-2.13,1.06,1.28,4.47,2.34,3.62,3.83,4.26,5.74,5.96,6.81,7.87,,,,,,,,,,,,,,
1799999995577746078,2027-01-15T07:59:55.577746078Z,0.21,-0.85,-2.34,0.85,0.43,2.77,2.98,2.98,2.55,4.47,6.17,5.53,6.81,7.45,,,,,,,,,,,,,,
1799999995592011413,2027-01-15T07:59:55.592011413Z,-1.28,0.43,-1.06,0.85,1.49,2.55,2.55,1.49,2.98,4.89,6.60,5.53,6.60,7.02,,,,,,,,,,,,,,
1799999995606276748,2027-01-15T07:59:55.606276748Z,1.91,1.91,0.43,2.34,3.62,2.98,1.06,2.55,5.11,4.26,4.68,5.11,5.53,8.72,,,,,,,,,,,,,,
1799999995620542083,2027-01-15T07:59:55.620542083Z,-1.49,-1.49,0.21,2.77,3.40,4.26,2.55,2.34,3.62,4.47,3.83,5.32,5.96,9.36,,,,,,,,,,,,,,
1799999995634807418,2027-01-15T07:59:55.634807418Z,-2.55,-4.04,-0.85,-0.43,0.64,5.53,4.89,0.85,4.89,4.68,5.53,7.45,5.74,8.72,,,,,,,,,,,,,,
1799999995649072754,2027-01-15T07:59:55.649072754Z,-0.43,-2.55,-1.06,-2.77,-1.06,3.83,3.83,1.70,4.68,4.26,5.96,7.87,5.11,7.45,,,,,,,,,,,,,,
1799999995663338089,2027-01-15T07:59:55.663338089Z,0.21,-0.43,-0.64,-1.49,0.21,1.91,2.13,2.77,4.04,3.40,5.32,7.23,6.60,6.60,,,,,,,,,,,,,,
1799999995677603424,2027-01-15T07:59:55.677603424Z,0.00,-0.64,-0.85,1.06,0.64,1.70,2.13,2.98,3.62,2.98,5.53,7.02,7.23,6.38,,,,,,,,,,,,,,
1799999995691868759,2027-01-15T07:59:55.691868759Z,-0.43,-1.28,-1.06,1.49,0.64,1.28,1.70,2.34,2.77,5.32,5.32,7.66,5.74,5.74,,,,,,,,,,,,,,
1799999995706134095,2027-01-15T07:59:55.706134095Z,-0.43,0.00,-0.85,1.28,1.06,2.13,1.28,1.49,3.19,5.74,5.53,7.45,5.74,5.96,,,,,,,,,,,,,,
1799999995720399430,2027-01-15T07:59:55.720399430Z,0.85,0.64,-1.28,0.00,-1.06,2.77,2.34,1.70,4.47,5.32,7.23,7.02,6.60,6.81,,,,,,,,,,,,,,
1799999995734664765,2027-01-15T07:59:55.734664765Z,-1.91,0.21,-1.70,0.64,-2.34,1.70,1.49,3.19,4.89,3.83,5.96,6.17,7.45,7.66,,,,,,,,,,,,,,
1799999995748930100,2027-01-15T07:59:55.748930100Z,-0.21,-0.64,-0.43,1.28,0.00,-1.28,1.70,4.26,3.62,5.11,6.17,5.53,7.02,7.23,,,,,,,,,,,,,,
1799999995763195436,2027-01-15T07:59:55.763195436Z,-0.85,-2.13,-0.21,1.49,2.13,-1.06,3.19,3.83,3.19,5.96,6.60,6.81,7.66,6.60,,,,,,,,,,,,,,
1799999995777460771,2027-01-15T07:59:55.777460771Z,-1.06,-1.28,-0.43,-0.43,1.06,-0.43,5.11,5.53,2.77,5.32,5.74,7.02,6.81,7.45,,,,,,,,,,,,,,
1799999995791726106,2027-01-15T07:59:55.791726106Z,0.85,2.34,0.64,0.21,0.85,-0.43,6.17,5.32,2.13,4.47,4.89,6.60,5.96,8.30,,,,,,,,,,,,,,
1799999995805991441,2027-01-15T07:59:55.805991441Z,0.43,0.21,1.91,0.85,4.47,1.28,3.83,3.83,2.77,2.98,3.40,7.23,6.81,9.36,,,,,,,,,,,,,,
1799999995820256777,2027-01-15T07:59:55.820256777Z,-2.77,-0.85,1.28,0.21,3.62,2.34,2.77,4.04,2.55,3.19,3.62,5.74,6.17,8.30,,,,,,,,,,,,,,
1799999995834522112,2027-01-15T07:59:55.834522112Z,1.06,-0.21,0.43,-0.64,3.83,1.70,2.34,4.68,4.04,5.96,4.47,5.32,6.60,6.81,,,,,,,,,,,,,,
1799999995848787447,2027-01-15T07:59:55.848787447Z,-0.21,-0.43,0.00,1.06,4.04,1.49,2.98,4.04,4.68,6.17,4.68,6.17,6.17,5.11,,,,,,,,,,,,,,
1799999995863052782,2027-01-15T07:59:55.863052782Z,0.85,-0.43,-1.28,0.00,3.40,1.70,3.19,3.62,4.68,5.32,4.89,6.60,6.60,5.11,,,,,,,,,,,,,,
1799999995877318117,2027-01-15T07:59:55.877318117Z,-0.64,0.85,-0.64,-0.21,4.68,1.28,3.40,3.62,3.83,4.89,3.19,6.60,7.23,7.45,,,,,,,,,,,,,,
1799999995891583453,2027-01-15T07:59:55.891583453Z,-0.64,0.21,-1.28,0.43,4.04,0.00,3.40,1.91,2.98,4.47,5.53,6.60,6.60,10.64,,,,,,,,,,,,,,
1799999995905848788,2027-01-15T07:59:55.905848788Z,-0.64,-1.06,-1.49,1.06,3.19,0.85,3.83,1.28,3.40,3.83,6.38,5.96,6.60,10.43,,,,,,,,,,,,,,
1799999995920114123,2027-01-15T07:59:55.920114123Z,-2.98,-0.21,-1.70,1.49,0.85,-0.43,4.04,2.55,3.40,3.62,5.96,5.53,6.81,9.57,,,,,,,,,,,,,,
1799999995934379458,2027-01-15T07:59:55.934379458Z,-2.13,-1.49,-1.91,0.64,1.91,-1.49,3.62,1.70,2.55,5.53,6.38,6.17,6.81,7.87,,,,,,,,,,,,,,
1799999995948644794,2027-01-15T07:59:55.948644794Z,-1.70,-2.34,-2.13,0.00,2.77,-1.06,2.55,2.34,3.19,5.53,5.74,6.81,7.23,6.81,,,,,,,,,,,,,,
1799999995962910129,2027-01-15T07:59:55.962910129Z,-1.28,-0.21,-2.13,-0.21,1.91,0.21,1.91,2.55,2.34,4.47,5.96,7.23,7.45,5.74,,,,,,,,,,,,,,
1799999995977175464,2027-01-15T07:59:55.977175464Z,-1.28,-0.64,-1.06,0.43,2.55,1.28,1.49,2.13,3.83,4.26,5.11,5.32,6.38,5.96,,,,,,,,,,,,,,
1799999995991440799,2027-01-15T07:59:55.991440799Z,-1.91,-0.21,-1.49,1.91,3.83,0.64,1.49,1.49,4.26,5.11,5.11,4.47,5.74,5.96,,,,,,,,,,,,,,
1799999996005706135,2027-01-15T07:59:56.005706135Z,-0.64,-0.21,-1.28,0.21,4.04,1.28,3.62,1.49,5.53,5.53,5.32,5.53,6.17,7.87,,,,,,,,,,,,,,
1799999996019971470,2027-01-15T07:59:56.019971470Z,-2.34,-0.64,0.21,0.43,2.34,1.28,4.47,2.13,4.47,5.74,4.89,6.60,7.45,8.72,,,,,,,,,,,,,,
1799999996034236805,2027-01-15T07:59:56.034236805Z,-1.70,0.21,-0.64,2.77,2.98,1.49,4.04,3.83,1.91,5.32,5.53,5.74,7.02,7.87,,,,,,,,,,,,,,
1799999996048502140,2027-01-15T07:59:56.048502140Z,-2.98,1.91,-0.21,2.13,2.98,2.98,2.55,4.26,5.11,3.62,5.53,5.11,7.23,7.45,,,,,,,,,,,,,,
1799999996062767476,2027-01-15T07:59:56.062767476Z,-1.49,1.28,1.06,0.85,2.13,2.55,1.49,3.83,5.11,3.83,6.38,5.53,6.81,7.02,,,,,,,,,,,,,,
1799999996077032811,2027-01-15T07:59:56.077032811Z,-0.43,-0.85,-0.43,-0.64,0.64,1.91,0.85,2.77,3.40,4.47,5.53,5.74,7.23,7.66,,,,,,,,,,,,,,
1799999996091298146,2027-01-15T07:59:56.091298146Z,-1.49,-1.49,-1.06,-1.06,2.13,2.13,2.34,3.40,4.26,4.68,4.89,5.11,7.23,8.09,,,,,,,,,,,,,,
1799999996105563481,2027-01-15T07:59:56.105563481Z,-0.43,0.00,-0.85,-1.06,1.49,2.13,1.91,3.83,4.47,4.04,4.68,6.38,6.17,6.81,,,,,,,,,,,,,,
1799999996119828816,2027-01-15T07:59:56.119828816Z,0.21,0.00,-0.21,0.21,0.85,2.98,3.19,4.04,3.19,3.83,4.26,7.23,6.81,7.02,,,,,,,,,,,,,,
1799999996134094152,2027-01-15T07:59:56.134094152Z,-1.49,-1.49,0.00,1.91,-0.64,2.34,2.55,4.26,4.47,5.74,5.96,6.81,6.81,6.60,,,,,,,,,,,,,,
1799999996148359487,2027-01-15T07:59:56.148359487Z,-1.06,-0.21,0.64,1.49,-1.06,1.06,1.91,2.77,4.68,5.11,5.11,5.53,6.81,7.23,,,,,,,,,,,,,,
1799999996162624822,2027-01-15T07:59:56.162624822Z,1.70,0.64,0.43,1.06,0.64,1.91,2.55,1.91,3.62,5.11,5.32,4.68,6.60,8.09,,,,,,,,,,,,,,
1799999996176890157,2027-01-15T07:59:56.176890157Z,-0.64,-2.13,1.49,0.43,1.06,4.68,3.19,3.40,4.47,4.89,5.32,5.74,5.74,7.66,,,,,,,,,,,,,,
1799999996191155493,2027-01-15T07:59:56.191155493Z,-0.64,-1.28,1.28,-0.43,1.91,5.11,2.77,4.47,4.47,4.89,5.74,5.32,5.53,6.17,,,,,,,,,,,,,,
1799999996205420828,2027-01-15T07:59:56.205420828Z,-0.64,-1.28,0.64,0.85,1.28,2.13,1.49,4.47,4.47,4.89,6.17,4.89,5.11,5.11,,,,,,,,,,,,,,
1799999996219686163,2027-01-15T07:59:56.219686163Z,-2.55,-2.13,0.85,1.49,-0.43,2.98,1.70,3.62,7.02,4.68,3.62,5.74,7.23,6.38,,,,,,,,,,,,,,
1799999996233951498,2027-01-15T07:59:56.233951498Z,0.21,-2.13,1.06,0.85,-0.64,3.83,2.55,4.04,6.17,3.19,5.74,6.60,7.45,7.87,,,,,,,,,,,,,,
1799999996248216834,2027-01-15T07:59:56.248216834Z,0.43,-0.85,1.91,0.85,0.21,2.55,2.77,3.62,3.40,3.83,6.17,5.53,6.60,7.45,,,,,,,,,,,,,,
1799999996262482169,2027-01-15T07:59:56.262482169Z,0.43,-0.43,2.13,2.55,1.28,1.70,2.77,4.47,3.19,4.89,5.11,5.53,6.38,6.81,,,,,,,,,,,,,,
1799999996276747504,2027-01-15T07:59:56.276747504Z,-1.49,-1.70,0.43,2.55,0.85,1.70,2.34,5.11,3.19,4.47,4.68,7.45,5.74,6.81,,,,,,,,,,,,,,
1799999996291012839,2027-01-15T07:59:56.291012839Z,-0.64,-0.43,-2.34,1.06,-0.64,2.77,1.28,4.47,2.98,5.32,6.60,6.38,5.32,6.38,,,,,,,,,,,,,,
1799999996305278175,2027-01-15T07:59:56.305278175Z,0.64,-0.21,-0.85,-1.06,0.21,2.77,1.91,3.62,2.98,5.11,7.02,6.60,5.32,6.60,,,,,,,,,,,,,,
1799999996319543510,2027-01-15T07:59:56.319543510Z,1.70,-1.28,0.00,0.21,0.64,2.13,2.98,2.34,3.19,4.89,6.17,6.81,6.60,6.81,,,,,,,,,,,,,,
1799999996333808845,2027-01-15T07:59:56.333808845Z,-1.28,-1.70,-0.43,0.85,2.13,1.70,4.26,1.70,3.40,4.26,5.11,6.17,6.38,7.45,,,,,,,,,,,,,,
1799999996348074180,2027-01-15T07:59:56.348074180Z,-0.85,-0.64,0.64,0.85,3.40,1.70,3.62,2.77,3.83,4.26,5.74,6.17,6.17,8.09,,,,,,,,,,,,,,
1799999996362339515,2027-01-15T07:59:56.362339515Z,1.06,0.64,-0.43,0.64,1.91,2.34,3.19,2.55,5.32,4.68,8.30,6.81,7.23,7.23,,,,,,,,,,,,,,
1799999996376604851,2027-01-15T07:59:56.376604851Z,-0.85,1.49,-0.85,0.64,0.43,3.83,2.55,3.40,3.83,5.53,6.81,7.23,7.23,7.02,,,,,,,,,,,,,,
1799999996390870186,2027-01-15T07:59:56.390870186Z,-1.28,0.00,-0.43,0.43,0.43,4.04,1.28,3.19,2.77,4.68,5.96,7.02,6.38,6.17,,,,,,,,,,,,,,
1799999996405135521,2027-01-15T07:59:56.405135521Z,-0.21,-1.28,-1.06,-0.21,0.00,2.77,1.91,2.98,2.34,5.11,5.53,5.74,5.74,7.02,,,,,,,,,,,,,,
1799999996419400856,2027-01-15T07:59:56.419400856Z,-0.43,-2.77,-0.64,0.43,0.43,0.21,2.55,3.19,3.62,4.04,5.11,6.17,6.60,7.87,,,,,,,,,,,,,,
1799999996433666192,2027-01-15T07:59:56.433666192Z,-0.64,-1.70,0.64,2.13,1.06,1.91,3.83,2.13,5.32,2.98,6.17,6.17,6.60,5.96,,,,,,,,,,,,,,
1799999996447931527,2027-01-15T07:59:56.447931527Z,-1.28,0.21,0.43,2.13,1.28,2.34,3.40,2.34,5.53,4.89,6.38,5.74,5.74,5.53,,,,,,,,,,,,,,
1799999996462196862,2027-01-15T07:59:56.462196862Z,1.49,0.64,-0.43,0.43,1.06,2.34,2.55,1.91,4.04,4.89,5.74,5.53,7.02,5.53,,,,,,,,,,,,,,
1799999996476462197,2027-01-15T07:59:56.476462197Z,0.64,0.00,0.21,0.00,1.70,3.62,2.98,2.34,2.98,4.47,5.74,6.60,6.81,7.87,,,,,,,,,,,,,,
1799999996490727533,2027-01-15T07:59:56.490727533Z,-1.91,-0.85,0.00,-0.85,0.00,3.19,3.40,2.55,4.04,4.68,4.68,6.81,5.74,9.57,,,,,,,,,,,,,,
1799999996504992868,2027-01-15T07:59:56.504992868Z,-1.91,-0.43,-0.64,-0.21,-0.64,1.49,3.19,2.98,3.19,5.53,5.32,6.60,6.17,8.09,,,,,,,,,,,,,,
1799999996519258203,2027-01-15T07:59:56.519258203Z,0.00,-0.43,0.43,0.43,-0.21,1.91,4.04,2.77,4.04,5.74,5.53,6.17,7.02,6.81,,,,,,,,,,,,,,
1799999996533523538,2027-01-15T07:59:56.533523538Z,-0.21,-1.06,0.43,-0.85,1.70,2.13,4.47,2.98,4.47,5.74,5.11,5.53,7.45,5.74,,,,,,,,,,,,,,
1799999996547788874,2027-01-15T07:59:56.547788874Z,0.64,-1.06,-0.21,0.43,1.06,2.98,3.19,5.53,2.34,5.32,4.47,5.53,7.66,7.02,,,,,,,,,,,,,,
1799999996562054209,2027-01-15T07:59:56.562054209Z,-1.91,0.00,-1.49,1.70,-0.64,1.06,2.98,6.38,3.40,4.89,5.32,6.17,6.60,8.30,,,,,,,,,,,,,,
1799999996576319544,2027-01-15T07:59:56.576319544Z,0.00,0.43,-1.28,1.28,-0.43,1.49,3.40,5.32,5.53,4.89,5.32,5.74,7.45,8.09,,,,,,,,,,,,,,
1799999996590584879,2027-01-15T07:59:56.590584879Z,-2.55,0.21,-1.91,1.06,0.21,2.13,4.04,3.83,4.26,3.83,4.47,5.32,7.23,7.87,,,,,,,,,,,,,,
1799999996604850214,2027-01-15T07:59:56.604850214Z,-2.13,0.43,-0.21,-0.64,2.77,1.06,3.40,2.34,2.77,3.62,4.47,6.17,5.74,8.09,,,,,,,,,,,,,,
1799999996619115550,2027-01-15T07:59:56.619115550Z,2.55,-0.85,-0.43,0.00,2.34,-0.43,2.34,1.91,4.89,4.68,4.68,6.60,5.96,7.02,,,,,,,,,,,,,,
1799999996633380885,2027-01-15T07:59:56.633380885Z,0.85,-0.85,0.21,0.00,2.98,1.70,4.04,1.91,4.68,5.11,4.47,7.23,5.96,6.81,,,,,,,,,,,,,,
1799999996647646220,2027-01-15T07:59:56.647646220Z,-1.06,-0.64,1.91,0.64,2.55,2.98,5.11,1.70,4.04,5.53,4.68,7.23,5.74,7.02,,,,,,,,,,,,,,
1799999996661911555,2027-01-15T07:59:56.661911555Z,-0.43,0.00,0.00,0.85,1.70,2.77,4.26,1.91,3.62,5.32,3.19,7.45,6.38,7.23,,,,,,,,,,,,,,
1799999996676176891,2027-01-15T07:59:56.676176891Z,-0.85,-0.43,-1.91,1.06,2.13,3.62,2.55,2.34,2.13,4.47,4.47,7.45,5.74,7.02,,,,,,,,,,,,,,
1799999996690442226,2027-01-15T07:59:56.690442226Z,-1.49,-1.49,-2.34,-0.21,2.55,2.98,2.77,2.55,2.34,3.19,5.96,7.02,5.11,7.87,,,,,,,,,,,,,,
1799999996704707561,2027-01-15T07:59:56.704707561Z,0.21,-2.13,-0.43,0.64,3.19,1.49,3.19,2.13,2.34,4.89,5.53,4.47,5.74,7.87,,,,,,,,,,,,,,
1799999996718972896,2027-01-15T07:59:56.718972896Z,0.00,-0.85,-0.85,0.43,1.70,1.28,3.40,2.98,3.62,5.11,6.38,4.68,6.38,6.38,,,,,,,,,,,,,,
1799999996733238232,2027-01-15T07:59:56.733238232Z,-2.13,-0.64,-2.34,0.43,1.28,1.28,2.55,3.62,5.11,4.47,6.60,5.96,6.17,6.81,,,,,,,,,,,,,,
1799999996747503567,2027-01-15T07:59:56.747503567Z,-0.43,-1.70,-0.64,1.28,2.98,1.06,1.70,2.55,3.19,5.32,5.74,5.74,7.45,7.45,,,,,,,,,,,,,,
1799999996761768902,2027-01-15T07:59:56.761768902Z,1.06,-1.70,0.21,0.21,2.55,2.13,2.98,2.55,2.55,5.53,5.11,5.96,7.87,7.02,,,,,,,,,,,,,,
1799999996776034237,2027-01-15T07:59:56.776034237Z,-0.64,0.21,0.21,-1.06,1.91,4.04,2.98,3.62,3.19,5.74,5.96,6.81,7.02,7.87,,,,,,,,,,,,,,
1799999996790299573,2027-01-15T07:59:56.790299573Z,0.64,1.06,1.06,1.70,0.43,3.40,2.34,4.26,4.26,5.96,6.17,5.96,6.38,6.60,,,,,,,,,,,,,,
1799999996804564908,2027-01-15T07:59:56.804564908Z,0.43,-0.64,-0.21,1.28,1.28,3.19,3.19,3.19,3.83,5.32,5.53,6.60,6.60,6.81,,,,,,,,,,,,,,
1799999996818830243,2027-01-15T07:59:56.818830243Z,1.70,-0.85,-0.85,-0.43,2.34,1.70,2.77,2.98,4.04,4.47,4.26,6.38,7.45,7.23,,,,,,,,,,,,,,
1799999996833095578,2027-01-15T07:59:56.833095578Z,-0.43,1.28,-0.85,0.43,0.85,0.00,2.13,2.77,3.83,4.26,4.26,5.96,6.38,6.60,,,,,,,,,,,,,,
1799999996847360913,2027-01-15T07:59:56.847360913Z,0.21,1.70,0.00,0.64,0.64,2.55,2.34,3.62,4.68,4.04,6.17,4.68,5.74,7.45,,,,,,,,,,,,,,
1799999996861626249,2027-01-15T07:59:56.861626249Z,-1.28,0.64,-0.43,-1.70,0.64,3.62,2.55,2.77,6.17,3.40,6.60,3.83,6.17,7.66,,,,,,,,,,,,,,
1799999996875891584,2027-01-15T07:59:56.875891584Z,0.43,-1.91,-1.49,-0.43,0.85,2.34,1.49,2.55,8.72,4.68,6.81,6.38,7.87,7.66,,,,,,,,,,,,,,
1799999996890156919,2027-01-15T07:59:56.890156919Z,-0.85,-1.91,0.21,0.64,0.43,2.13,1.91,2.77,7.02,5.32,7.23,7.87,7.45,8.09,,,,,,,,,,,,,,
1799999996904422254,2027-01-15T07:59:56.904422254Z,-0.64,-1.70,-0.21,1.06,0.43,2.55,4.04,1.70,4.47,5.11,5.96,6.17,5.53,7.23,,,,,,,,,,,,,,
1799999996918687590,2027-01-15T07:59:56.918687590Z,0.64,-1.28,0.43,0.85,0.00,1.70,3.19,3.62,3.62,4.68,5.96,6.38,5.32,6.60,,,,,,,,,,,,,,
1799999996932952925,2027-01-15T07:59:56.932952925Z,-0.64,-1.91,0.85,-0.21,0.64,0.43,2.55,4.04,4.47,5.32,5.11,6.81,5.74,8.72,,,,,,,,,,,,,,
1799999996947218260,2027-01-15T07:59:56.947218260Z,0.00,-2.13,0.00,-1.28,0.85,1.91,2.13,3.19,6.60,6.38,4.26,6.60,5.96,9.15,,,,,,,,,,,,,,
1799999996961483595,2027-01-15T07:59:56.961483595Z,-2.13,-1.70,-0.85,0.64,0.64,2.34,3.40,2.98,5.53,4.47,4.47,6.17,6.17,7.87,,,,,,,,,,,,,,
1799999996975748931,2027-01-15T07:59:56.975748931Z,-0.85,-1.70,-0.64,1.28,1.70,1.70,3.40,3.40,4.26,3.83,4.89,5.53,6.17,7.02,,,,,,,,,,,,,,
1799999996990014266,2027-01-15T07:59:56.990014266Z,-0.43,0.64,-0.43,1.70,0.43,2.77,3.40,2.98,4.04,2.98,6.17,5.74,5.96,6.81,,,,,,,,,,,,,,
1799999997004279601,2027-01-15T07:59:57.004279601Z,-0.85,0.43,-1.06,2.13,-0.64,3.19,2.55,3.40,5.32,3.83,6.38,5.11,5.74,5.74,,,,,,,,,,,,,,
1799999997018544936,2027-01-15T07:59:57.018544936Z,-0.21,-0.21,-0.43,2.13,1.06,3.83,1.91,4.89,5.53,4.68,5.53,5.11,5.96,5.32,,,,,,,,,,,,,,
1799999997032810272,2027-01-15T07:59:57.032810272Z,-1.70,0.85,1.06,1.70,3.40,2.77,1.49,3.40,2.77,4.89,4.89,6.81,6.38,7.02,,,,,,,,,,,,,,
1799999997047075607,2027-01-15T07:59:57.047075607Z,1.06,0.85,0.21,1.06,2.77,1.28,1.70,1.28,2.55,3.83,5.32,6.60,6.81,7.87,,,,,,,,,,,,,,
1799999997061340942,2027-01-15T07:59:57.061340942Z,-1.91,1.28,-0.43,-0.21,0.85,1.06,1.06,1.70,2.13,4.26,5.96,6.81,7.02,8.30,,,,,,,,,,,,,,
1799999997075606277,2027-01-15T07:59:57.075606277Z,1.06,0.43,0.43,-0.21,0.64,0.43,3.83,3.83,1.91,4.04,5.32,6.60,6.17,7.87,,,,,,,,,,,,,,
1799999997089871612,2027-01-15T07:59:57.089871612Z,-0.85,-0.43,0.21,0.21,1.06,1.91,4.47,4.89,3.40,3.62,4.68,6.60,5.96,8.51,,,,,,,,,,,,,,
1799999997104136948,2027-01-15T07:59:57.104136948Z,-1.28,-1.06,0.64,0.00,1.70,1.49,2.55,4.68,2.34,4.47,4.04,6.38,6.38,8.72,,,,,,,,,,,,,,
1799999997118402283,2027-01-15T07:59:57.118402283Z,0.43,-1.49,1.49,-0.21,1.49,2.55,1.91,4.04,2.98,5.32,5.53,6.17,6.38,8.09,,,,,,,,,,,,,,
1799999997132667618,2027-01-15T07:59:57.132667618Z,-1.49,-0.64,1.70,0.00,1.91,3.19,1.28,3.40,2.98,4.89,5.32,7.02,6.60,6.60,,,,,,,,,,,,,,
1799999997146932953,2027-01-15T07:59:57.146932953Z,-0.21,-1.06,1.28,0.64,1.28,1.91,0.21,2.98,2.34,4.68,5.74,6.81,7.02,5.96,,,,,,,,,,,,,,
1799999997161198289,2027-01-15T07:59:57.161198289Z,0.85,-0.21,-0.64,0.21,0.85,2.55,1.28,3.40,2.34,5.32,5.96,7.02,6.60,5.53,,,,,,,,,,,,,,
1799999997175463624,2027-01-15T07:59:57.175463624Z,-0.21,-0.21,1.91,0.00,0.85,1.91,2.77,4.26,3.83,4.26,5.32,6.38,6.17,7.66,,,,,,,,,,,,,,
1799999997189728959,2027-01-15T07:59:57.189728959Z,-0.64,-1.28,2.13,0.43,2.13,1.49,4.26,3.62,3.62,5.32,5.74,5.32,6.81,8.30,,,,,,,,,,,,,,
1799999997203994294,2027-01-15T07:59:57.203994294Z,-0.21,-1.06,0.00,-0.21,2.98,3.40,2.34,2.77,2.13,4.26,6.38,5.11,7.02,8.09,,,,,,,,,,,,,,
1799999997218259630,2027-01-15T07:59:57.218259630Z,0.21,-1.06,-1.91,-0.64,0.43,2.77,2.77,2.34,2.98,4.47,5.74,7.02,6.81,8.51,,,,,,,,,,,,,,
1799999997232524965,2027-01-15T07:59:57.232524965Z,-2.55,-0.85,-1.06,0.64,-2.13,1.70,3.19,1.91,4.26,4.47,5.53,5.96,7.02,8.09,,,,,,,,,,,,,,
1799999997246790300,2027-01-15T07:59:57.246790300Z,-2.13,-0.43,-0.43,1.70,-1.49,1.91,4.26,1.91,4.89,5.11,5.32,4.89,6.38,7.87,,,,,,,,,,,,,,
1799999997261055635,2027-01-15T07:59:57.261055635Z,-1.70,0.21,-0.85,0.00,0.64,2.34,4.04,3.40,5.11,5.11,5.11,6.38,5.74,8.51,,,,,,,,,,,,,,
1799999997275320971,2027-01-15T07:59:57.275320971Z,-0.85,-0.21,-0.43,-2.13,1.06,3.40,3.40,2.55,3.62,3.83,5.32,6.81,6.60,7.66,,,,,,,,,,,,,,
1799999997289586306,2027-01-15T07:59:57.289586306Z,-2.77,-1.28,-0.43,-0.43,0.85,3.62,2.55,1.28,3.19,3.19,3.62,6.60,6.60,6.38,,,,,,,,,,,,,,
1799999997303851641,2027-01-15T07:59:57.303851641Z,-3.40,-2.13,-0.21,0.85,2.55,3.19,3.62,1.49,2.55,3.19,3.62,5.74,6.81,7.02,,,,,,,,,,,,,,
1799999997318116976,2027-01-15T07:59:57.318116976Z,-2.77,-2.77,0.00,1.70,2.77,2.77,3.62,2.34,3.40,4.04,4.04,6.17,7.87,8.51,,,,,,,,,,,,,,
1799999997332382311,2027-01-15T07:59:57.332382311Z,-0.21,-2.13,-0.85,1.49,1.70,1.49,3.83,2.34,4.68,5.32,4.68,6.17,8.30,7.23,,,,,,,,,,,,,,
1799999997346647647,2027-01-15T07:59:57.346647647Z,0.00,-0.43,-0.43,0.85,2.13,0.64,2.55,1.91,2.55,5.32,6.17,5.96,6.60,6.60,,,,,,,,,,,,,,
1799999997360912982,2027-01-15T07:59:57.360912982Z,0.21,-1.06,0.21,0.43,-1.06,0.00,1.49,2.34,2.55,5.32,5.74,6.38,5.96,5.96,,,,,,,,,,,,,,
1799999997375178317,2027-01-15T07:59:57.375178317Z,-1.49,-1.49,-0.85,0.21,-2.13,0.43,1.70,2.55,5.11,5.96,5.32,5.74,5.74,6.81,,,,,,,,,,,,,,
1799999997389443652,2027-01-15T07:59:57.389443652Z,-2.77,0.21,-1.28,0.21,-0.64,2.55,2.13,2.98,4.89,5.53,5.11,4.89,8.09,6.60,,,,,,,,,,,,,,
1799999997403708988,2027-01-15T07:59:57.403708988Z,-0.21,-0.21,-1.28,0.85,0.43,2.13,1.91,4.26,3.62,5.11,5.96,6.38,8.72,6.38,,,,,,,,,,,,,,
1799999997417974323,2027-01-15T07:59:57.417974323Z,-1.70,-0.64,-1.49,1.49,0.00,0.85,2.34,4.68,4.47,5.11,6.60,6.38,7.66,7.66,,,,,,,,,,,,,,
1799999997432239658,2027-01-15T07:59:57.432239658Z,0.00,0.00,-1.28,1.28,-0.21,0.21,3.19,3.40,5.53,4.68,5.53,5.11,6.38,7.87,,,,,,,,,,,,,,
1799999997446504993,2027-01-15T07:59:57.446504993Z,-0.21,1.91,-0.64,1.06,1.28,0.00,1.91,3.62,5.11,3.83,4.47,5.53,7.23,7.23,,,,,,,,,,,,,,
1799999997460770329,2027-01-15T07:59:57.460770329Z,-0.43,0.85,-0.21,1.49,1.28,0.64,1.28,3.62,3.83,4.04,5.11,5.96,6.38,7.45,,,,,,,,,,,,,,
1799999997475035664,2027-01-15T07:59:57.475035664Z,1.28,0.00,0.43,1.70,-0.64,2.34,2.55,4.68,2.34,4.26,4.68,7.23,5.96,7.45,,,,,,,,,,,,,,
1799999997489300999,2027-01-15T07:59:57.489300999Z,-0.21,-0.43,1.06,0.85,1.28,2.98,3.19,5.53,4.04,4.04,3.83,6.81,6.38,5.74,,,,,,,,,,,,,,
1799999997503566334,2027-01-15T07:59:57.503566334Z,-0.43,-0.43,0.85,0.64,1.91,2.34,2.34,4.04,4.26,4.68,4.68,5.74,5.53,6.60,,,,,,,,,,,,,,
1799999997517831670,2027-01-15T07:59:57.517831670Z,-0.64,0.21,0.43,0.64,3.62,2.98,2.77,5.11,3.62,4.68,4.26,5.96,5.53,7.45,,,,,,,,,,,,,,
1799999997532097005,2027-01-15T07:59:57.532097005Z,-0.64,-0.64,-0.43,0.43,4.47,2.13,2.55,3.19,3.83,6.38,4.68,6.60,6.17,6.17,,,,,,,,,,,,,,
1799999997546362340,2027-01-15T07:59:57.546362340Z,-0.43,0.43,-1.28,0.64,4.26,2.98,2.55,3.19,4.26,5.11,5.53,5.32,5.74,7.23,,,,,,,,,,,,,,
1799999997560627675,2027-01-15T07:59:57.560627675Z,-0.43,0.64,-1.06,0.43,2.55,3.19,2.34,3.19,3.40,3.19,6.38,5.53,5.32,7.66,,,,,,,,,,,,,,
1799999997574893010,2027-01-15T07:59:57.574893010Z,-1.06,0.00,-1.06,-0.85,3.19,2.13,1.28,2.55,3.83,3.40,7.66,6.17,5.74,6.60,,,,,,,,,,,,,,
1799999997589158346,2027-01-15T07:59:57.589158346Z,0.85,0.00,0.64,-0.21,3.19,2.13,1.28,2.13,5.32,4.68,6.17,7.02,5.74,7.02,,,,,,,,,,,,,,
1799999997603423681,2027-01-15T07:59:57.603423681Z,0.21,0.64,1.28,0.43,1.91,2.98,1.91,4.04,6.17,5.11,6.60,7.23,6.17,7.66,,,,,,,,,,,,,,
1799999997617689016,2027-01-15T07:59:57.617689016Z,0.21,-0.64,0.21,2.13,1.06,2.13,2.98,5.11,7.87,5.32,7.87,6.60,6.81,6.38,,,,,,,,,,,,,,
1799999997631954351,2027-01-15T07:59:57.631954351Z,-0.64,-1.06,1.28,1.91,0.64,2.13,3.40,3.19,4.26,4.26,6.17,7.02,6.17,6.60,,,,,,,,,,,,,,
1799999997646219687,2027-01-15T07:59:57.646219687Z,-1.06,-1.49,1.06,0.64,-2.55,2.55,2.98,2.34,3.83,4.47,4.68,7.45,5.74,8.09,,,,,,,,,,,,,,
1799999997660485022,2027-01-15T07:59:57.660485022Z,0.85,-0.85,0.00,0.21,0.43,1.70,4.47,2.55,5.53,4.26,4.68,6.60,5.74,8.09,,,,,,,,,,,,,,
1799999997674750357,2027-01-15T07:59:57.674750357Z,0.85,0.43,-0.43,-0.43,3.40,0.85,4.68,2.13,5.32,4.26,5.53,3.83,5.74,7.02,,,,,,,,,,,,,,
1799999997689015692,2027-01-15T07:59:57.689015692Z,,-0.21,-1.28,-0.64,2.77,1.06,3.19,2.55,4.04,3.40,5.96,5.11,6.17,6.60,,,,,,,,,,,,,,
1799999997703281028,2027-01-15T07:59:57.703281028Z,,-0.21,-0.85,1.06,-0.43,1.28,2.34,1.49,2.13,4.26,4.47,7.87,5.74,7.02,,,,,,,,,,,,,,
1799999997717546363,2027-01-15T07:59:57.717546363Z,,-0.43,-0.85,0.64,1.70,1.70,3.83,1.06,2.98,4.89,5.11,6.81,5.32,7.45,,,,,,,,,,,,,,
1799999997731811698,2027-01-15T07:59:57.731811698Z,,-0.21,-1.49,-0.64,4.26,1.49,2.98,1.91,5.11,4.89,5.32,6.17,7.23,8.72,,,,,,,,,,,,,,
1799999997746077033,2027-01-15T07:59:57.746077033Z,,-0.64,-2.13,0.00,2.77,1.70,2.13,2.13,4.68,4.47,5.53,5.96,8.09,8.09,,,,,,,,,,,,,,
1799999997760342369,2027-01-15T07:59:57.760342369Z,,-2.98,-0.85,-1.28,1.49,3.19,2.98,2.98,4.04,4.47,5.96,6.17,7.45,7.66,,,,,,,,,,,,,,
1799999997774607704,2027-01-15T07:59:57.774607704Z,,-3.62,-0.43,-1.28,1.91,3.83,2.34,4.04,5.32,4.26,5.32,7.45,6.60,7.02,,,,,,,,,,,,,,
1799999997788873039,2027-01-15T07:59:57.788873039Z,,-0.85,-1.91,1.70,1.49,5.32,2.77,3.19,3.83,5.11,5.74,7.23,6.17,6.60,,,,,,,,,,,,,,
1799999997803138374,2027-01-15T07:59:57.803138374Z,,-1.06,-1.06,1.28,0.64,4.47,4.04,1.70,2.77,5.32,5.32,6.60,5.96,5.96,,,,,,,,,,,,,,
1799999997817403709,2027-01-15T07:59:57.817403709Z,,-2.34,0.00,-0.43,1.06,3.19,3.19,0.85,1.28,5.11,5.11,5.53,5.96,6.38,,,,,,,,,,,,,,
1799999997831669045,2027-01-15T07:59:57.831669045Z,,-1.06,0.21,0.00,2.34,3.83,2.98,2.13,1.70,4.26,5.53,5.74,6.38,7.45,,,,,,,,,,,,,,
1799999997845934380,2027-01-15T07:59:57.845934380Z,,0.43,0.00,0.21,2.55,1.91,2.55,2.77,4.04,3.40,5.96,5.53,6.60,7.02,,,,,,,,,,,,,,
1799999997860199715,2027-01-15T07:59:57.860199715Z,,-0.43,-0.21,0.43,2.98,1.91,2.98,4.68,4.04,3.62,7.02,6.38,7.66,7.66,,,,,,,,,,,,,,
1799999997874465050,2027-01-15T07:59:57.874465050Z,,-1.06,-0.85,0.21,2.13,2.13,3.19,3.62,3.19,4.68,4.89,4.04,7.66,6.81,,,,,,,,,,,,,,
1799999997888730386,2027-01-15T07:59:57.888730386Z,,-0.21,0.43,1.06,2.55,2.55,3.40,2.13,2.55,4.26,4.47,4.26,6.81,6.38,,,,,,,,,,,,,,
1799999997902995721,2027-01-15T07:59:57.902995721Z,,0.43,0.21,0.64,0.43,2.34,2.98,2.34,2.77,3.62,5.96,5.32,6.38,7.02,,,,,,,,,,,,,,
1799999997917261056,2027-01-15T07:59:57.917261056Z,,0.43,-0.85,-0.43,-1.06,1.06,2.55,3.40,4.47,4.04,6.17,7.66,6.81,7.23,,,,,,,,,,,,,,
1799999997931526391,2027-01-15T07:59:57.931526391Z,,1.06,-0.85,-0.21,-0.21,1.70,1.91,2.34,3.62,5.74,6.60,7.66,7.23,6.81,,,,,,,,,,,,,,
1799999997945791727,2027-01-15T07:59:57.945791727Z,,-0.64,1.49,-1.06,0.43,1.28,1.91,2.77,2.98,4.47,6.17,7.23,6.17,7.02,,,,,,,,,,,,,,
1799999997960057062,2027-01-15T07:59:57.960057062Z,,0.00,0.64,-0.21,1.28,2.13,2.55,4.47,4.47,4.47,5.53,5.96,6.38,7.02,,,,,,,,,,,,,,
1799999997974322397,2027-01-15T07:59:57.974322397Z,,0.85,1.28,1.91,0.21,2.34,2.34,2.98,3.83,4.68,5.53,3.62,6.60,7.45,,,,,,,,,,,,,,
1799999997988587732,2027-01-15T07:59:57.988587732Z,,1.06,0.43,0.64,-0.43,1.91,2.13,1.91,3.40,4.89,5.96,4.26,6.17,6.38,,,,,,,,,,,,,,
1799999998002853068,2027-01-15T07:59:58.002853068Z,,1.91,-0.64,-0.43,1.49,2.13,3.83,3.83,5.32,5.32,5.74,6.17,6.17,6.81,,,,,,,,,,,,,,
1799999998017118403,2027-01-15T07:59:58.017118403Z,,1.28,0.64,-2.55,2.77,1.70,4.04,4.89,6.81,5.74,5.74,6.38,6.17,6.38,,,,,,,,,,,,,,
1799999998031383738,2027-01-15T07:59:58.031383738Z,,-0.21,0.64,0.85,2.13,1.70,2.77,3.62,4.47,3.62,5.53,5.53,7.02,7.23,,,,,,,,,,,,,,
1799999998045649073,2027-01-15T07:59:58.045649073Z,,-1.06,0.00,1.28,0.85,1.91,3.83,3.83,3.19,4.04,5.11,6.17,6.38,9.36,,,,,,,,,,,,,,
1799999998059914408,2027-01-15T07:59:58.059914408Z,,-2.34,-0.64,0.64,1.49,3.19,2.55,3.83,2.98,4.68,3.83,6.17,7.23,8.09,,,,,,,,,,,,,,
1799999998074179744,2027-01-15T07:59:58.074179744Z,,-2.13,-0.43,1.49,2.55,1.91,3.62,4.26,4.47,5.11,5.32,6.17,7.02,7.87,,,,,,,,,,,,,,
1799999998088445079,2027-01-15T07:59:58.088445079Z,,-0.64,0.00,-0.64,1.49,1.70,3.62,4.26,5.11,5.11,5.96,7.66,6.60,8.09,,,,,,,,,,,,,,
1799999998102710414,2027-01-15T07:59:58.102710414Z,,-0.43,-0.21,-0.21,-0.21,1.49,2.34,3.40,3.19,5.11,5.32,8.30,7.23,8.94,,,,,,,,,,,,,,
1799999998116975749,2027-01-15T07:59:58.116975749Z,,-2.13,0.43,0.64,-0.85,0.85,0.21,3.19,1.70,5.32,4.26,7.66,7.02,8.51,,,,,,,,,,,,,,
1799999998131241085,2027-01-15T07:59:58.131241085Z,,-1.49,1.28,0.43,0.21,1.49,2.34,3.62,2.98,5.11,4.04,7.23,6.60,7.66,,,,,,,,,,,,,,
1799999998145506420,2027-01-15T07:59:58.145506420Z,,0.00,1.28,0.00,3.83,0.43,2.77,3.62,6.38,5.53,5.11,7.45,5.74,6.81,,,,,,,,,,,,,,
1799999998159771755,2027-01-15T07:59:58.159771755Z,,-0.85,1.06,2.98,4.89,1.91,1.49,4.68,5.53,5.11,5.53,7.23,5.96,7.66,,,,,,,,,,,,,,
1799999998174037090,2027-01-15T07:59:58.174037090Z,,-0.43,1.28,2.13,2.98,3.62,2.55,4.68,4.89,5.11,4.89,5.53,6.60,6.60,,,,,,,,,,,,,,
1799999998188302426,2027-01-15T07:59:58.188302426Z,,0.43,0.64,1.06,2.77,2.34,2.98,1.91,3.19,3.83,5.11,5.96,6.38,5.32,,,,,,,,,,,,,,
1799999998202567761,2027-01-15T07:59:58.202567761Z,,-1.06,1.28,2.13,3.19,0.21,2.98,3.19,2.55,4.04,6.17,6.38,6.38,6.17,,,,,,,,,,,,,,
1799999998216833096,2027-01-15T07:59:58.216833096Z,,-2.34,1.49,2.13,2.98,0.85,2.55,4.04,2.98,4.68,5.74,5.96,5.96,7.45,,,,,,,,,,,,,,
1799999998231098431,2027-01-15T07:59:58.231098431Z,,-0.43,-0.21,0.85,1.28,2.77,2.13,4.04,4.26,4.68,5.32,6.17,6.17,8.30,,,,,,,,,,,,,,
1799999998245363767,2027-01-15T07:59:58.245363767Z,,-1.06,-3.19,-0.21,2.13,2.34,1.91,3.83,3.83,4.26,6.38,6.60,6.60,8.09,,,,,,,,,,,,,,
1799999998259629102,2027-01-15T07:59:58.259629102Z,,-1.49,-2.98,0.64,2.55,2.13,1.91,4.68,4.26,4.04,6.38,5.74,6.81,7.45,,,,,,,,,,,,,,
1799999998273894437,2027-01-15T07:59:58.273894437Z,,-1.28,-2.13,1.91,0.85,3.19,3.83,4.89,2.77,4.47,6.81,5.74,7.23,7.87,,,,,,,,,,,,,,
1799999998288159772,2027-01-15T07:59:58.288159772Z,,-0.85,-0.64,1.49,0.21,1.70,2.13,3.19,1.49,4.89,5.96,6.60,9.15,6.81,,,,,,,,,,,,,,
1799999998302425107,2027-01-15T07:59:58.302425107Z,,-0.85,0.21,1.06,1.28,1.06,1.28,4.04,3.62,4.47,5.11,6.60,9.36,6.60,,,,,,,,,,,,,,
1799999998316690443,2027-01-15T07:59:58.316690443Z,,-0.64,0.00,0.00,0.43,0.43,2.55,3.62,5.53,3.83,5.74,5.96,8.09,6.60,,,,,,,,,,,,,,
1799999998330955778,2027-01-15T07:59:58.330955778Z,,0.00,-0.43,0.64,-0.64,2.55,3.62,3.40,4.04,3.62,5.74,5.74,6.60,7.23,,,,,,,,,,,,,,
1799999998345221113,2027-01-15T07:59:58.345221113Z,,-0.85,-0.43,2.55,0.64,4.04,3.19,2.98,3.40,4.89,5.32,6.60,4.26,8.72,,,,,,,,,,,,,,
1799999998359486448,2027-01-15T07:59:58.359486448Z,,-2.13,1.70,0.21,0.00,2.34,2.98,1.91,3.19,5.53,5.11,5.74,5.32,7.87,,,,,,,,,,,,,,
1799999998373751784,2027-01-15T07:59:58.373751784Z,,-0.85,0.64,0.21,-0.85,3.83,4.04,2.34,2.34,4.89,5.11,6.17,6.17,5.96,,,,,,,,,,,,,,
1799999998388017119,2027-01-15T07:59:58.388017119Z,,0.00,0.21,0.85,-2.55,2.13,4.68,2.98,2.13,4.04,5.11,7.02,7.02,5.32,,,,,,,,,,,,,,
1799999998402282454,2027-01-15T07:59:58.402282454Z,,-0.43,0.00,0.21,-0.21,1.91,3.62,3.62,2.98,4.89,5.74,7.02,7.66,6.17,,,,,,,,,,,,,,
1799999998416547789,2027-01-15T07:59:58.416547789Z,,-2.13,-0.64,-0.21,1.70,3.62,2.98,3.19,4.04,5.53,5.96,6.17,7.66,7.45,,,,,,,,,,,,,,
1799999998430813125,2027-01-15T07:59:58.430813125Z,,-2.55,0.85,0.85,-0.21,2.34,3.62,2.55,4.04,5.11,4.04,5.74,6.81,7.66,,,,,,,,,,,,,,
1799999998445078460,2027-01-15T07:59:58.445078460Z,,-1.49,-0.85,1.06,0.85,2.34,5.11,1.06,3.19,3.62,5.32,5.32,6.60,8.09,,,,,,,,,,,,,,
1799999998459343795,2027-01-15T07:59:58.459343795Z,,-2.13,-0.43,0.21,1.70,3.83,4.04,2.98,3.19,3.62,5.53,5.74,5.96,8.30,,,,,,,,,,,,,,
1799999998473609130,2027-01-15T07:59:58.473609130Z,,-1.06,-0.85,-0.21,2.55,3.19,3.19,3.62,3.19,4.04,5.74,5.32,5.53,7.02,,,,,,,,,,,,,,
1799999998487874466,2027-01-15T07:59:58.487874466Z,,0.64,-1.49,0.64,3.40,1.49,3.19,1.91,4.68,5.11,6.38,5.74,6.38,7.87,,,,,,,,,,,,,,
1799999998502139801,2027-01-15T07:59:58.502139801Z,,-0.64,-0.85,0.43,1.91,2.77,3.40,4.04,5.96,5.53,5.53,6.38,6.17,8.09,,,,,,,,,,,,,,
1799999998516405136,2027-01-15T07:59:58.516405136Z,,-1.28,-1.28,0.21,0.21,3.83,1.91,4.89,5.11,5.11,5.53,6.81,5.53,7.23,,,,,,,,,,,,,,
1799999998530670471,2027-01-15T07:59:58.530670471Z,,-0.21,-1.49,0.85,-0.85,2.77,0.43,2.55,4.68,5.11,5.74,7.23,6.60,6.81,,,,,,,,,,,,,,
1799999998544935806,2027-01-15T07:59:58.544935806Z,,0.43,-1.49,1.49,0.64,1.91,0.85,2.13,5.11,5.32,5.11,7.02,5.74,6.17,,,,,,,,,,,,,,
1799999998559201142,2027-01-15T07:59:58.559201142Z,,0.21,-1.28,0.43,2.55,3.19,2.34,3.83,3.62,5.11,4.47,6.17,5.53,7.02,,,,,,,,,,,,,,
1799999998573466477,2027-01-15T07:59:58.573466477Z,,-0.21,-0.43,-0.21,1.70,2.34,2.98,4.04,3.40,4.26,5.96,5.53,5.74,8.51,,,,,,,,,,,,,,
1799999998587731812,2027-01-15T07:59:58.587731812Z,,0.43,0.85,-0.43,1.06,1.91,2.34,3.40,1.49,3.40,6.38,5.96,6.17,7.45,,,,,,,,,,,,,,
1799999998601997147,2027-01-15T07:59:58.601997147Z,,0.64,-0.43,0.43,-1.70,1.06,2.13,1.28,2.34,4.68,5.96,8.09,5.74,6.81,,,,,,,,,,,,,,
1799999998616262483,2027-01-15T07:59:58.616262483Z,,-0.85,-1.06,0.43,-2.55,-1.06,3.83,0.21,4.68,5.74,5.53,5.96,7.66,7.02,,,,,,,,,,,,,,
1799999998630527818,2027-01-15T07:59:58.630527818Z,,-0.64,-0.21,0.85,-0.43,-1.06,3.40,1.28,5.11,6.17,6.38,6.38,7.87,8.09,,,,,,,,,,,,,,
1799999998644793153,2027-01-15T07:59:58.644793153Z,,-0.21,0.64,2.34,2.13,-1.06,2.55,3.19,3.62,6.38,5.74,7.23,6.17,7.45,,,,,,,,,,,,,,
1799999998659058488,2027-01-15T07:59:58.659058488Z,,2.13,-0.21,1.06,2.13,-0.21,1.49,2.34,3.40,5.96,5.74,6.81,5.74,6.60,,,,,,,,,,,,,,
1799999998673323824,2027-01-15T07:59:58.673323824Z,,2.77,-1.06,0.21,1.91,1.49,0.64,1.06,4.04,4.68,5.74,5.96,5.32,7.45,,,,,,,,,,,,,,
1799999998687589159,2027-01-15T07:59:58.687589159Z,,3.40,0.00,0.43,0.85,2.34,2.13,3.62,4.68,4.26,4.89,6.60,6.38,7.87,,,,,,,,,,,,,,
1799999998701854494,2027-01-15T07:59:58.701854494Z,,1.28,0.21,-0.21,2.34,2.34,1.70,4.89,5.32,4.68,5.53,5.74,6.38,7.02,,,,,,,,,,,,,,
1799999998716119829,2027-01-15T07:59:58.716119829Z,,-0.43,0.21,0.00,2.34,2.13,2.55,5.11,4.68,4.47,4.68,5.11,6.38,6.60,,,,,,,,,,,,,,
1799999998730385165,2027-01-15T07:59:58.730385165Z,,-0.85,0.21,-1.70,2.34,1.06,3.40,4.26,2.34,4.04,4.47,6.17,7.02,5.96,,,,,,,,,,,,,,
1799999998744650500,2027-01-15T07:59:58.744650500Z,,-0.85,1.06,-0.43,1.70,0.64,1.91,5.11,1.91,3.83,4.89,6.81,7.02,6.38,,,,,,,,,,,,,,
1799999998758915835,2027-01-15T07:59:58.758915835Z,,-1.49,1.49,1.28,1.28,2.77,2.55,4.26,2.13,4.68,5.11,6.81,6.60,7.02,,,,,,,,,,,,,,
1799999998773181170,2027-01-15T07:59:58.773181170Z,,-3.62,1.28,1.49,0.85,1.91,4.04,2.13,4.04,5.96,4.47,6.81,8.30,7.02,,,,,,,,,,,,,,
1799999998787446505,2027-01-15T07:59:58.787446505Z,,0.00,2.13,0.43,0.85,1.28,3.83,1.49,5.11,5.11,5.32,6.60,6.81,5.32,,,,,,,,,,,,,,
1799999998801711841,2027-01-15T07:59:58.801711841Z,,2.13,-0.21,-0.85,1.06,1.70,3.19,2.77,4.68,4.89,5.53,6.17,5.11,5.74,,,,,,,,,,,,,,
1799999998815977176,2027-01-15T07:59:58.815977176Z,,-0.21,-2.55,0.64,0.85,1.70,3.19,3.19,4.04,5.11,4.89,6.38,5.96,7.87,,,,,,,,,,,,,,
1799999998830242511,2027-01-15T07:59:58.830242511Z,,-1.91,-1.91,-0.21,1.28,2.34,5.11,2.55,2.98,5.96,5.74,6.38,5.96,8.09,,,,,,,,,,,,,,
1799999998844507846,2027-01-15T07:59:58.844507846Z,,-1.91,-1.49,-1.91,1.28,2.55,5.53,2.34,2.77,5.32,5.74,5.74,5.96,8.09,,,,,,,,,,,,,,
1799999998858773182,2027-01-15T07:59:58.858773182Z,,-0.21,-0.21,-0.43,2.13,3.19,5.32,1.49,3.19,4.47,5.11,6.38,6.17,7.45,,,,,,,,,,,,,,
1799999998873038517,2027-01-15T07:59:58.873038517Z,,-0.43,0.00,0.00,1.70,3.40,4.68,2.13,5.96,4.26,5.32,7.45,6.17,7.23,,,,,,,,,,,,,,
1799999998887303852,2027-01-15T07:59:58.887303852Z,,-0.21,-0.43,0.43,1.28,2.13,4.47,4.26,5.11,2.98,4.89,7.02,6.17,8.09,,,,,,,,,,,,,,
1799999998901569187,2027-01-15T07:59:58.901569187Z,,-0.21,-0.21,0.21,1.06,2.77,3.83,2.34,4.26,3.40,4.04,5.53,5.96,9.15,,,,,,,,,,,,,,
1799999998915834523,2027-01-15T07:59:58.915834523Z,,-1.49,-1.28,1.28,1.70,3.83,3.40,0.64,5.11,3.83,5.11,5.32,5.53,8.30,,,,,,,,,,,,,,
1799999998930099858,2027-01-15T07:59:58.930099858Z,,-0.43,-0.85,1.06,1.70,2.77,4.47,0.64,7.23,4.04,5.74,6.17,6.60,6.81,,,,,,,,,,,,,,
1799999998944365193,2027-01-15T07:59:58.944365193Z,,0.64,-0.21,-0.64,1.28,2.77,2.77,1.91,6.17,4.47,6.38,4.89,7.45,6.38,,,,,,,,,,,,,,
1799999998958630528,2027-01-15T07:59:58.958630528Z,,-1.28,-0.43,0.43,0.43,1.49,1.91,3.19,5.74,4.47,5.53,4.68,7.23,7.02,,,,,,,,,,,,,,
1799999998972895864,2027-01-15T07:59:58.972895864Z,,-1.70,-1.06,1.70,0.21,2.98,1.91,3.40,3.83,5.32,5.96,4.68,7.45,8.09,,,,,,,,,,,,,,
1799999998987161199,2027-01-15T07:59:58.987161199Z,,-1.28,-0.85,1.28,2.55,3.40,1.91,3.19,4.89,5.11,5.96,4.89,6.17,8.30,,,,,,,,,,,,,,
1799999999001426534,2027-01-15T07:59:59.001426534Z,,-1.28,1.06,1.06,2.13,1.91,1.49,2.34,6.17,3.62,5.11,5.53,5.32,7.66,,,,,,,,,,,,,,
1799999999015691869,2027-01-15T07:59:59.015691869Z,,0.43,-1.06,0.64,0.00,1.49,0.64,1.91,4.26,4.89,5.11,5.96,5.74,5.96,,,,,,,,,,,,,,
1799999999029957204,2027-01-15T07:59:59.029957204Z,,1.49,-1.70,0.64,0.64,2.13,0.64,2.55,2.98,4.26,5.32,6.81,6.38,6.17,,,,,,,,,,,,,,
1799999999044222540,2027-01-15T07:59:59.044222540Z,,-0.21,1.06,0.64,1.70,2.98,2.55,3.62,1.28,5.11,4.89,6.81,6.81,6.60,,,,,,,,,,,,,,
1799999999058487875,2027-01-15T07:59:59.058487875Z,,-0.21,1.70,1.06,1.06,2.34,3.40,3.40,3.19,4.89,5.11,5.96,7.02,5.32,,,,,,,,,,,,,,
1799999999072753210,2027-01-15T07:59:59.072753210Z,,-1.70,0.43,-0.21,0.43,1.70,2.55,3.40,3.83,3.83,5.32,5.32,7.23,6.60,,,,,,,,,,,,,,
1799999999087018545,2027-01-15T07:59:59.087018545Z,,-1.06,-0.21,-0.64,0.43,0.85,0.85,2.98,3.19,4.68,5.32,4.89,6.81,8.72,,,,,,,,,,,,,,
1799999999101283881,2027-01-15T07:59:59.101283881Z,,0.64,0.21,-0.64,1.49,0.64,0.85,2.98,3.40,5.11,5.74,4.47,6.17,8.51,,,,,,,,,,,,,,
1799999999115549216,2027-01-15T07:59:59.115549216Z,,-0.85,1.06,1.06,1.91,1.06,3.83,3.83,4.26,4.68,5.32,5.74,6.17,7.66,,,,,,,,,,,,,,
1799999999129814551,2027-01-15T07:59:59.129814551Z,,-1.28,1.91,1.06,2.55,2.13,5.53,4.04,4.26,5.53,5.53,7.23,6.60,7.23,,,,,,,,,,,,,,
1799999999144079886,2027-01-15T07:59:59.144079886Z,,-0.43,0.85,1.06,1.28,1.70,3.62,2.98,4.68,5.96,5.74,6.81,7.02,7.02,,,,,,,,,,,,,,
1799999999158345222,2027-01-15T07:59:59.158345222Z,,0.64,1.28,0.64,0.64,1.49,2.98,3.62,4.26,4.68,5.74,6.38,6.38,7.87,,,,,,,,,,,,,,
1799999999172610557,2027-01-15T07:59:59.172610557Z,,0.00,0.21,0.43,1.28,1.91,3.62,4.26,4.68,5.11,5.96,7.23,7.02,6.81,,,,,,,,,,,,,,
1799999999186875892,2027-01-15T07:59:59.186875892Z,,-2.13,-0.43,-0.21,2.13,1.49,4.26,2.55,6.17,6.81,5.53,5.96,8.51,6.81,,,,,,,,,,,,,,
1799999999201141227,2027-01-15T07:59:59.201141227Z,,0.85,-0.21,1.28,2.98,1.91,2.34,2.13,5.74,5.53,6.60,5.96,8.30,8.09,,,,,,,,,,,,,,
1799999999215406563,2027-01-15T07:59:59.215406563Z,,1.49,-0.85,1.91,2.55,1.70,1.91,2.98,4.04,4.68,5.53,6.17,8.94,9.15,,,,,,,,,,,,,,
1799999999229671898,2027-01-15T07:59:59.229671898Z,,0.64,-0.21,1.49,1.49,1.06,1.28,3.62,2.34,4.26,4.04,6.38,8.09,9.36,,,,,,,,,,,,,,
1799999999243937233,2027-01-15T07:59:59.243937233Z,,-0.85,0.00,0.00,3.83,1.91,2.98,3.83,2.77,3.19,4.47,6.17,5.53,7.45,,,,,,,,,,,,,,
1799999999258202568,2027-01-15T07:59:59.258202568Z,,-0.85,-0.85,0.43,4.26,2.13,4.68,4.26,2.98,2.34,5.11,6.60,5.53,6.60,,,,,,,,,,,,,,
1799999999272467903,2027-01-15T07:59:59.272467903Z,,-0.21,-3.19,-0.21,-1.06,3.19,2.77,4.68,2.98,2.55,5.32,8.30,7.02,6.38,,,,,,,,,,,,,,
1799999999286733239,2027-01-15T07:59:59.286733239Z,,-0.43,-2.98,-0.21,0.21,3.40,2.34,3.83,4.89,3.62,4.89,7.87,7.23,6.81,,,,,,,,,,,,,,
1799999999300998574,2027-01-15T07:59:59.300998574Z,,-1.06,-2.55,-0.64,3.40,3.19,2.34,3.83,6.17,4.89,4.47,6.81,6.38,8.30,,,,,,,,,,,,,,
1799999999315263909,2027-01-15T07:59:59.315263909Z,,-1.91,-1.06,-1.49,0.85,3.83,1.70,4.04,3.40,4.26,4.68,5.96,7.87,6.17,,,,,,,,,,,,,,
1799999999329529244,2027-01-15T07:59:59.329529244Z,,-2.13,0.43,-0.21,0.64,4.68,1.28,2.98,2.77,3.62,5.11,5.53,7.02,5.96,,,,,,,,,,,,,,
1799999999343794580,2027-01-15T07:59:59.343794580Z,,-1.06,0.64,1.70,1.91,3.83,1.28,1.91,2.98,3.62,5.53,5.11,4.89,7.23,,,,,,,,,,,,,,
1799999999358059915,2027-01-15T07:59:59.358059915Z,,-1.49,0.85,2.34,0.43,1.49,2.34,2.13,5.32,4.68,5.96,4.04,6.17,6.38,,,,,,,,,,,,,,
1799999999372325250,2027-01-15T07:59:59.372325250Z,,-1.06,0.43,1.49,0.64,1.49,2.34,2.98,4.68,5.32,5.53,5.53,5.53,6.81,,,,,,,,,,,,,,
1799999999386590585,2027-01-15T07:59:59.386590585Z,,-1.49,1.49,1.06,0.43,0.43,1.91,3.19,3.40,5.74,4.68,7.45,7.87,8.09,,,,,,,,,,,,,,
1799999999400855921,2027-01-15T07:59:59.400855921Z,,-3.19,1.06,0.64,-0.21,-0.43,2.13,4.04,2.77,5.11,4.89,6.81,8.94,8.51,,,,,,,,,,,,,,
1799999999415121256,2027-01-15T07:59:59.415121256Z,,-4.04,-0.64,-0.21,0.21,0.21,2.13,4.26,2.98,4.68,6.17,6.17,7.45,7.87,,,,,,,,,,,,,,
1799999999429386591,2027-01-15T07:59:59.429386591Z,,-1.49,0.00,0.21,2.77,1.91,2.34,3.62,3.19,4.47,5.53,5.11,6.38,7.66,,,,,,,,,,,,,,
1799999999443651926,2027-01-15T07:59:59.443651926Z,,-0.21,-0.43,-0.43,2.98,3.19,2.77,2.77,2.55,4.68,6.17,6.38,6.38,7.87,,,,,,,,,,,,,,
1799999999457917262,2027-01-15T07:59:59.457917262Z,,0.85,-0.21,-1.06,1.70,4.68,3.40,4.47,2.77,5.11,6.17,6.60,5.74,7.87,,,,,,,,,,,,,,
1799999999472182597,2027-01-15T07:59:59.472182597Z,,0.85,0.64,0.85,0.85,4.26,2.55,3.62,1.91,4.89,5.53,4.26,5.74,7.02,,,,,,,,,,,,,,
1799999999486447932,2027-01-15T07:59:59.486447932Z,,2.55,0.85,0.85,1.06,1.28,2.55,2.55,0.64,4.68,5.74,4.89,5.53,7.87,,,,,,,,,,,,,,
1799999999500713267,2027-01-15T07:59:59.500713267Z,,3.40,-1.49,0.21,0.85,1.06,2.98,2.34,1.28,4.04,5.74,5.74,5.53,6.81,,,,,,,,,,,,,,
1799999999514978602,2027-01-15T07:59:59.514978602Z,,-0.21,-2.55,0.85,1.70,3.40,2.77,3.83,3.40,4.68,5.11,5.96,7.23,6.81,,,,,,,,,,,,,,
1799999999529243938,2027-01-15T07:59:59.529243938Z,,-1.06,-1.70,0.43,1.06,2.55,2.98,4.89,4.26,4.47,3.83,7.02,5.96,7.45,,,,,,,,,,,,,,
1799999999543509273,2027-01-15T07:59:59.543509273Z,,0.64,0.85,0.21,0.43,0.85,2.77,2.98,4.89,4.04,4.04,5.53,5.53,8.09,,,,,,,,,,,,,,
1799999999557774608,2027-01-15T07:59:59.557774608Z,,1.06,1.70,0.64,2.13,2.77,2.77,2.77,5.53,4.68,4.68,5.74,6.81,8.30,,,,,,,,,,,,,,
1799999999572039943,2027-01-15T07:59:59.572039943Z,,-0.64,1.70,0.64,1.28,2.34,3.40,4.47,5.32,4.26,5.32,6.38,6.17,8.51,,,,,,,,,,,,,,
1799999999586305279,2027-01-15T07:59:59.586305279Z,,0.21,1.06,0.43,0.21,0.43,3.83,5.11,2.98,4.68,5.11,6.60,4.26,8.30,,,,,,,,,,,,,,
1799999999600570614,2027-01-15T07:59:59.600570614Z,,-0.43,-1.28,0.00,1.91,0.85,3.40,4.26,1.91,4.89,4.47,5.74,4.89,6.17,,,,,,,,,,,,,,
1799999999614835949,2027-01-15T07:59:59.614835949Z,,-1.49,-1.49,0.00,1.28,1.70,2.55,3.83,2.77,4.04,6.81,6.81,4.89,6.38,,,,,,,,,,,,,,
1799999999629101284,2027-01-15T07:59:59.629101284Z,,-0.85,-0.85,0.43,1.28,2.55,1.91,4.26,3.40,4.47,6.60,8.30,8.72,5.96,,,,,,,,,,,,,,
1799999999643366620,2027-01-15T07:59:59.643366620Z,,-0.64,-0.85,1.06,2.13,1.06,3.19,4.26,3.83,4.89,5.74,6.60,7.23,5.53,,,,,,,,,,,,,,
1799999999657631955,2027-01-15T07:59:59.657631955Z,,-2.13,-0.85,0.64,2.77,2.77,2.13,4.04,4.26,5.74,5.74,6.17,4.04,7.45,,,,,,,,,,,,,,
1799999999671897290,2027-01-15T07:59:59.671897290Z,,-2.98,-1.06,0.00,2.34,4.68,2.34,4.89,4.26,6.60,5.32,6.38,4.89,7.66,,,,,,,,,,,,,,
1799999999686162625,2027-01-15T07:59:59.686162625Z,,-2.13,-0.21,-0.64,0.43,1.70,4.47,3.83,4.47,5.74,4.68,6.17,6.38,6.81,,,,,,,,,,,,,,
1799999999700427961,2027-01-15T07:59:59.700427961Z,,-0.43,-1.28,0.85,0.85,1.91,4.04,2.34,3.62,5.32,5.32,5.96,7.23,6.60,,,,,,,,,,,,,,
1799999999714693296,2027-01-15T07:59:59.714693296Z,,-0.21,-1.49,0.43,1.28,2.77,2.34,3.19,2.98,4.89,4.89,6.60,7.23,5.96,,,,,,,,,,,,,,
1799999999728958631,2027-01-15T07:59:59.728958631Z,,-1.49,0.85,-0.43,0.85,2.55,1.91,2.77,3.62,4.89,4.89,7.02,5.96,6.81,,,,,,,,,,,,,,
1799999999743223966,2027-01-15T07:59:59.743223966Z,,-0.43,1.49,0.85,0.43,2.13,2.13,3.62,4.04,4.68,5.11,5.96,6.17,7.45,,,,,,,,,,,,,,
1799999999757489301,2027-01-15T07:59:59.757489301Z,,0.21,1.91,3.62,0.85,1.28,3.19,3.83,4.04,4.26,5.11,6.38,7.23,6.81,,,,,,,,,,,,,,
1799999999771754637,2027-01-15T07:59:59.771754637Z,,0.43,0.21,1.70,0.00,2.34,2.55,1.91,4.26,5.96,5.74,5.74,6.60,8.30,,,,,,,,,,,,,,
1799999999786019972,2027-01-15T07:59:59.786019972Z,,1.49,0.85,1.06,0.00,4.04,2.98,1.91,4.68,6.60,5.96,5.53,5.96,8.09,,,,,,,,,,,,,,
1799999999800285307,2027-01-15T07:59:59.800285307Z,,0.00,2.55,0.64,1.06,3.40,1.91,2.13,4.89,5.32,6.38,5.53,6.17,5.32,,,,,,,,,,,,,,
1799999999814550642,2027-01-15T07:59:59.814550642Z,,-1.49,1.70,0.85,1.49,2.98,1.28,1.06,5.96,5.11,7.23,5.74,6.60,6.17,,,,,,,,,,,,,,
1799999999828815978,2027-01-15T07:59:59.828815978Z,,-1.06,-0.21,2.34,1.06,2.34,1.70,0.85,5.32,4.68,8.09,4.89,5.96,7.66,,,,,,,,,,,,,,
1799999999843081313,2027-01-15T07:59:59.843081313Z,,-1.06,-1.49,2.13,0.00,-0.21,1.70,0.85,3.19,4.26,7.02,5.53,5.74,6.60,,,,,,,,,,,,,,
1799999999857346648,2027-01-15T07:59:59.857346648Z,,-1.06,-1.91,0.21,0.21,1.06,2.34,1.28,2.77,4.68,5.74,6.60,6.38,7.45,,,,,,,,,,,,,,
1799999999871611983,2027-01-15T07:59:59.871611983Z,,-0.43,-2.34,-0.64,2.13,2.34,2.77,2.34,3.62,5.53,5.32,5.96,7.45,8.30,,,,,,,,,,,,,,
1799999999885877319,2027-01-15T07:59:59.885877319Z,,0.85,-1.91,0.64,2.34,3.19,1.91,2.55,2.34,5.32,4.26,6.60,7.02,6.38,,,,,,,,,,,,,,
1799999999900142654,2027-01-15T07:59:59.900142654Z,,-0.43,-0.43,0.43,0.64,3.19,3.62,4.04,2.77,3.62,4.04,7.23,6.38,5.96,,,,,,,,,,,,,,
1799999999914407989,2027-01-15T07:59:59.914407989Z,,-1.49,0.64,-0.43,0.21,2.55,4.68,4.26,3.40,2.98,3.83,7.45,5.74,5.53,,,,,,,,,,,,,,
1799999999928673324,2027-01-15T07:59:59.928673324Z,,-1.06,0.21,-1.06,0.43,0.85,5.53,3.19,3.83,2.98,5.11,6.60,5.11,5.96,,,,,,,,,,,,,,
1799999999942938660,2027-01-15T07:59:59.942938660Z,,-2.77,-0.64,0.21,0.64,1.28,5.32,2.55,4.68,4.04,5.96,6.17,5.53,6.17,,,,,,,,,,,,,,
1799999999957203995,2027-01-15T07:59:59.957203995Z,,-2.98,-0.21,0.43,0.85,1.49,4.68,2.13,4.89,4.26,5.32,6.17,6.38,7.02,,,,,,,,,,,,,,
1799999999971469330,2027-01-15T07:59:59.971469330Z,,-0.43,-0.43,0.85,-0.43,1.70,4.26,1.91,4.04,3.19,4.68,5.53,7.87,6.38,,,,,,,,,,,,,,
1799999999985734665,2027-01-15T07:59:59.985734665Z,,-1.49,-0.64,1.91,1.28,1.06,4.47,2.13,2.77,4.04,5.11,5.32,8.72,6.38,,,,,,,,,,,,,,
