# spacing_uv=20.0
timestamp_ns,timestamp_iso,AF3,F7,F3,FC5,T7,P7,O1,O2,P8,T8,FC6,F4,F8,AF4,AF3_q,F7_q,F3_q,FC5_q,T7_q,P7_q,O1_q,O2_q,P8_q,T8_q,FC6_q,F4_q,F8_q,AF4_q
1799999990000000000,2027-01-15T07:59:50.000000000Z,,,,,,,,,,,,,,,,,,,,,,,,,,,,
1799999990013315580,2027-01-15T07:59:50.013315580Z,-0.74,-0.56,-1.67,0.19,0.93,0.37,2.04,2.41,3.89,1.30,3.70,5.56,4.44,4.81,,,,,,,,,,,,,,
1799999990026631159,2027-01-15T07:59:50.026631159Z,-0.56,-0.56,-0.19,-0.37,2.22,0.93,2.22,1.85,3.15,3.70,4.44,5.19,4.81,6.67,,,,,,,,,,,,,,
1799999990039946738,2027-01-15T07:59:50.039946738Z,0.93,-0.19,1.11,-0.19,3.33,1.30,0.74,1.48,2.04,4.81,5.37,4.44,5.37,8.33,,,,,,,,,,,,,,
1799999990053262317,2027-01-15T07:59:50.053262317Z,0.74,0.56,0.56,0.56,1.11,1.48,-2.04,2.22,2.96,4.63,4.81,5.74,6.48,6.30,,,,,,,,,,,,,,
1799999990066577897,2027-01-15T07:59:50.066577897Z,-0.74,0.74,-0.37,0.19,0.56,0.37,-0.56,2.96,5.00,3.89,6.30,6.11,7.41,5.93,,,,,,,,,,,,,,
1799999990079893476,2027-01-15T07:59:50.079893476Z,-0.74,1.11,-0.56,0.00,2.59,0.00,2.41,3.52,5.00,4.81,5.93,5.74,5.00,5.93,,,,,,,,,,,,,,
1799999990093209055,2027-01-15T07:59:50.093209055Z,0.74,-0.93,0.74,0.19,2.78,0.19,2.59,3.52,4.07,5.00,5.19,4.63,4.81,7.78,,,,,,,,,,,,,,
1799999990106524634,2027-01-15T07:59:50.106524634Z,-2.04,-0.37,0.19,1.11,0.93,0.74,3.15,1.67,2.96,4.63,6.11,4.07,6.48,7.78,,,,,,,,,,,,,,
1799999990119840214,2027-01-15T07:59:50.119840214Z,-2.96,1.30,1.85,1.67,0.56,0.93,2.41,2.59,3.89,4.26,5.74,6.11,5.93,7.41,,,,,,,,,,,,,,
1799999990133155793,2027-01-15T07:59:50.133155793Z,-1.48,-1.85,3.15,0.37,0.19,0.93,2.04,3.33,3.15,4.81,4.81,6.48,5.74,5.56,,,,,,,,,,,,,,
1799999990146471372,2027-01-15T07:59:50.146471372Z,-2.41,0.37,2.59,0.19,3.15,1.48,0.74,2.41,3.70,3.52,5.37,6.11,5.74,5.00,,,,,,,,,,,,,,
1799999990159786951,2027-01-15T07:59:50.159786951Z,-3.15,-1.11,-0.19,-0.37,2.22,1.67,2.04,2.78,4.44,2.96,4.81,5.00,5.93,5.74,,,,,,,,,,,,,,
1799999990173102530,2027-01-15T07:59:50.173102530Z,-1.30,-2.04,-0.19,0.19,0.19,2.04,2.04,3.52,3.15,4.07,2.96,4.81,6.11,4.44,,,,,,,,,,,,,,
1799999990186418110,2027-01-15T07:59:50.186418110Z,-3.33,-2.04,1.30,0.74,1.11,2.04,1.30,2.96,2.41,6.11,3.89,5.00,6.11,4.07,,,,,,,,,,,,,,
1799999990199733689,2027-01-15T07:59:50.199733689Z,0.37,-2.41,0.56,0.93,2.04,0.93,3.15,2.96,3.15,5.37,5.56,5.74,5.00,6.85,,,,,,,,,,,,,,
1799999990213049268,2027-01-15T07:59:50.213049268Z,1.48,-0.93,-1.11,-0.37,1.30,1.85,2.78,3.15,4.44,4.07,6.11,6.30,6.48,7.78,,,,,,,,,,,,,,
1799999990226364847,2027-01-15T07:59:50.226364847Z,-0.74,-0.93,-0.93,-0.19,0.00,2.41,1.11,2.78,4.26,3.33,6.30,6.11,7.96,7.78,,,,,,,,,,,,,,
1799999990239680427,2027-01-15T07:59:50.239680427Z,-0.74,0.74,-0.56,0.74,-0.74,1.85,1.30,3.52,5.00,3.70,5.37,4.81,8.15,8.33,,,,,,,,,,,,,,
1799999990252996006,2027-01-15T07:59:50.252996006Z,-0.19,0.56,-1.11,-0.56,-1.11,2.59,2.22,5.37,5.00,2.59,5.74,4.63,7.41,6.48,,,,,,,,,,,,,,
1799999990266311585,2027-01-15T07:59:50.266311585Z,0.19,0.00,-2.22,-0.37,0.93,3.52,5.19,5.00,4.07,2.41,6.30,5.74,6.85,5.93,,,,,,,,,,,,,,
1799999990279627164,2027-01-15T07:59:50.279627164Z,-0.37,0.74,-2.78,1.30,2.04,2.41,3.15,2.59,3.70,3.33,4.63,6.85,5.93,5.19,,,,,,,,,,,,,,
1799999990292942744,2027-01-15T07:59:50.292942744Z,-0.74,-0.19,-2.78,1.30,0.56,1.67,2.59,3.33,3.89,4.26,4.63,5.56,5.74,6.30,,,,,,,,,,,,,,
1799999990306258323,2027-01-15T07:59:50.306258323Z,-3.70,-0.74,-1.85,1.48,-0.93,0.56,2.59,4.07,4.63,5.19,4.44,5.74,5.93,7.96,,,,,,,,,,,,,,
1799999990319573902,2027-01-15T07:59:50.319573902Z,-1.48,-0.93,0.93,0.74,-0.19,1.30,3.33,3.33,4.44,4.81,4.26,4.81,6.48,8.15,,,,,,,,,,,,,,
1799999990332889481,2027-01-15T07:59:50.332889481Z,-0.19,-1.85,1.67,1.48,0.93,3.15,3.52,2.59,3.70,2.59,4.63,3.89,7.41,6.30,,,,,,,,,,,,,,
1799999990346205060,2027-01-15T07:59:50.346205060Z,-1.67,-2.22,0.37,1.11,1.85,3.33,2.96,3.15,3.70,3.70,3.89,4.81,6.85,6.48,,,,,,,,,,,,,,
1799999990359520640,2027-01-15T07:59:50.359520640Z,0.00,-1.48,1.48,1.67,2.59,2.96,2.22,2.78,3.52,4.81,4.07,5.93,6.85,6.67,,,,,,,,,,,,,,
1799999990372836219,2027-01-15T07:59:50.372836219Z,-0.19,0.56,0.19,1.48,1.85,2.04,2.22,0.74,4.07,2.96,4.63,6.30,6.11,5.74,,,,,,,,,,,,,,
1799999990386151798,2027-01-15T07:59:50.386151798Z,1.11,-0.37,-2.41,0.56,0.56,2.41,2.78,0.00,4.07,2.96,4.44,5.37,5.56,6.48,,,,,,,,,,,,,,
1799999990399467377,2027-01-15T07:59:50.399467377Z,0.00,-0.37,-1.67,1.30,0.93,1.85,3.15,1.11,2.96,3.89,4.07,5.56,5.56,7.22,,,,,,,,,,,,,,
1799999990412782957,2027-01-15T07:59:50.412782957Z,0.00,-0.37,-0.93,1.48,0.56,2.04,3.52,3.15,3.70,4.44,3.89,5.93,4.07,7.41,,,,,,,,,,,,,,
1799999990426098536,2027-01-15T07:59:50.426098536Z,-2.41,0.93,-0.93,0.93,0.37,1.85,3.15,3.15,5.19,2.96,4.07,6.11,3.89,7.41,,,,,,,,,,,,,,
1799999990439414115,2027-01-15T07:59:50.439414115Z,-0.93,0.00,0.19,0.93,0.37,1.67,3.52,1.67,3.70,2.59,3.89,5.93,4.44,7.22,,,,,,,,,,,,,,
1799999990452729694,2027-01-15T07:59:50.452729694Z,-0.19,-0.37,1.11,-0.19,1.11,1.85,3.70,1.30,1.85,4.07,3.52,4.63,5.56,7.59,,,,,,,,,,,,,,
1799999990466045273,2027-01-15T07:59:50.466045273Z,-0.37,-0.19,0.56,0.00,1.11,-0.37,3.52,2.59,0.37,5.00,5.37,5.37,6.67,6.85,,,,,,,,,,,,,,
1799999990479360853,2027-01-15T07:59:50.479360853Z,-0.19,0.19,0.37,1.11,1.67,0.19,3.33,3.89,1.48,5.56,5.37,6.11,6.85,5.93,,,,,,,,,,,,,,
1799999990492676432,2027-01-15T07:59:50.492676432Z,-0.37,0.19,-0.19,0.37,3.15,1.67,3.15,5.37,2.41,5.00,5.19,5.74,6.67,4.81,,,,,,,,,,,,,,
1799999990505992011,2027-01-15T07:59:50.505992011Z,-0.74,0.56,-0.56,0.74,3.89,0.56,3.15,4.63,1.48,4.81,6.30,6.67,5.19,2.96,,,,,,,,,,,,,,
1799999990519307590,2027-01-15T07:59:50.519307590Z,0.74,0.00,0.00,-0.74,3.52,1.30,2.96,2.59,2.04,3.70,6.48,6.30,5.00,5.00,,,,,,,,,,,,,,
1799999990532623170,2027-01-15T07:59:50.532623170Z,1.67,-0.56,0.19,-1.85,1.11,2.41,2.22,2.22,1.11,4.44,5.93,6.11,5.37,7.22,,,,,,,,,,,,,,
1799999990545938749,2027-01-15T07:59:50.545938749Z,-0.56,0.00,-0.56,-1.67,-0.19,1.30,2.04,3.33,1.67,6.48,4.81,5.74,5.93,7.78,,,,,,,,,,,,,,
1799999990559254328,2027-01-15T07:59:50.559254328Z,0.56,-0.19,0.37,-0.19,1.11,2.41,3.89,5.56,5.37,5.93,4.44,3.89,4.63,6.30,,,,,,,,,,,,,,
1799999990572569907,2027-01-15T07:59:50.572569907Z,0.93,-0.74,1.48,0.19,2.04,3.33,4.07,4.26,6.11,6.30,5.19,4.26,5.00,4.63,,,,,,,,,,,,,,
1799999990585885487,2027-01-15T07:59:50.585885487Z,-2.59,0.37,2.22,1.11,1.30,3.89,3.52,2.96,6.30,5.74,5.37,5.00,5.56,5.37,,,,,,,,,,,,,,
1799999990599201066,2027-01-15T07:59:50.599201066Z,-1.67,0.56,3.33,2.22,2.78,2.96,2.59,2.59,4.26,3.70,3.89,5.37,6.30,7.22,,,,,,,,,,,,,,
1799999990612516645,2027-01-15T07:59:50.612516645Z,2.41,-0.37,2.59,-1.11,4.63,1.11,1.85,2.78,2.96,3.33,3.89,6.11,5.93,7.04,,,,,,,,,,,,,,
1799999990625832224,2027-01-15T07:59:50.625832224Z,-1.30,0.37,0.93,-2.41,0.74,1.30,0.93,2.22,4.07,4.26,5.00,6.48,5.00,6.11,,,,,,,,,,,,,,
1799999990639147803,2027-01-15T07:59:50.639147803Z,0.19,1.48,-2.04,0.00,-0.37,2.04,0.56,2.04,4.81,5.19,5.56,5.19,5.00,5.74,,,,,,,,,,,,,,
1799999990652463383,2027-01-15T07:59:50.652463383Z,-1.67,-1.30,-3.15,2.04,0.37,1.11,1.48,3.52,3.33,5.74,3.15,5.00,5.19,5.74,,,,,,,,,,,,,,
1799999990665778962,2027-01-15T07:59:50.665778962Z,1.48,-1.67,-2.59,1.48,1.48,1.67,2.59,3.15,2.96,5.37,3.15,6.48,6.85,6.30,,,,,,,,,,,,,,
1799999990679094541,2027-01-15T07:59:50.679094541Z,0.37,-2.22,-1.11,-1.48,-0.56,2.22,3.33,2.41,3.33,3.70,4.81,6.67,7.04,6.67,,,,,,,,,,,,,,
1799999990692410120,2027-01-15T07:59:50.692410120Z,-0.93,-2.04,-1.67,-0.37,-2.41,1.48,3.89,3.15,4.07,2.78,6.67,5.37,7.41,5.93,,,,,,,,,,,,,,
1799999990705725700,2027-01-15T07:59:50.705725700Z,1.48,-1.30,-0.37,0.19,-0.37,1.30,2.41,3.33,3.52,3.89,6.30,4.44,6.11,6.67,,,,,,,,,,,,,,
1799999990719041279,2027-01-15T07:59:50.719041279Z,-2.59,0.74,1.11,1.11,0.00,1.30,0.19,0.74,3.15,5.37,4.26,3.70,6.11,6.67,,,,,,,,,,,,,,
1799999990732356858,2027-01-15T07:59:50.732356858Z,-1.48,-1.85,-1.48,1.67,2.41,0.93,0.19,0.93,3.89,4.07,4.07,4.07,4.81,6.48,,,,,,,,,,,,,,
1799999990745672437,2027-01-15T07:59:50.745672437Z,-2.22,-1.85,-2.04,-0.19,2.96,1.30,0.74,1.48,2.96,2.96,3.70,5.19,4.63,6.85,,,,,,,,,,,,,,
1799999990758988016,2027-01-15T07:59:50.758988016Z,-1.30,1.48,0.19,0.37,2.59,2.22,1.85,3.70,2.41,1.48,4.81,6.11,5.19,7.78,,,,,,,,,,,,,,
1799999990772303596,2027-01-15T07:59:50.772303596Z,-1.30,1.48,0.19,0.93,-0.74,2.22,1.48,4.81,2.22,2.96,5.00,6.48,6.85,7.41,,,,,,,,,,,,,,
1799999990785619175,2027-01-15T07:59:50.785619175Z,0.00,0.37,-1.11,1.30,-1.85,3.15,2.22,4.63,3.52,4.81,4.07,4.44,5.19,6.85,,,,,,,,,,,,,,
1799999990798934754,2027-01-15T07:59:50.798934754Z,0.56,0.19,-1.11,1.30,-1.67,2.41,2.22,2.96,3.70,5.37,5.00,4.07,5.56,7.96,,,,,,,,,,,,,,
1799999990812250333,2027-01-15T07:59:50.812250333Z,-0.19,0.19,-1.11,1.48,-0.93,1.85,2.04,2.22,4.07,5.00,6.48,4.26,5.74,7.41,,,,,,,,,,,,,,
1799999990825565913,2027-01-15T07:59:50.825565913Z,-2.78,-0.93,0.74,0.93,-0.93,1.67,1.85,2.78,4.07,4.07,5.19,4.44,5.37,6.67,,,,,,,,,,,,,,
1799999990838881492,2027-01-15T07:59:50.838881492Z,-0.19,-0.93,0.37,0.93,-0.56,2.22,2.04,2.59,3.33,3.52,4.26,3.52,5.37,6.85,,,,,,,,,,,,,,
1799999990852197071,2027-01-15T07:59:50.852197071Z,-0.93,-0.74,-0.37,0.93,1.11,2.59,2.59,1.67,3.52,3.52,3.15,4.26,6.85,6.67,,,,,,,,,,,,,,
1799999990865512650,2027-01-15T07:59:50.865512650Z,-0.37,-0.93,0.19,0.93,1.67,1.67,2.04,1.48,3.52,4.07,3.70,4.44,7.41,5.56,,,,,,,,,,,,,,
1799999990878828230,2027-01-15T07:59:50.878828230Z,-0.74,-0.74,0.19,-2.04,4.81,0.19,0.56,1.85,2.41,5.56,5.74,5.37,5.00,4.44,,,,,,,,,,,,,,
1799999990892143809,2027-01-15T07:59:50.892143809Z,0.00,-0.37,0.74,-1.85,1.11,1.67,1.67,2.78,2.96,5.00,6.85,4.63,4.81,5.37,,,,,,,,,,,,,,
1799999990905459388,2027-01-15T07:59:50.905459388Z,-1.11,0.37,0.19,-0.74,-0.93,2.59,2.78,2.04,2.22,2.41,7.59,3.89,4.63,6.11,,,,,,,,,,,,,,
1799999990918774967,2027-01-15T07:59:50.918774967Z,-0.56,-1.48,1.48,0.00,2.96,1.30,2.22,1.11,2.41,3.15,5.56,4.44,7.04,7.96,,,,,,,,,,,,,,
1799999990932090546,2027-01-15T07:59:50.932090546Z,-0.37,-0.74,1.11,1.11,2.41,0.00,1.85,1.67,3.70,3.89,5.56,4.63,7.59,7.04,,,,,,,,,,,,,,
1799999990945406126,2027-01-15T07:59:50.945406126Z,-2.59,-0.56,-0.37,0.37,0.00,-0.74,1.30,4.07,5.56,5.74,4.63,6.85,7.04,7.41,,,,,,,,,,,,,,
1799999990958721705,2027-01-15T07:59:50.958721705Z,-2.59,-0.37,-0.19,1.30,0.19,1.11,1.67,6.48,5.00,4.63,3.89,8.15,6.30,6.67,,,,,,,,,,,,,,
1799999990972037284,2027-01-15T07:59:50.972037284Z,-0.19,0.56,0.19,-0.19,0.56,2.41,1.67,4.07,4.44,5.74,2.96,7.22,6.30,5.56,,,,,,,,,,,,,,
1799999990985352863,2027-01-15T07:59:50.985352863Z,0.93,0.74,2.04,0.19,-0.74,1.85,1.67,2.78,4.63,4.44,5.00,4.81,6.85,5.37,,,,,,,,,,,,,,
1799999990998668443,2027-01-15T07:59:50.998668443Z,-1.11,0.93,3.33,2.04,-0.93,1.48,1.11,3.52,4.63,3.89,6.48,4.44,7.22,5.74,,,,,,,,,,,,,,
1799999991011984022,2027-01-15T07:59:51.011984022Z,-1.30,-0.56,1.67,1.30,2.04,0.93,-0.56,2.41,2.04,4.81,4.44,4.07,7.78,6.48,,,,,,,,,,,,,,
1799999991025299601,2027-01-15T07:59:51.025299601Z,-0.19,-0.74,0.00,-0.37,4.07,1.30,1.11,3.33,2.59,4.63,3.33,3.33,6.11,7.04,,,,,,,,,,,,,,
1799999991038615180,2027-01-15T07:59:51.038615180Z,1.85,-3.70,0.19,-0.93,3.89,1.67,1.48,3.52,3.33,3.52,2.41,2.96,5.93,7.59,,,,,,,,,,,,,,
1799999991051930759,2027-01-15T07:59:51.051930759Z,1.30,-0.19,0.56,0.37,-0.93,2.22,2.04,3.33,1.67,5.19,2.22,5.56,7.41,6.48,,,,,,,,,,,,,,
1799999991065246339,2027-01-15T07:59:51.065246339Z,0.19,0.37,0.00,0.19,-0.93,1.30,1.30,2.96,3.15,5.19,3.33,6.11,6.67,6.48,,,,,,,,,,,,,,
1799999991078561918,2027-01-15T07:59:51.078561918Z,-2.41,0.00,1.11,0.37,-1.67,0.37,1.85,1.67,3.70,3.89,2.59,7.22,5.56,6.85,,,,,,,,,,,,,,
1799999991091877497,2027-01-15T07:59:51.091877497Z,-0.74,-2.96,1.30,0.19,-0.19,2.22,2.41,0.56,4.07,3.33,3.52,7.22,5.56,6.11,,,,,,,,,,,,,,
1799999991105193076,2027-01-15T07:59:51.105193076Z,-2.22,-2.22,0.74,-0.19,1.30,3.15,2.41,2.41,3.15,4.07,4.26,5.00,5.19,6.30,,,,,,,,,,,,,,
1799999991118508656,2027-01-15T07:59:51.118508656Z,0.74,0.19,-1.48,0.93,1.11,3.70,2.41,2.41,3.89,5.19,4.07,5.37,5.93,6.85,,,,,,,,,,,,,,
1799999991131824235,2027-01-15T07:59:51.131824235Z,1.30,-0.19,-2.41,1.48,1.11,2.96,2.41,2.78,4.07,5.56,3.52,6.11,5.19,7.96,,,,,,,,,,,,,,
1799999991145139814,2027-01-15T07:59:51.145139814Z,0.00,-1.30,-1.85,-0.19,2.78,1.30,1.48,2.78,3.52,4.81,4.81,6.11,4.63,7.78,,,,,,,,,,,,,,
1799999991158455393,2027-01-15T07:59:51.158455393Z,1.30,0.19,-1.30,-0.56,4.07,1.48,1.67,2.78,3.89,3.33,5.56,5.74,5.37,8.15,,,,,,,,,,,,,,
1799999991171770973,2027-01-15T07:59:51.171770973Z,-1.67,-0.19,-1.11,0.19,3.15,1.67,2.04,4.44,3.70,1.85,5.00,5.37,5.74,8.33,,,,,,,,,,,,,,
1799999991185086552,2027-01-15T07:59:51.185086552Z,-1.67,-0.37,-0.19,2.41,1.48,0.56,2.22,3.70,2.96,4.26,6.30,5.74,4.07,6.85,,,,,,,,,,,,,,
1799999991198402131,2027-01-15T07:59:51.198402131Z,0.00,0.74,-1.67,2.22,0.19,0.93,2.04,2.22,1.85,4.63,7.04,4.63,4.81,6.85,,,,,,,,,,,,,,
1799999991211717710,2027-01-15T07:59:51.211717710Z,-1.30,-1.48,-1.11,1.11,2.78,1.11,2.59,2.22,2.59,4.26,7.78,4.63,5.56,8.33,,,,,,,,,,,,,,
1799999991225033289,2027-01-15T07:59:51.225033289Z,-0.37,-0.56,0.37,0.93,3.70,0.93,4.44,4.44,4.44,4.26,5.74,5.00,5.00,8.70,,,,,,,,,,,,,,
1799999991238348869,2027-01-15T07:59:51.238348869Z,-0.74,2.22,-1.85,0.56,2.04,0.93,3.15,6.67,3.15,4.63,4.63,6.48,6.30,6.48,,,,,,,,,,,,,,
1799999991251664448,2027-01-15T07:59:51.251664448Z,-1.11,1.30,-1.48,0.00,-0.37,0.37,2.78,4.81,3.89,5.00,5.37,6.11,5.74,5.56,,,,,,,,,,,,,,
1799999991264980027,2027-01-15T07:59:51.264980027Z,-1.11,-0.93,-1.30,0.00,-0.74,0.00,3.15,0.93,2.41,4.44,4.81,5.74,4.81,4.81,,,,,,,,,,,,,,
1799999991278295606,2027-01-15T07:59:51.278295606Z,0.56,-0.56,-0.93,0.74,0.00,2.41,3.52,1.67,1.30,2.96,5.74,5.93,6.48,5.56,,,,,,,,,,,,,,
1799999991291611186,2027-01-15T07:59:51.291611186Z,0.93,-0.74,-1.85,0.19,1.11,2.22,3.89,2.78,2.22,1.48,5.19,5.74,7.04,6.67,,,,,,,,,,,,,,
1799999991304926765,2027-01-15T07:59:51.304926765Z,-0.37,0.93,-1.11,0.00,1.30,1.67,3.33,2.41,2.59,2.22,4.63,4.26,6.11,6.48,,,,,,,,,,,,,,
1799999991318242344,2027-01-15T07:59:51.318242344Z,0.00,1.48,0.19,0.74,2.78,0.93,3.89,1.30,2.04,3.52,4.26,4.63,5.56,6.67,,,,,,,,,,,,,,
1799999991331557923,2027-01-15T07:59:51.331557923Z,0.37,-2.41,0.74,-0.19,3.33,0.56,3.15,0.93,2.78,4.26,5.19,6.11,6.48,4.07,,,,,,,,,,,,,,
1799999991344873502,2027-01-15T07:59:51.344873502Z,1.48,-0.56,0.00,0.74,3.70,1.30,2.59,2.22,4.26,4.81,4.26,6.11,6.85,5.00,,,,,,,,,,,,,,
1799999991358189082,2027-01-15T07:59:51.358189082Z,-2.96,-1.48,-2.59,1.30,2.22,2.04,2.59,2.04,3.89,4.63,4.26,5.74,7.04,5.74,,,,,,,,,,,,,,
1799999991371504661,2027-01-15T07:59:51.371504661Z,-0.37,-2.96,-2.78,2.41,1.85,2.22,1.67,2.78,3.89,4.81,4.07,5.74,7.04,5.93,,,,,,,,,,,,,,
1799999991384820240,2027-01-15T07:59:51.384820240Z,-0.19,-1.48,-1.30,0.93,2.41,0.93,1.85,3.52,4.81,3.89,3.89,5.56,6.67,5.56,,,,,,,,,,,,,,
1799999991398135819,2027-01-15T07:59:51.398135819Z,0.19,-0.93,1.48,-0.19,1.11,0.56,1.85,2.96,5.93,3.33,4.44,5.19,6.67,5.19,,,,,,,,,,,,,,
1799999991411451399,2027-01-15T07:59:51.411451399Z,-2.04,0.00,1.30,1.85,0.19,1.67,1.67,5.00,3.52,2.04,4.81,4.81,6.48,5.00,,,,,,,,,,,,,,
1799999991424766978,2027-01-15T07:59:51.424766978Z,-1.11,-0.19,0.93,1.30,0.93,2.41,1.85,4.26,4.07,3.15,3.52,5.19,6.85,7.22,,,,,,,,,,,,,,
1799999991438082557,2027-01-15T07:59:51.438082557Z,0.37,-0.37,-1.48,0.74,-0.19,1.48,0.93,1.11,4.63,4.26,5.37,3.89,6.48,7.78,,,,,,,,,,,,,,
1799999991451398136,2027-01-15T07:59:51.451398136Z,1.30,-1.30,-0.37,-0.37,0.00,0.93,1.67,1.30,5.00,3.52,6.30,3.15,4.44,7.41,,,,,,,,,,,,,,
1799999991464713716,2027-01-15T07:59:51.464713716Z,-1.48,0.19,1.85,-0.93,-0.37,1.85,3.15,3.70,4.81,4.44,5.56,4.26,4.07,7.41,,,,,,,,,,,,,,
1799999991478029295,2027-01-15T07:59:51.478029295Z,-0.93,1.30,1.11,0.00,0.93,1.11,2.59,4.26,3.70,5.00,4.44,5.93,4.26,7.78,,,,,,,,,,,,,,
1799999991491344874,2027-01-15T07:59:51.491344874Z,1.11,-1.30,-0.56,-1.11,0.74,1.11,2.22,3.89,4.07,4.26,5.37,5.37,5.56,5.74,,,,,,,,,,,,,,
1799999991504660453,2027-01-15T07:59:51.504660453Z,0.74,-1.11,-0.74,-0.74,-0.74,2.22,1.67,4.81,5.00,5.37,5.37,5.56,7.22,4.44,,,,,,,,,,,,,,
1799999991517976032,2027-01-15T07:59:51.517976032Z,0.93,-0.19,1.30,-0.74,-0.56,1.48,1.48,3.70,3.52,5.19,5.00,5.37,7.22,4.63,,,,,,,,,,,,,,
1799999991531291612,2027-01-15T07:59:51.531291612Z,-2.78,-0.37,2.22,-0.19,-1.11,0.93,2.22,3.70,2.04,3.89,4.26,4.81,6.30,4.81,,,,,,,,,,,,,,
1799999991544607191,2027-01-15T07:59:51.544607191Z,-3.70,-2.04,1.48,0.74,-1.30,2.41,2.78,4.44,2.04,3.33,2.04,5.74,6.11,4.63,,,,,,,,,,,,,,
1799999991557922770,2027-01-15T07:59:51.557922770Z,-0.37,-2.78,-1.85,0.19,-0.74,3.89,2.78,3.15,1.48,3.70,3.15,6.48,4.44,5.74,,,,,,,,,,,,,,
1799999991571238349,2027-01-15T07:59:51.571238349Z,-1.30,0.37,-2.59,-0.93,0.19,2.59,3.52,3.33,0.93,4.44,4.26,5.19,3.52,6.67,,,,,,,,,,,,,,
1799999991584553929,2027-01-15T07:59:51.584553929Z,-1.67,-0.37,-2.59,-1.30,-0.37,1.67,4.44,3.70,1.30,4.63,5.37,4.63,4.63,7.78,,,,,,,,,,,,,,
1799999991597869508,2027-01-15T07:59:51.597869508Z,-1.11,0.37,1.48,0.74,1.67,2.41,4.63,2.78,2.96,4.44,4.63,5.56,4.63,7.04,,,,,,,,,,,,,,
1799999991611185087,2027-01-15T07:59:51.611185087Z,0.93,-1.11,1.48,0.56,3.52,3.70,4.07,2.59,3.15,4.44,5.37,6.11,6.11,5.56,,,,,,,,,,,,,,
1799999991624500666,2027-01-15T07:59:51.624500666Z,1.11,1.11,0.93,0.93,4.44,3.52,3.33,3.33,3.70,4.44,5.74,5.74,6.67,5.74,,,,,,,,,,,,,,
1799999991637816246,2027-01-15T07:59:51.637816246Z,-0.37,0.74,2.96,0.19,1.85,2.22,2.41,5.00,2.59,2.59,4.07,6.67,6.67,6.30,,,,,,,,,,,,,,
1799999991651131825,2027-01-15T07:59:51.651131825Z,-0.19,0.19,1.48,-0.19,-0.19,2.41,1.67,4.63,1.67,4.44,3.33,6.11,7.22,5.37,,,,,,,,,,,,,,
1799999991664447404,2027-01-15T07:59:51.664447404Z,-0.93,-1.67,-1.48,0.74,-0.19,0.93,1.48,4.07,2.22,4.81,4.81,4.63,6.85,5.93,,,,,,,,,,,,,,
1799999991677762983,2027-01-15T07:59:51.677762983Z,-2.41,-2.41,-1.85,1.11,-0.37,-1.11,2.04,2.59,2.96,3.33,6.30,3.70,7.41,6.85,,,,,,,,,,,,,,
1799999991691078562,2027-01-15T07:59:51.691078562Z,0.74,-0.74,0.56,0.93,0.74,0.93,2.78,1.11,2.04,3.52,6.85,5.74,6.30,6.48,,,,,,,,,,,,,,
1799999991704394142,2027-01-15T07:59:51.704394142Z,-0.56,0.74,0.56,1.67,0.93,0.19,1.67,-0.19,3.15,3.33,6.11,6.48,5.00,7.22,,,,,,,,,,,,,,
1799999991717709721,2027-01-15T07:59:51.717709721Z,-2.41,-0.37,0.37,2.96,0.74,-0.74,1.67,-0.56,2.59,3.52,5.00,6.11,5.74,6.85,,,,,,,,,,,,,,
1799999991731025300,2027-01-15T07:59:51.731025300Z,-0.37,-0.93,0.19,1.67,1.30,0.37,2.78,1.30,3.52,2.96,5.00,5.19,6.85,5.93,,,,,,,,,,,,,,
1799999991744340879,2027-01-15T07:59:51.744340879Z,0.37,-0.93,1.30,1.30,2.04,1.85,2.22,2.22,3.70,3.70,3.33,5.19,6.85,6.48,,,,,,,,,,,,,,
1799999991757656459,2027-01-15T07:59:51.757656459Z,-1.30,0.00,0.56,1.67,1.30,2.22,2.59,3.33,3.70,4.26,2.78,4.26,5.37,7.04,,,,,,,,,,,,,,
1799999991770972038,2027-01-15T07:59:51.770972038Z,0.74,0.37,-1.67,3.15,0.19,2.22,2.78,2.59,4.26,4.26,2.78,5.56,5.00,6.85,,,,,,,,,,,,,,
1799999991784287617,2027-01-15T07:59:51.784287617Z,-0.56,-0.93,-2.04,1.48,0.74,1.67,3.15,2.22,5.19,3.89,5.19,6.48,6.11,6.48,,,,,,,,,,,,,,
1799999991797603196,2027-01-15T07:59:51.797603196Z,0.93,-1.30,0.74,1.30,2.04,2.41,1.30,2.04,5.19,2.78,5.00,5.93,6.30,5.93,,,,,,,,,,,,,,
1799999991810918775,2027-01-15T07:59:51.810918775Z,0.74,-1.30,1.48,1.67,3.52,2.41,0.37,1.11,5.37,3.15,4.07,5.37,6.11,5.37,,,,,,,,,,,,,,
1799999991824234355,2027-01-15T07:59:51.824234355Z,0.19,0.37,1.48,0.74,2.96,2.41,0.37,4.26,3.89,4.44,4.26,7.04,6.48,5.93,,,,,,,,,,,,,,
1799999991837549934,2027-01-15T07:59:51.837549934Z,1.30,-0.56,-1.30,1.11,2.04,2.41,0.19,3.52,2.96,4.07,4.26,7.04,7.04,7.04,,,,,,,,,,,,,,
1799999991850865513,2027-01-15T07:59:51.850865513Z,-0.74,-0.93,-1.48,1.48,1.11,1.67,0.93,1.85,3.89,4.26,4.44,5.74,6.48,7.41,,,,,,,,,,,,,,
1799999991864181092,2027-01-15T07:59:51.864181092Z,1.48,-0.19,-0.74,0.74,-0.74,2.04,1.85,2.41,3.15,5.19,5.00,3.89,5.93,6.85,,,,,,,,,,,,,,
1799999991877496672,2027-01-15T07:59:51.877496672Z,2.78,0.56,1.11,-0.74,0.93,2.41,2.22,2.96,3.89,5.00,4.63,4.63,5.37,7.41,,,,,,,,,,,,,,
1799999991890812251,2027-01-15T07:59:51.890812251Z,-0.74,0.56,1.48,-1.48,2.04,2.04,0.93,2.41,5.37,5.00,5.00,4.81,5.56,7.41,,,,,,,,,,,,,,
1799999991904127830,2027-01-15T07:59:51.904127830Z,-1.30,-0.19,0.37,0.00,4.07,1.67,0.37,1.67,3.70,4.63,5.56,4.26,6.11,8.15,,,,,,,,,,,,,,
1799999991917443409,2027-01-15T07:59:51.917443409Z,-0.93,-0.93,-0.56,-0.74,1.30,2.59,1.85,2.04,3.15,3.70,5.00,4.07,6.11,6.30,,,,,,,,,,,,,,
1799999991930758989,2027-01-15T07:59:51.930758989Z,-1.11,-0.93,-0.56,-0.74,1.30,2.59,2.78,3.33,3.70,2.59,5.56,4.81,5.93,5.56,,,,,,,,,,,,,,
1799999991944074568,2027-01-15T07:59:51.944074568Z,-3.52,0.00,0.56,-0.56,1.67,2.22,2.41,4.44,3.52,0.74,5.37,5.37,5.93,6.67,,,,,,,,,,,,,,
1799999991957390147,2027-01-15T07:59:51.957390147Z,1.67,-0.56,0.74,1.30,1.85,2.22,2.78,2.96,3.89,2.59,2.96,6.30,4.44,7.22,,,,,,,,,,,,,,
1799999991970705726,2027-01-15T07:59:51.970705726Z,0.93,-0.37,-0.37,0.56,-0.19,2.22,2.96,2.78,2.96,4.07,2.78,4.81,5.19,6.67,,,,,,,,,,,,,,
1799999991984021305,2027-01-15T07:59:51.984021305Z,1.85,0.19,-2.59,-0.19,-1.11,0.74,4.44,3.70,3.15,3.52,3.15,6.11,6.67,6.11,,,,,,,,,,,,,,
1799999991997336885,2027-01-15T07:59:51.997336885Z,-6.48,0.19,-2.96,0.56,1.48,0.37,5.74,5.19,4.26,2.59,3.52,6.85,7.04,6.85,,,,,,,,,,,,,,
1799999992010652464,2027-01-15T07:59:52.010652464Z,0.56,0.19,-1.85,0.37,2.59,0.93,5.00,6.30,4.44,4.07,4.63,5.93,6.85,7.41,,,,,,,,,,,,,,
1799999992023968043,2027-01-15T07:59:52.023968043Z,0.00,-0.56,-0.93,-0.93,0.74,1.85,2.22,3.89,4.26,4.26,7.41,3.33,6.11,7.59,,,,,,,,,,,,,,
1799999992037283622,2027-01-15T07:59:52.037283622Z,2.22,0.37,0.37,0.37,0.74,2.96,1.30,0.19,4.63,2.41,8.15,4.44,6.11,7.59,,,,,,,,,,,,,,
1799999992050599202,2027-01-15T07:59:52.050599202Z,-0.93,-1.11,-1.67,0.00,0.56,5.19,3.33,3.15,3.33,1.48,5.19,7.96,6.11,9.07,,,,,,,,,,,,,,
1799999992063914781,2027-01-15T07:59:52.063914781Z,2.41,-0.56,0.00,0.00,1.30,3.33,2.41,4.26,3.89,2.78,3.15,7.78,5.74,9.26,,,,,,,,,,,,,,
1799999992077230360,2027-01-15T07:59:52.077230360Z,0.19,-0.19,1.48,1.67,1.30,0.74,-0.56,5.00,4.44,5.37,3.15,5.00,5.56,7.96,,,,,,,,,,,,,,
1799999992090545939,2027-01-15T07:59:52.090545939Z,-0.19,-0.93,0.00,-0.93,1.30,-1.11,0.19,1.11,3.89,5.56,6.30,2.96,5.56,6.11,,,,,,,,,,,,,,
1799999992103861518,2027-01-15T07:59:52.103861518Z,-1.48,-0.19,1.11,-1.85,2.04,1.11,2.04,0.56,3.89,5.56,5.93,3.52,5.74,5.37,,,,,,,,,,,,,,
1799999992117177098,2027-01-15T07:59:52.117177098Z,-2.04,-1.67,0.93,-0.37,2.78,3.15,3.70,2.78,3.52,5.19,2.22,5.00,5.37,5.74,,,,,,,,,,,,,,
1799999992130492677,2027-01-15T07:59:52.130492677Z,-0.19,-1.85,-0.93,-0.37,2.41,2.96,2.96,5.19,2.22,5.00,1.48,5.00,5.00,6.11,,,,,,,,,,,,,,
1799999992143808256,2027-01-15T07:59:52.143808256Z,-0.37,-1.11,0.56,-0.37,-0.93,2.59,0.37,3.52,2.59,5.00,5.19,6.11,6.48,6.48,,,,,,,,,,,,,,
1799999992157123835,2027-01-15T07:59:52.157123835Z,0.93,0.93,0.37,-0.74,1.30,2.59,0.74,2.41,2.04,3.52,6.85,7.22,6.67,6.11,,,,,,,,,,,,,,
1799999992170439415,2027-01-15T07:59:52.170439415Z,-0.56,-2.41,0.19,-0.74,4.07,3.15,2.04,4.63,1.67,1.85,5.37,6.67,6.85,6.11,,,,,,,,,,,,,,
1799999992183754994,2027-01-15T07:59:52.183754994Z,-1.85,-1.30,-0.56,0.19,0.74,4.81,3.70,7.78,4.26,4.44,5.37,5.19,6.30,5.93,,,,,,,,,,,,,,
1799999992197070573,2027-01-15T07:59:52.197070573Z,-1.11,-0.93,-0.37,2.78,-0.74,2.96,2.96,4.07,5.37,3.15,5.74,5.37,5.19,5.56,,,,,,,,,,,,,,
1799999992210386152,2027-01-15T07:59:52.210386152Z,0.00,0.19,0.00,1.48,0.74,0.56,2.96,2.41,3.52,2.96,6.30,6.11,6.30,5.56,,,,,,,,,,,,,,
1799999992223701732,2027-01-15T07:59:52.223701732Z,-0.56,0.37,0.19,-0.74,0.93,-0.56,3.15,-0.19,2.22,4.44,6.11,6.30,6.67,6.30,,,,,,,,,,,,,,
1799999992237017311,2027-01-15T07:59:52.237017311Z,-1.30,0.00,-0.56,-0.19,3.70,-1.30,2.41,3.52,3.15,3.52,5.56,5.00,4.81,6.67,,,,,,,,,,,,,,
1799999992250332890,2027-01-15T07:59:52.250332890Z,2.22,-0.19,-0.19,2.22,3.52,0.00,1.48,3.52,4.81,3.70,3.52,4.63,5.00,6.11,,,,,,,,,,,,,,
1799999992263648469,2027-01-15T07:59:52.263648469Z,0.19,-0.93,-0.19,2.59,2.96,1.85,2.41,2.22,4.26,4.44,3.70,5.37,6.67,6.11,,,,,,,,,,,,,,
1799999992276964048,2027-01-15T07:59:52.276964048Z,0.56,0.37,-2.04,1.30,2.04,1.48,2.04,-0.56,4.81,2.78,5.93,5.00,7.78,5.74,,,,,,,,,,,,,,
1799999992290279628,2027-01-15T07:59:52.290279628Z,1.11,1.67,-2.04,1.11,2.04,0.93,1.48,1.85,4.26,5.00,5.00,4.26,6.85,6.85,,,,,,,,,,,,,,
1799999992303595207,2027-01-15T07:59:52.303595207Z,-2.96,-2.04,-1.48,0.74,3.33,0.74,0.37,4.63,3.89,7.04,3.15,4.63,5.37,8.52,,,,,,,,,,,,,,
1799999992316910786,2027-01-15T07:59:52.316910786Z,0.37,0.56,-0.37,1.11,0.19,0.56,2.22,5.19,3.52,4.26,3.33,4.44,5.37,7.78,,,,,,,,,,,,,,
1799999992330226365,2027-01-15T07:59:52.330226365Z,0.19,-2.22,-0.37,0.56,-2.78,1.11,2.78,3.52,3.15,5.19,4.63,4.63,5.37,6.48,,,,,,,,,,,,,,
1799999992343541945,2027-01-15T07:59:52.343541945Z,0.19,-2.22,-0.37,0.19,0.19,0.56,3.15,1.48,3.33,5.56,4.81,4.81,6.11,6.67,,,,,,,,,,,,,,
1799999992356857524,2027-01-15T07:59:52.356857524Z,-1.11,-2.22,0.00,0.00,1.30,0.56,2.78,2.96,3.70,4.81,4.63,4.81,6.67,6.67,,,,,,,,,,,,,,
1799999992370173103,2027-01-15T07:59:52.370173103Z,1.48,-1.67,0.37,1.48,1.48,0.93,1.85,3.52,4.44,4.81,3.70,5.37,5.74,6.48,,,,,,,,,,,,,,
1799999992383488682,2027-01-15T07:59:52.383488682Z,0.00,-1.11,0.56,1.11,0.00,1.11,2.41,3.52,4.63,3.52,3.52,5.19,5.93,6.30,,,,,,,,,,,,,,
1799999992396804261,2027-01-15T07:59:52.396804261Z,0.56,-1.67,0.74,-0.19,0.93,2.22,3.15,2.59,4.44,4.07,4.26,5.37,6.48,6.11,,,,,,,,,,,,,,
1799999992410119841,2027-01-15T07:59:52.410119841Z,1.48,-1.11,1.85,-1.11,0.74,1.85,3.15,2.04,5.00,3.52,5.56,5.00,6.11,5.93,,,,,,,,,,,,,,
1799999992423435420,2027-01-15T07:59:52.423435420Z,-0.56,0.56,1.48,-1.67,1.11,1.30,1.85,2.59,5.00,5.37,4.26,4.44,5.56,6.48,,,,,,,,,,,,,,
1799999992436750999,2027-01-15T07:59:52.436750999Z,-0.37,0.74,-0.74,0.74,3.89,1.11,2.96,1.30,2.96,4.81,3.15,4.63,5.56,7.04,,,,,,,,,,,,,,
1799999992450066578,2027-01-15T07:59:52.450066578Z,1.30,1.11,-1.11,1.30,4.07,1.67,4.07,0.93,2.41,2.41,4.07,5.56,6.11,6.30,,,,,,,,,,,,,,
1799999992463382158,2027-01-15T07:59:52.463382158Z,0.74,-1.30,0.74,1.30,-0.19,2.22,4.44,2.04,2.78,4.44,5.74,5.56,5.56,5.74,,,,,,,,,,,,,,
1799999992476697737,2027-01-15T07:59:52.476697737Z,1.67,-0.56,0.00,0.56,-1.11,1.85,2.59,3.52,3.52,4.81,5.37,4.07,6.30,6.11,,,,,,,,,,,,,,
1799999992490013316,2027-01-15T07:59:52.490013316Z,-0.56,-1.48,-1.11,1.67,0.19,1.30,3.15,4.26,3.15,4.44,4.26,3.15,7.04,7.59,,,,,,,,,,,,,,
1799999992503328895,2027-01-15T07:59:52.503328895Z,-0.19,-2.41,-1.48,0.93,3.52,2.96,3.15,2.78,3.52,5.37,3.33,3.52,6.48,7.04,,,,,,,,,,,,,,
1799999992516644475,2027-01-15T07:59:52.516644475Z,-0.93,-1.11,-0.37,-0.37,1.11,2.96,3.33,1.85,1.85,5.74,4.81,4.26,5.74,6.85,,,,,,,,,,,,,,
1799999992529960054,2027-01-15T07:59:52.529960054Z,0.37,-1.11,1.30,-1.11,-1.85,2.41,2.96,3.52,1.30,5.93,6.30,4.07,4.63,6.48,,,,,,,,,,,,,,
1799999992543275633,2027-01-15T07:59:52.543275633Z,-1.30,0.19,-1.11,0.00,-0.93,0.00,0.19,4.07,3.33,2.96,5.93,4.26,5.37,6.11,,,,,,,,,,,,,,
1799999992556591212,2027-01-15T07:59:52.556591212Z,-0.19,0.00,-0.37,1.11,0.74,1.48,0.74,3.15,2.59,1.67,4.81,4.63,5.00,5.56,,,,,,,,,,,,,,
1799999992569906791,2027-01-15T07:59:52.569906791Z,-1.48,0.93,-0.19,0.37,0.93,2.04,1.85,1.85,3.33,3.89,5.19,5.00,5.93,5.93,,,,,,,,,,,,,,
1799999992583222371,2027-01-15T07:59:52.583222371Z,-0.37,0.74,0.56,-0.19,1.30,2.96,3.70,2.04,6.30,3.89,7.22,6.11,6.48,7.04,,,,,,,,,,,,,,
1799999992596537950,2027-01-15T07:59:52.596537950Z,-2.41,-0.19,1.67,0.37,-0.37,3.70,3.33,1.85,3.15,5.56,4.07,6.11,3.70,8.33,,,,,,,,,,,,,,
1799999992609853529,2027-01-15T07:59:52.609853529Z,-0.37,-2.59,1.11,0.19,-0.74,1.85,3.33,2.78,2.22,6.11,3.33,5.93,5.00,7.41,,,,,,,,,,,,,,
1799999992623169108,2027-01-15T07:59:52.623169108Z,-0.93,-2.96,0.93,0.19,-2.22,0.00,3.70,2.78,1.11,5.93,2.22,7.04,7.04,5.93,,,,,,,,,,,,,,
1799999992636484688,2027-01-15T07:59:52.636484688Z,-0.74,-1.48,0.37,-0.19,0.00,0.56,3.52,0.93,2.41,4.07,3.52,7.78,5.56,6.48,,,,,,,,,,,,,,
1799999992649800267,2027-01-15T07:59:52.649800267Z,-2.78,-1.48,-0.19,1.48,0.93,1.67,2.04,1.67,3.15,3.33,4.26,6.48,5.74,6.48,,,,,,,,,,,,,,
1799999992663115846,2027-01-15T07:59:52.663115846Z,0.00,0.37,-0.19,1.85,2.04,2.04,1.30,3.15,3.33,3.52,5.93,5.00,5.93,6.85,,,,,,,,,,,,,,
1799999992676431425,2027-01-15T07:59:52.676431425Z,0.37,-1.30,1.48,0.00,1.30,0.93,1.30,4.26,3.70,4.26,5.74,4.63,6.11,7.22,,,,,,,,,,,,,,
1799999992689747004,2027-01-15T07:59:52.689747004Z,-2.22,-2.04,1.48,-1.30,0.93,2.41,3.15,2.78,3.15,4.26,6.30,5.19,7.04,6.11,,,,,,,,,,,,,,
1799999992703062584,2027-01-15T07:59:52.703062584Z,-2.96,1.11,1.85,0.74,0.93,1.85,3.33,1.30,4.44,5.74,6.30,5.19,5.93,8.33,,,,,,,,,,,,,,
1799999992716378163,2027-01-15T07:59:52.716378163Z,-0.93,-0.19,0.93,1.85,0.74,1.30,2.59,2.04,4.07,5.56,6.11,5.37,5.37,8.70,,,,,,,,,,,,,,
1799999992729693742,2027-01-15T07:59:52.729693742Z,-0.74,-0.93,-2.41,3.15,0.74,2.59,1.85,4.63,3.89,4.63,3.89,7.59,6.30,5.00,,,,,,,,,,,,,,
1799999992743009321,2027-01-15T07:59:52.743009321Z,1.30,0.00,-1.48,-1.11,0.19,2.96,2.41,3.52,4.44,3.70,3.70,5.74,5.93,3.89,,,,,,,,,,,,,,
1799999992756324901,2027-01-15T07:59:52.756324901Z,0.00,-0.37,-0.56,-2.22,0.56,3.33,2.41,3.15,5.74,3.52,5.19,5.56,5.56,5.74,,,,,,,,,,,,,,
1799999992769640480,2027-01-15T07:59:52.769640480Z,-3.52,-0.93,0.00,-0.19,3.15,3.52,2.41,5.19,3.70,3.89,3.52,7.41,7.22,6.85,,,,,,,,,,,,,,
1799999992782956059,2027-01-15T07:59:52.782956059Z,-1.30,-0.37,-1.30,1.30,3.89,3.15,2.22,5.37,4.26,4.26,4.63,6.67,7.22,6.48,,,,,,,,,,,,,,
1799999992796271638,2027-01-15T07:59:52.796271638Z,-0.19,-0.56,-1.67,1.48,2.78,2.22,1.85,5.93,3.89,4.26,5.00,4.81,6.85,6.11,,,,,,,,,,,,,,
1799999992809587218,2027-01-15T07:59:52.809587218Z,0.00,-0.37,-0.93,0.56,2.41,1.48,2.78,4.44,2.22,3.15,5.74,4.81,6.48,6.11,,,,,,,,,,,,,,
1799999992822902797,2027-01-15T07:59:52.822902797Z,0.00,-0.56,0.93,-1.11,2.04,0.93,3.52,3.89,1.67,4.07,5.56,5.19,5.93,6.30,,,,,,,,,,,,,,
1799999992836218376,2027-01-15T07:59:52.836218376Z,-1.11,-0.19,0.56,1.30,1.48,0.37,2.41,2.59,2.59,2.78,4.81,5.56,5.19,6.67,,,,,,,,,,,,,,
1799999992849533955,2027-01-15T07:59:52.849533955Z,-0.37,-0.56,-0.93,1.85,0.56,-0.74,2.04,1.67,3.89,2.41,3.89,5.00,4.81,6.11,,,,,,,,,,,,,,
1799999992862849534,2027-01-15T07:59:52.862849534Z,-2.04,-0.74,-0.74,1.30,0.74,-0.37,2.78,2.96,3.33,4.07,4.81,5.93,6.30,7.22,,,,,,,,,,,,,,
1799999992876165114,2027-01-15T07:59:52.876165114Z,0.00,0.74,-2.22,0.00,-1.30,-0.37,2.41,2.96,2.59,3.52,4.81,6.48,6.48,7.41,,,,,,,,,,,,,,
1799999992889480693,2027-01-15T07:59:52.889480693Z,1.11,-0.19,-1.85,0.56,-1.67,-0.37,1.85,2.78,2.59,3.33,3.52,6.48,6.48,6.11,,,,,,,,,,,,,,
1799999992902796272,2027-01-15T07:59:52.902796272Z,-1.67,-1.30,1.85,2.96,1.48,1.30,2.22,5.37,2.22,3.89,3.33,6.11,6.30,6.30,,,,,,,,,,,,,,
1799999992916111851,2027-01-15T07:59:52.916111851Z,0.74,-1.30,1.11,0.93,2.22,1.85,2.22,4.44,2.78,3.70,2.41,5.56,5.56,7.78,,,,,,,,,,,,,,
1799999992929427431,2027-01-15T07:59:52.929427431Z,-0.56,0.56,2.04,0.00,-1.48,1.67,2.04,1.67,4.07,3.52,2.22,4.63,5.37,8.70,,,,,,,,,,,,,,
1799999992942743010,2027-01-15T07:59:52.942743010Z,0.19,0.74,2.41,-0.93,-1.85,0.93,1.48,2.04,5.00,2.96,2.59,4.07,5.93,8.33,,,,,,,,,,,,,,
1799999992956058589,2027-01-15T07:59:52.956058589Z,0.00,0.74,0.93,1.11,0.74,1.30,1.48,-0.19,5.19,3.89,2.78,3.70,6.30,6.30,,,,,,,,,,,,,,
1799999992969374168,2027-01-15T07:59:52.969374168Z,-1.11,-0.74,-1.30,1.30,2.96,2.41,2.59,-0.37,3.52,3.52,3.89,4.07,6.67,4.81,,,,,,,,,,,,,,
1799999992982689748,2027-01-15T07:59:52.982689748Z,1.48,-1.30,-2.41,0.74,2.96,2.04,1.85,1.11,2.78,2.96,6.11,3.89,6.30,4.81,,,,,,,,,,,,,,
1799999992996005327,2027-01-15T07:59:52.996005327Z,-2.04,-0.37,-2.22,-0.37,2.04,3.33,2.22,3.52,4.63,2.22,7.41,4.44,6.30,6.48,,,,,,,,,,,,,,
1799999993009320906,2027-01-15T07:59:53.009320906Z,-1.67,0.37,-0.19,0.93,2.41,3.15,2.22,4.26,4.81,3.52,8.33,4.81,5.74,6.30,,,,,,,,,,,,,,
1799999993022636485,2027-01-15T07:59:53.022636485Z,-2.41,-1.67,-0.56,2.96,2.41,2.04,1.48,4.63,3.89,4.81,5.74,4.81,5.56,5.56,,,,,,,,,,,,,,
1799999993035952064,2027-01-15T07:59:53.035952064Z,0.74,-0.74,-1.85,1.85,1.11,1.48,0.56,3.15,3.70,5.74,3.52,4.63,6.11,5.93,,,,,,,,,,,,,,
1799999993049267644,2027-01-15T07:59:53.049267644Z,-0.93,-2.22,-2.04,-0.74,-0.19,0.37,0.93,3.89,5.00,5.00,6.48,4.81,7.22,5.00,,,,,,,,,,,,,,
1799999993062583223,2027-01-15T07:59:53.062583223Z,-0.56,0.00,0.19,-0.37,1.30,0.93,0.37,4.63,3.52,4.44,7.41,6.30,6.85,7.41,,,,,,,,,,,,,,
1799999993075898802,2027-01-15T07:59:53.075898802Z,0.19,0.56,1.85,0.74,3.15,1.48,0.19,5.00,2.04,4.07,6.30,6.85,5.93,8.52,,,,,,,,,,,,,,
1799999993089214381,2027-01-15T07:59:53.089214381Z,-0.93,-2.22,1.85,-1.11,1.67,0.74,2.22,2.59,2.04,4.44,6.11,6.11,5.93,6.67,,,,,,,,,,,,,,
1799999993102529961,2027-01-15T07:59:53.102529961Z,0.56,-2.59,1.30,-0.93,0.37,0.93,2.96,2.04,2.78,5.19,5.93,5.19,5.56,6.48,,,,,,,,,,,,,,
1799999993115845540,2027-01-15T07:59:53.115845540Z,-1.30,-0.74,-0.56,0.56,-0.56,1.30,4.81,3.15,5.00,5.00,5.37,5.19,5.56,6.48,,,,,,,,,,,,,,
1799999993129161119,2027-01-15T07:59:53.129161119Z,-0.37,0.00,-2.78,-0.93,0.56,3.70,3.52,3.15,3.15,5.37,4.26,5.00,4.44,6.48,,,,,,,,,,,,,,
1799999993142476698,2027-01-15T07:59:53.142476698Z,-0.74,0.56,-0.93,-0.19,-0.19,2.96,2.59,2.78,2.96,4.63,4.26,4.63,3.89,6.11,,,,,,,,,,,,,,
1799999993155792277,2027-01-15T07:59:53.155792277Z,-0.56,0.00,-0.37,0.19,1.67,1.48,0.19,0.93,3.15,4.26,5.00,4.26,6.30,6.48,,,,,,,,,,,,,,
1799999993169107857,2027-01-15T07:59:53.169107857Z,1.11,-0.74,-1.30,-0.56,2.41,2.22,-0.37,1.30,2.59,5.00,5.56,4.81,6.67,7.22,,,,,,,,,,,,,,
1799999993182423436,2027-01-15T07:59:53.182423436Z,-2.04,0.74,0.56,-0.56,0.37,2.59,-0.56,4.07,2.59,5.56,4.81,6.85,7.04,7.59,,,,,,,,,,,,,,
1799999993195739015,2027-01-15T07:59:53.195739015Z,-1.11,0.56,-0.19,0.00,-0.93,1.48,1.48,4.07,2.22,4.81,5.19,6.67,5.56,7.04,,,,,,,,,,,,,,
1799999993209054594,2027-01-15T07:59:53.209054594Z,0.37,0.37,-0.93,0.56,0.56,0.74,2.41,3.33,2.41,4.07,5.37,6.30,6.48,5.19,,,,,,,,,,,,,,
1799999993222370174,2027-01-15T07:59:53.222370174Z,-0.93,-2.41,-1.85,-0.19,-0.19,-0.74,-0.19,2.22,3.89,4.07,3.15,5.93,5.19,7.04,,,,,,,,,,,,,,
1799999993235685753,2027-01-15T07:59:53.235685753Z,0.93,-0.37,0.00,1.48,0.19,0.37,-0.19,2.96,3.15,3.70,2.96,6.30,5.00,5.00,,,,,,,,,,,,,,
1799999993249001332,2027-01-15T07:59:53.249001332Z,1.85,-0.19,-0.74,2.41,0.19,1.85,3.15,4.63,1.85,3.89,3.52,5.74,5.93,4.44,,,,,,,,,,,,,,
1799999993262316911,2027-01-15T07:59:53.262316911Z,-0.19,0.19,-2.22,1.30,-1.11,2.41,4.81,5.00,2.78,3.70,3.15,6.67,6.11,6.85,,,,,,,,,,,,,,
1799999993275632491,2027-01-15T07:59:53.275632491Z,-0.37,1.30,-1.30,0.74,0.56,1.67,3.33,3.52,4.44,2.22,4.07,6.85,6.30,5.93,,,,,,,,,,,,,,
1799999993288948070,2027-01-15T07:59:53.288948070Z,-2.41,-0.19,0.19,0.93,2.41,2.78,2.22,2.59,4.26,2.78,4.81,6.48,6.67,6.48,,,,,,,,,,,,,,
1799999993302263649,2027-01-15T07:59:53.302263649Z,-2.22,-1.11,1.48,0.93,2.78,3.33,0.00,3.15,2.96,4.07,5.19,6.11,7.59,6.85,,,,,,,,,,,,,,
1799999993315579228,2027-01-15T07:59:53.315579228Z,-0.56,-0.93,-0.19,0.93,0.74,2.41,1.30,2.22,2.59,4.63,4.63,5.00,6.30,6.48,,,,,,,,,,,,,,
1799999993328894807,2027-01-15T07:59:53.328894807Z,0.00,0.93,-0.56,1.67,-0.74,2.41,2.96,1.67,4.44,5.19,5.74,5.37,5.56,5.37,,,,,,,,,,,,,,
1799999993342210387,2027-01-15T07:59:53.342210387Z,0.37,-1.85,0.37,0.74,1.11,2.96,3.52,2.59,5.19,3.89,6.30,6.48,5.37,5.74,,,,,,,,,,,,,,
1799999993355525966,2027-01-15T07:59:53.355525966Z,0.00,-1.85,-0.74,0.74,-1.11,0.74,3.89,4.26,3.89,2.96,4.81,7.22,5.74,7.04,,,,,,,,,,,,,,
1799999993368841545,2027-01-15T07:59:53.368841545Z,-0.93,-2.04,0.00,0.19,0.93,0.93,2.78,2.96,2.96,3.52,5.00,5.74,6.67,6.11,,,,,,,,,,,,,,
1799999993382157124,2027-01-15T07:59:53.382157124Z,-0.56,-0.37,1.30,-0.19,1.67,2.41,3.33,2.22,2.96,4.26,5.37,5.74,6.67,7.22,,,,,,,,,,,,,,
1799999993395472704,2027-01-15T07:59:53.395472704Z,0.56,0.19,1.30,0.19,3.52,4.07,2.41,2.04,2.78,4.44,5.00,6.11,6.30,8.33,,,,,,,,,,,,,,
1799999993408788283,2027-01-15T07:59:53.408788283Z,1.48,0.19,-0.74,0.74,1.67,0.93,0.37,1.67,3.52,5.00,4.63,4.07,5.56,6.11,,,,,,,,,,,,,,
1799999993422103862,2027-01-15T07:59:53.422103862Z,0.19,-0.93,-1.85,0.93,0.93,1.11,-0.19,0.56,3.15,4.81,5.93,2.59,5.56,6.11,,,,,,,,,,,,,,
1799999993435419441,2027-01-15T07:59:53.435419441Z,-2.04,-0.74,-0.74,2.04,0.00,2.41,0.37,0.19,1.67,4.81,6.11,3.89,5.93,7.04,,,,,,,,,,,,,,
1799999993448735020,2027-01-15T07:59:53.448735020Z,-2.59,-0.93,2.22,-0.37,-0.19,2.59,1.11,0.56,2.04,3.33,4.26,6.11,5.93,6.11,,,,,,,,,,,,,,
1799999993462050600,2027-01-15T07:59:53.462050600Z,-4.07,-0.19,3.33,-0.93,-0.56,2.04,1.85,1.67,5.19,4.07,2.96,6.11,5.37,6.48,,,,,,,,,,,,,,
1799999993475366179,2027-01-15T07:59:53.475366179Z,-0.93,-0.19,1.67,-1.48,0.37,1.30,1.30,2.59,4.07,5.19,2.96,5.19,4.63,6.85,,,,,,,,,,,,,,
1799999993488681758,2027-01-15T07:59:53.488681758Z,0.93,-0.56,0.19,-0.37,0.74,0.74,1.67,2.04,2.59,4.44,3.33,6.30,4.63,6.67,,,,,,,,,,,,,,
1799999993501997337,2027-01-15T07:59:53.501997337Z,0.56,-1.85,1.11,0.19,1.30,0.00,3.52,2.22,3.89,4.07,3.89,5.19,5.56,6.85,,,,,,,,,,,,,,
1799999993515312917,2027-01-15T07:59:53.515312917Z,0.93,-0.74,1.48,0.19,1.48,0.56,3.33,3.15,3.70,4.07,4.26,4.63,6.67,6.48,,,,,,,,,,,,,,
1799999993528628496,2027-01-15T07:59:53.528628496Z,-1.67,-0.93,0.00,0.19,2.78,1.11,3.89,3.52,4.26,5.00,3.89,3.70,6.67,7.04,,,,,,,,,,,,,,
1799999993541944075,2027-01-15T07:59:53.541944075Z,-1.85,0.37,1.11,1.11,5.74,2.78,5.37,2.59,4.07,4.63,4.07,5.74,6.11,6.11,,,,,,,,,,,,,,
1799999993555259654,2027-01-15T07:59:53.555259654Z,-0.93,1.30,2.22,0.37,1.30,0.74,4.63,2.04,3.52,4.44,4.07,5.74,6.67,5.74,,,,,,,,,,,,,,
1799999993568575234,2027-01-15T07:59:53.568575234Z,-1.30,1.30,2.41,-0.37,-1.11,-0.37,3.15,2.22,3.52,4.26,5.19,5.37,6.85,6.11,,,,,,,,,,,,,,
1799999993581890813,2027-01-15T07:59:53.581890813Z,-0.37,0.00,0.56,-1.11,3.15,1.48,3.70,4.44,4.07,3.33,6.67,5.00,4.63,5.74,,,,,,,,,,,,,,
1799999993595206392,2027-01-15T07:59:53.595206392Z,-1.48,-1.30,-1.11,0.19,4.26,2.22,2.04,3.70,3.70,4.81,5.56,5.19,5.19,5.93,,,,,,,,,,,,,,
1799999993608521971,2027-01-15T07:59:53.608521971Z,-1.11,-1.30,-2.59,0.19,2.04,1.48,2.04,2.78,2.59,4.26,4.81,4.44,6.30,7.41,,,,,,,,,,,,,,
1799999993621837550,2027-01-15T07:59:53.621837550Z,-2.04,-1.48,-1.48,-0.37,2.04,0.19,3.33,2.78,3.52,2.96,5.56,3.89,6.48,7.22,,,,,,,,,,,,,,
1799999993635153130,2027-01-15T07:59:53.635153130Z,2.04,-1.11,-0.37,0.56,3.52,2.04,4.07,4.07,5.00,2.59,6.48,4.07,5.93,7.41,,,,,,,,,,,,,,
1799999993648468709,2027-01-15T07:59:53.648468709Z,-0.37,-0.19,-0.93,1.48,0.56,2.78,3.33,3.52,4.07,3.15,5.19,4.81,5.93,7.22,,,,,,,,,,,,,,
1799999993661784288,2027-01-15T07:59:53.661784288Z,-0.56,0.74,-1.48,2.04,0.00,3.89,2.59,2.96,3.33,2.96,3.15,5.37,5.37,7.04,,,,,,,,,,,,,,
1799999993675099867,2027-01-15T07:59:53.675099867Z,1.11,2.22,-0.19,1.67,1.30,4.44,3.15,1.67,5.00,3.33,3.70,7.04,5.56,7.04,,,,,,,,,,,,,,
1799999993688415447,2027-01-15T07:59:53.688415447Z,-1.11,1.30,-0.56,0.00,1.85,3.70,2.59,2.41,5.00,3.70,5.19,5.74,6.30,7.96,,,,,,,,,,,,,,
1799999993701731026,2027-01-15T07:59:53.701731026Z,-2.41,0.56,0.93,1.30,0.74,2.04,1.67,4.07,4.63,4.81,4.81,5.74,6.30,7.96,,,,,,,,,,,,,,
1799999993715046605,2027-01-15T07:59:53.715046605Z,-0.56,0.56,2.96,1.67,2.78,0.56,2.04,4.81,3.89,5.37,3.33,6.30,5.00,7.78,,,,,,,,,,,,,,
1799999993728362184,2027-01-15T07:59:53.728362184Z,-2.78,0.00,-0.56,-0.74,2.41,0.19,2.59,2.59,3.15,5.37,5.37,4.81,6.11,7.04,,,,,,,,,,,,,,
1799999993741677763,2027-01-15T07:59:53.741677763Z,3.70,-0.74,-1.11,-0.56,0.56,2.04,3.89,1.67,3.33,4.26,5.74,5.56,6.48,7.22,,,,,,,,,,,,,,
1799999993754993343,2027-01-15T07:59:53.754993343Z,1.67,-0.56,-1.48,-0.19,-0.37,2.78,3.89,2.22,3.52,4.26,4.81,6.67,6.48,7.78,,,,,,,,,,,,,,
1799999993768308922,2027-01-15T07:59:53.768308922Z,-3.70,-3.33,-1.85,-0.74,0.74,-0.37,2.22,2.96,5.74,4.44,5.56,4.07,6.48,7.59,,,,,,,,,,,,,,
1799999993781624501,2027-01-15T07:59:53.781624501Z,-3.33,0.19,-2.22,0.37,1.85,-0.74,0.56,3.15,5.37,5.19,6.11,3.89,5.74,6.67,,,,,,,,,,,,,,
1799999993794940080,2027-01-15T07:59:53.794940080Z,2.04,-0.74,-1.85,0.37,2.59,-0.37,-0.19,2.41,4.26,3.33,5.19,4.26,5.00,6.11,,,,,,,,,,,,,,
1799999993808255660,2027-01-15T07:59:53.808255660Z,-0.19,-2.96,-1.48,-0.74,1.85,-0.93,0.74,1.48,5.00,2.04,4.26,4.81,5.19,7.41,,,,,,,,,,,,,,
1799999993821571239,2027-01-15T07:59:53.821571239Z,1.48,-1.85,-1.11,-0.56,2.78,0.19,2.04,1.11,2.96,2.96,3.15,5.56,5.93,6.30,,,,,,,,,,,,,,
1799999993834886818,2027-01-15T07:59:53.834886818Z,-0.37,-0.56,-1.48,0.93,2.96,2.22,2.41,2.59,2.22,3.52,2.78,5.37,6.11,5.37,,,,,,,,,,,,,,
1799999993848202397,2027-01-15T07:59:53.848202397Z,0.74,-1.67,-2.04,2.22,1.85,2.41,1.85,3.33,2.78,3.15,3.33,5.93,6.67,4.81,,,,,,,,,,,,,,
1799999993861517977,2027-01-15T07:59:53.861517977Z,-1.67,-3.52,-3.15,1.11,0.37,2.78,0.19,2.59,4.63,2.22,5.56,5.19,6.48,6.85,,,,,,,,,,,,,,
1799999993874833556,2027-01-15T07:59:53.874833556Z,-0.37,0.56,-1.85,0.00,-5.00,2.41,0.74,3.33,2.04,3.52,5.19,4.81,5.74,6.67,,,,,,,,,,,,,,
1799999993888149135,2027-01-15T07:59:53.888149135Z,0.93,-0.93,-1.30,-0.19,-5.37,2.59,2.41,3.33,1.85,3.52,5.37,5.37,6.11,6.11,,,,,,,,,,,,,,
1799999993901464714,2027-01-15T07:59:53.901464714Z,-0.74,-1.67,0.37,2.22,0.19,1.11,1.48,2.41,3.70,3.15,5.37,7.04,5.37,4.63,,,,,,,,,,,,,,
1799999993914780293,2027-01-15T07:59:53.914780293Z,0.56,-2.78,0.74,0.74,2.22,1.30,1.30,1.67,1.85,3.89,4.81,4.81,4.63,5.37,,,,,,,,,,,,,,
1799999993928095873,2027-01-15T07:59:53.928095873Z,0.19,-0.56,-0.74,0.93,2.59,2.22,1.11,2.59,1.11,4.44,3.52,4.26,4.26,5.74,,,,,,,,,,,,,,
1799999993941411452,2027-01-15T07:59:53.941411452Z,-0.37,1.48,0.00,2.22,0.74,1.30,1.30,4.26,3.52,2.96,3.70,5.37,4.63,7.22,,,,,,,,,,,,,,
1799999993954727031,2027-01-15T07:59:53.954727031Z,-0.19,0.56,-0.74,2.04,1.11,2.59,2.41,4.63,3.52,2.04,5.93,4.81,5.19,8.52,,,,,,,,,,,,,,
1799999993968042610,2027-01-15T07:59:53.968042610Z,-0.19,-0.37,-1.67,0.56,0.93,2.04,5.00,3.89,4.26,3.15,5.19,5.00,5.93,7.96,,,,,,,,,,,,,,
1799999993981358190,2027-01-15T07:59:53.981358190Z,-0.74,-1.30,-1.67,1.11,0.93,0.37,5.37,3.33,3.33,4.07,5.00,4.81,5.56,6.85,,,,,,,,,,,,,,
1799999993994673769,2027-01-15T07:59:53.994673769Z,0.00,0.00,-0.37,0.74,1.85,1.30,2.41,4.44,2.59,5.00,5.56,5.56,6.67,5.93,,,,,,,,,,,,,,
1799999994007989348,2027-01-15T07:59:54.007989348Z,0.19,0.37,-0.37,-0.19,2.78,1.85,1.67,3.89,3.15,4.63,4.44,6.30,6.48,5.56,,,,,,,,,,,,,,
1799999994021304927,2027-01-15T07:59:54.021304927Z,0.37,-0.19,-0.37,0.93,2.59,1.85,1.30,3.15,3.70,3.89,3.33,6.30,5.37,5.37,,,,,,,,,,,,,,
1799999994034620506,2027-01-15T07:59:54.034620506Z,-1.48,-0.74,-0.56,0.19,1.67,2.41,2.96,3.70,3.52,4.81,2.96,6.11,6.67,6.11,,,,,,,,,,,,,,
1799999994047936086,2027-01-15T07:59:54.047936086Z,0.74,-2.59,0.00,0.00,-0.37,2.96,4.26,2.78,2.78,4.63,3.70,6.11,6.85,6.30,,,,,,,,,,,,,,
1799999994061251665,2027-01-15T07:59:54.061251665Z,-1.67,-0.19,0.37,0.93,-0.56,1.67,3.89,1.85,2.59,5.37,5.19,5.37,6.30,6.48,,,,,,,,,,,,,,
1799999994074567244,2027-01-15T07:59:54.074567244Z,-0.74,-0.56,0.74,0.19,0.37,0.74,1.85,1.67,2.59,4.81,5.74,4.44,5.93,6.85,,,,,,,,,,,,,,
1799999994087882823,2027-01-15T07:59:54.087882823Z,-2.04,-2.04,-0.37,-1.48,2.04,1.85,2.78,3.89,2.41,4.44,5.37,6.30,6.48,7.22,,,,,,,,,,,,,,
1799999994101198403,2027-01-15T07:59:54.101198403Z,0.00,0.37,1.48,-1.48,-0.56,1.67,2.78,5.00,2.78,4.81,4.81,6.48,5.93,7.22,,,,,,,,,,,,,,
1799999994114513982,2027-01-15T07:59:54.114513982Z,-1.30,0.37,3.52,-0.56,-1.48,1.48,1.85,5.56,3.70,4.63,4.44,5.56,6.48,5.74,,,,,,,,,,,,,,
1799999994127829561,2027-01-15T07:59:54.127829561Z,-4.07,1.67,3.70,-0.56,0.00,2.04,2.41,4.81,4.81,4.44,5.37,4.07,7.04,5.37,,,,,,,,,,,,,,
1799999994141145140,2027-01-15T07:59:54.141145140Z,-3.33,1.30,4.07,0.37,0.56,2.41,2.96,3.15,3.89,4.81,5.37,5.93,6.30,5.56,,,,,,,,,,,,,,
1799999994154460720,2027-01-15T07:59:54.154460720Z,0.00,-1.67,3.89,1.67,0.56,2.41,2.96,1.67,3.70,4.07,4.81,6.11,5.37,6.48,,,,,,,,,,,,,,
1799999994167776299,2027-01-15T07:59:54.167776299Z,0.56,-3.15,3.33,0.19,0.19,2.22,2.96,2.22,4.63,4.26,5.00,5.56,5.56,6.67,,,,,,,,,,,,,,
1799999994181091878,2027-01-15T07:59:54.181091878Z,-1.48,-1.67,1.67,1.30,0.37,2.78,2.78,3.15,4.81,4.44,3.52,5.74,7.04,6.67,,,,,,,,,,,,,,
1799999994194407457,2027-01-15T07:59:54.194407457Z,-1.48,-0.74,1.30,1.85,0.93,1.48,2.96,2.41,4.63,4.81,2.78,5.00,7.04,7.41,,,,,,,,,,,,,,
1799999994207723036,2027-01-15T07:59:54.207723036Z,-1.85,-0.93,0.00,0.74,0.00,1.11,2.22,3.52,4.81,4.63,3.52,4.81,6.30,6.85,,,,,,,,,,,,,,
1799999994221038616,2027-01-15T07:59:54.221038616Z,0.56,-2.22,-1.11,0.93,-0.19,4.44,2.78,4.26,4.26,3.15,5.74,4.81,4.63,6.67,,,,,,,,,,,,,,
1799999994234354195,2027-01-15T07:59:54.234354195Z,2.04,0.93,-1.48,0.93,1.48,5.37,2.78,4.07,3.70,3.70,5.19,4.63,5.56,7.04,,,,,,,,,,,,,,
1799999994247669774,2027-01-15T07:59:54.247669774Z,-1.30,-0.56,-2.04,0.93,2.04,4.07,2.41,3.89,4.81,3.52,4.81,5.19,6.11,7.22,,,,,,,,,,,,,,
1799999994260985353,2027-01-15T07:59:54.260985353Z,-1.85,-0.93,-2.22,0.93,0.19,2.41,1.67,2.59,2.41,3.89,5.19,5.00,6.11,7.04,,,,,,,,,,,,,,
1799999994274300933,2027-01-15T07:59:54.274300933Z,2.04,0.19,-0.93,0.74,1.30,2.22,2.59,0.93,2.78,5.00,5.93,4.63,6.11,6.67,,,,,,,,,,,,,,
1799999994287616512,2027-01-15T07:59:54.287616512Z,-1.30,0.19,-0.37,0.74,2.41,2.59,2.22,2.41,4.81,3.52,5.37,4.26,5.37,6.67,,,,,,,,,,,,,,
1799999994300932091,2027-01-15T07:59:54.300932091Z,-0.74,1.67,0.37,2.41,3.52,3.89,0.37,2.22,3.33,3.70,3.89,4.26,4.81,8.15,,,,,,,,,,,,,,
1799999994314247670,2027-01-15T07:59:54.314247670Z,-1.30,0.00,0.37,1.48,1.85,4.81,3.52,0.74,3.70,4.26,3.70,5.37,5.56,8.33,,,,,,,,,,,,,,
1799999994327563250,2027-01-15T07:59:54.327563250Z,-1.11,-2.41,-0.56,-0.93,0.37,3.52,3.89,1.11,4.44,4.26,4.81,6.67,4.63,7.78,,,,,,,,,,,,,,
1799999994340878829,2027-01-15T07:59:54.340878829Z,0.93,-1.30,-1.11,-3.89,-1.30,2.04,2.78,1.48,4.26,3.70,5.19,7.22,4.44,6.11,,,,,,,,,,,,,,
1799999994354194408,2027-01-15T07:59:54.354194408Z,0.00,0.74,-0.56,-0.93,0.00,1.30,1.48,2.59,3.33,2.04,4.81,6.11,6.48,5.56,,,,,,,,,,,,,,
1799999994367509987,2027-01-15T07:59:54.367509987Z,-0.19,-1.30,-0.74,1.11,0.74,1.11,1.48,2.78,3.33,2.59,5.00,6.30,6.48,5.56,,,,,,,,,,,,,,
1799999994380825566,2027-01-15T07:59:54.380825566Z,-0.37,-1.30,-1.11,1.48,0.56,0.93,1.11,2.22,2.22,4.81,4.63,6.85,5.19,5.00,,,,,,,,,,,,,,
1799999994394141146,2027-01-15T07:59:54.394141146Z,-0.19,0.00,-0.93,1.30,0.74,1.67,0.74,1.30,2.78,5.00,4.81,6.67,5.19,5.19,,,,,,,,,,,,,,
1799999994407456725,2027-01-15T07:59:54.407456725Z,0.56,0.00,-1.30,0.00,-1.67,2.41,1.85,1.48,4.26,4.81,6.48,6.30,5.93,6.11,,,,,,,,,,,,,,
1799999994420772304,2027-01-15T07:59:54.420772304Z,-2.04,0.00,-1.67,0.37,-2.59,1.11,0.93,2.96,4.26,3.52,5.37,5.56,6.67,6.85,,,,,,,,,,,,,,
1799999994434087883,2027-01-15T07:59:54.434087883Z,0.00,-1.11,-1.11,1.11,-0.19,-0.37,0.56,3.89,4.07,3.70,5.19,4.81,6.30,6.48,,,,,,,,,,,,,,
1799999994447403463,2027-01-15T07:59:54.447403463Z,-1.85,0.74,0.00,1.30,2.04,-1.67,2.78,3.52,2.59,5.56,6.48,5.56,6.67,5.56,,,,,,,,,,,,,,
1799999994460719042,2027-01-15T07:59:54.460719042Z,-1.11,-1.30,0.19,0.00,1.11,-1.48,4.44,5.37,2.41,5.37,5.93,6.11,6.30,6.30,,,,,,,,,,,,,,
1799999994474034621,2027-01-15T07:59:54.474034621Z,0.19,-0.37,-0.19,-0.37,0.56,0.19,5.19,5.74,2.41,4.63,5.00,6.30,5.93,6.85,,,,,,,,,,,,,,
1799999994487350200,2027-01-15T07:59:54.487350200Z,-1.48,0.74,1.67,0.37,2.96,-1.48,5.00,5.00,1.85,3.15,3.70,6.11,5.56,8.15,,,,,,,,,,,,,,
1799999994500665779,2027-01-15T07:59:54.500665779Z,-0.74,0.19,2.04,0.19,3.33,0.93,2.96,3.70,2.22,2.59,2.59,5.37,5.56,7.96,,,,,,,,,,,,,,
1799999994513981359,2027-01-15T07:59:54.513981359Z,0.00,-0.37,1.48,-0.56,3.70,2.22,1.48,4.63,2.04,4.63,3.52,4.63,5.93,6.85,,,,,,,,,,,,,,
1799999994527296938,2027-01-15T07:59:54.527296938Z,1.11,-0.93,0.56,0.93,5.37,0.93,1.85,4.26,3.70,5.56,3.70,4.63,6.30,5.19,,,,,,,,,,,,,,
1799999994540612517,2027-01-15T07:59:54.540612517Z,-0.19,-0.74,-0.56,1.11,2.04,0.93,2.59,3.70,5.00,5.74,4.07,5.93,5.19,4.44,,,,,,,,,,,,,,
1799999994553928096,2027-01-15T07:59:54.553928096Z,1.11,0.93,-1.30,0.00,3.15,0.93,2.78,3.33,4.26,4.44,4.07,5.74,5.93,6.11,,,,,,,,,,,,,,
1799999994567243676,2027-01-15T07:59:54.567243676Z,-0.19,-0.93,-0.37,0.00,4.44,0.93,3.15,3.52,3.15,4.26,2.22,5.74,6.67,6.48,,,,,,,,,,,,,,
1799999994580559255,2027-01-15T07:59:54.580559255Z,-0.56,-1.11,-1.30,0.74,3.70,0.00,2.96,1.67,2.41,3.89,4.63,5.74,5.93,9.81,,,,,,,,,,,,,,
1799999994593874834,2027-01-15T07:59:54.593874834Z,-0.74,-1.11,-1.48,0.93,2.96,0.74,3.52,0.93,2.96,3.33,5.74,5.00,6.11,9.63,,,,,,,,,,,,,,
1799999994607190413,2027-01-15T07:59:54.607190413Z,-2.96,-0.37,-1.48,1.48,0.74,-0.56,3.52,2.41,2.96,3.15,5.19,4.63,6.48,9.07,,,,,,,,,,,,,,
1799999994620505993,2027-01-15T07:59:54.620505993Z,-2.41,0.37,-1.67,0.74,-0.56,-2.04,2.96,1.48,1.67,4.81,5.74,5.19,6.48,7.04,,,,,,,,,,,,,,
1799999994633821572,2027-01-15T07:59:54.633821572Z,-1.67,-1.67,-2.04,0.00,2.41,-1.30,1.85,2.22,2.78,4.81,5.00,6.11,6.67,5.93,,,,,,,,,,,,,,
1799999994647137151,2027-01-15T07:59:54.647137151Z,-0.74,-1.85,-2.04,-0.37,2.04,-0.37,1.48,2.41,2.22,4.44,5.37,6.30,6.85,5.19,,,,,,,,,,,,,,
1799999994660452730,2027-01-15T07:59:54.660452730Z,-1.30,-0.37,-0.56,0.19,0.37,0.93,0.93,1.85,3.33,3.89,4.44,5.19,6.30,5.19,,,,,,,,,,,,,,
1799999994673768309,2027-01-15T07:59:54.673768309Z,-2.22,-0.37,-1.48,2.22,3.52,0.19,0.93,1.11,3.89,4.07,3.33,3.52,5.19,5.37,,,,,,,,,,,,,,
1799999994687083889,2027-01-15T07:59:54.687083889Z,-1.67,-0.37,-1.48,0.00,4.07,0.74,2.96,1.67,5.19,4.63,4.44,3.89,5.56,5.74,,,,,,,,,,,,,,
1799999994700399468,2027-01-15T07:59:54.700399468Z,2.04,-0.37,-1.30,-1.11,2.22,1.67,3.33,0.56,6.30,5.00,4.63,5.37,6.11,7.04,,,,,,,,,,,,,,
1799999994713715047,2027-01-15T07:59:54.713715047Z,-1.48,-0.37,0.74,2.22,2.41,0.19,3.89,2.04,2.96,5.19,4.07,5.56,6.85,8.15,,,,,,,,,,,,,,
1799999994727030626,2027-01-15T07:59:54.727030626Z,-1.48,1.11,-0.37,2.59,2.96,1.30,3.52,3.70,2.96,4.07,4.63,5.00,6.48,7.22,,,,,,,,,,,,,,
1799999994740346206,2027-01-15T07:59:54.740346206Z,-4.07,0.37,0.00,0.93,2.04,2.59,1.11,3.52,4.44,3.15,5.74,4.26,6.30,6.30,,,,,,,,,,,,,,
1799999994753661785,2027-01-15T07:59:54.753661785Z,-0.74,0.00,1.30,0.74,0.19,2.22,-0.74,2.41,4.26,4.07,5.74,4.81,6.11,6.48,,,,,,,,,,,,,,
1799999994766977364,2027-01-15T07:59:54.766977364Z,-0.56,-2.04,-0.37,-0.74,0.93,1.30,0.74,3.33,1.85,3.70,4.07,5.00,6.67,7.78,,,,,,,,,,,,,,
1799999994780292943,2027-01-15T07:59:54.780292943Z,-1.67,0.19,-1.11,-1.11,2.22,1.85,1.85,3.33,3.89,4.26,4.26,4.07,6.67,7.41,,,,,,,,,,,,,,
1799999994793608522,2027-01-15T07:59:54.793608522Z,-1.30,-1.30,-1.67,-1.67,1.48,1.85,1.30,3.52,5.74,4.44,4.07,4.07,5.37,5.74,,,,,,,,,,,,,,
1799999994806924102,2027-01-15T07:59:54.806924102Z,-0.37,-0.19,-0.37,0.00,0.56,2.59,2.59,3.70,2.96,3.33,3.33,6.11,6.30,6.30,,,,,,,,,,,,,,
1799999994820239681,2027-01-15T07:59:54.820239681Z,1.48,-1.67,0.19,1.85,-1.11,1.85,1.85,3.70,3.70,4.44,5.37,5.74,6.11,5.93,,,,,,,,,,,,,,
1799999994833555260,2027-01-15T07:59:54.833555260Z,-1.30,1.11,0.74,1.48,-1.30,0.56,1.30,2.41,4.26,4.44,4.44,4.44,6.11,6.67,,,,,,,,,,,,,,
1799999994846870839,2027-01-15T07:59:54.846870839Z,1.67,-1.48,0.93,0.93,0.56,0.93,1.85,1.67,2.96,4.44,3.89,3.33,5.93,7.41,,,,,,,,,,,,,,
1799999994860186419,2027-01-15T07:59:54.860186419Z,-0.56,-2.22,0.74,0.37,0.93,4.07,1.85,2.41,3.89,4.44,4.81,4.63,5.37,6.85,,,,,,,,,,,,,,
1799999994873501998,2027-01-15T07:59:54.873501998Z,0.56,-0.93,1.48,-0.37,1.85,4.81,2.78,4.26,4.26,4.26,4.81,4.81,5.19,6.11,,,,,,,,,,,,,,
1799999994886817577,2027-01-15T07:59:54.886817577Z,1.11,-1.67,1.30,0.19,0.93,3.70,2.22,5.00,3.89,4.81,5.00,4.44,4.63,5.37,,,,,,,,,,,,,,
1799999994900133156,2027-01-15T07:59:54.900133156Z,-2.22,-1.67,0.74,1.11,0.74,2.04,0.56,3.89,5.74,3.89,4.63,4.26,6.11,4.81,,,,,,,,,,,,,,
1799999994913448736,2027-01-15T07:59:54.913448736Z,-1.48,-1.67,0.93,0.56,-0.74,2.78,0.93,3.33,5.74,3.33,3.52,5.74,6.67,6.11,,,,,,,,,,,,,,
1799999994926764315,2027-01-15T07:59:54.926764315Z,0.19,-2.22,1.30,-0.19,-0.74,3.33,2.22,3.70,4.81,2.41,5.00,5.74,6.85,7.59,,,,,,,,,,,,,,
1799999994940079894,2027-01-15T07:59:54.940079894Z,-0.19,-0.37,3.33,1.30,1.48,2.04,2.04,3.33,3.15,3.33,5.37,3.89,5.93,6.85,,,,,,,,,,,,,,
1799999994953395473,2027-01-15T07:59:54.953395473Z,0.56,0.37,2.41,2.59,1.11,1.48,2.04,4.44,2.96,4.26,4.44,4.63,5.74,6.11,,,,,,,,,,,,,,
1799999994966711052,2027-01-15T07:59:54.966711052Z,1.48,-1.67,-1.30,1.67,-0.19,1.30,1.30,4.63,2.96,4.26,4.07,5.93,5.00,6.11,,,,,,,,,,,,,,
1799999994980026632,2027-01-15T07:59:54.980026632Z,0.19,-0.74,-2.22,1.11,-0.74,2.22,0.56,4.26,2.78,4.81,6.11,5.37,5.00,5.74,,,,,,,,,,,,,,
1799999994993342211,2027-01-15T07:59:54.993342211Z,0.93,-0.37,0.19,-1.11,0.00,2.41,1.11,3.33,2.41,4.26,6.85,5.74,4.81,6.11,,,,,,,,,,,,,,
1799999995006657790,2027-01-15T07:59:55.006657790Z,-1.67,-1.30,0.00,0.19,0.56,1.67,2.59,2.04,2.59,4.44,5.56,5.93,5.93,6.11,,,,,,,,,,,,,,
1799999995019973369,2027-01-15T07:59:55.019973369Z,-1.30,-0.37,-0.37,0.93,2.04,1.11,3.89,0.93,2.96,4.07,4.44,5.56,6.48,6.67,,,,,,,,,,,,,,
1799999995033288949,2027-01-15T07:59:55.033288949Z,-1.85,-0.93,0.93,1.30,3.15,1.11,3.89,2.41,3.33,3.15,4.63,5.37,5.00,7.22,,,,,,,,,,,,,,
1799999995046604528,2027-01-15T07:59:55.046604528Z,0.93,1.30,-0.19,0.74,1.48,1.85,3.33,2.22,4.63,3.70,6.48,5.93,6.11,6.48,,,,,,,,,,,,,,
1799999995059920107,2027-01-15T07:59:55.059920107Z,-0.74,1.11,-0.37,0.74,0.74,2.96,2.22,2.59,3.33,4.81,6.48,5.93,6.48,6.48,,,,,,,,,,,,,,
1799999995073235686,2027-01-15T07:59:55.073235686Z,-2.04,1.30,-0.19,0.56,0.19,3.70,1.48,3.52,2.22,4.07,5.19,6.11,5.56,5.56,,,,,,,,,,,,,,
1799999995086551265,2027-01-15T07:59:55.086551265Z,-0.37,1.30,-1.11,-0.37,0.00,3.15,1.11,2.78,1.30,4.44,5.00,5.00,5.37,6.30,,,,,,,,,,,,,,
1799999995099866845,2027-01-15T07:59:55.099866845Z,-0.93,-1.30,-0.56,0.19,-0.74,0.19,1.48,2.78,3.15,3.52,4.26,4.81,6.11,6.48,,,,,,,,,,,,,,
1799999995113182424,2027-01-15T07:59:55.113182424Z,-0.93,-1.48,0.19,1.11,0.19,-0.37,2.04,2.96,4.63,2.59,4.26,5.56,6.67,6.30,,,,,,,,,,,,,,
1799999995126498003,2027-01-15T07:59:55.126498003Z,-0.93,-0.74,0.56,2.04,1.67,2.96,3.89,1.85,5.00,2.96,6.11,5.19,5.74,5.00,,,,,,,,,,,,,,
1799999995139813582,2027-01-15T07:59:55.139813582Z,-0.19,-0.19,0.19,2.04,1.11,2.04,2.96,2.22,4.63,4.44,5.56,4.81,5.93,4.44,,,,,,,,,,,,,,
1799999995153129162,2027-01-15T07:59:55.153129162Z,1.30,-0.37,-0.19,0.19,0.93,2.04,2.04,1.85,3.52,4.44,5.19,5.00,6.48,4.81,,,,,,,,,,,,,,
1799999995166444741,2027-01-15T07:59:55.166444741Z,0.37,0.37,0.37,-0.56,1.48,3.52,2.41,2.22,2.59,3.52,5.00,5.74,5.93,7.59,,,,,,,,,,,,,,
1799999995179760320,2027-01-15T07:59:55.179760320Z,1.85,-0.93,0.19,-0.93,-0.37,2.78,2.96,2.22,3.70,4.26,4.07,5.93,5.19,8.70,,,,,,,,,,,,,,
1799999995193075899,2027-01-15T07:59:55.193075899Z,-2.04,0.00,-0.37,-0.19,-0.93,1.30,2.59,2.59,2.78,4.81,4.63,5.56,5.56,7.22,,,,,,,,,,,,,,
1799999995206391479,2027-01-15T07:59:55.206391479Z,-2.04,0.56,-0.19,1.11,-0.37,0.93,3.52,2.41,2.78,4.63,5.00,5.19,6.11,6.48,,,,,,,,,,,,,,
1799999995219707058,2027-01-15T07:59:55.219707058Z,1.67,-0.93,0.37,-0.74,1.48,1.85,4.07,2.59,4.26,5.19,4.26,4.63,6.67,5.19,,,,,,,,,,,,,,
1799999995233022637,2027-01-15T07:59:55.233022637Z,1.11,-0.19,0.00,0.37,0.93,2.59,2.78,4.07,3.52,5.19,4.07,4.63,7.04,5.74,,,,,,,,,,,,,,
1799999995246338216,2027-01-15T07:59:55.246338216Z,-1.48,-1.67,-1.30,1.67,1.11,1.11,2.59,5.93,2.22,4.44,4.44,5.19,6.11,7.04,,,,,,,,,,,,,,
1799999995259653795,2027-01-15T07:59:55.259653795Z,0.56,0.19,-1.48,1.30,-1.30,0.19,2.78,5.93,5.19,4.44,5.00,4.81,6.85,7.78,,,,,,,,,,,,,,
1799999995272969375,2027-01-15T07:59:55.272969375Z,0.37,-0.74,-2.04,1.11,0.19,0.93,3.33,5.37,3.89,3.89,4.07,4.07,6.85,7.41,,,,,,,,,,,,,,
1799999995286284954,2027-01-15T07:59:55.286284954Z,-0.74,-0.37,-0.19,-0.19,2.59,1.30,2.78,2.04,2.96,3.15,3.70,4.44,6.48,7.41,,,,,,,,,,,,,,
1799999995299600533,2027-01-15T07:59:55.299600533Z,2.04,-0.19,0.74,-0.37,1.48,-0.37,2.22,1.48,3.52,3.89,3.89,5.74,5.00,6.85,,,,,,,,,,,,,,
1799999995312916112,2027-01-15T07:59:55.312916112Z,-1.67,-0.93,-0.93,0.56,2.78,0.56,2.41,1.85,4.07,4.63,3.52,6.11,5.37,6.30,,,,,,,,,,,,,,
1799999995326231692,2027-01-15T07:59:55.326231692Z,0.93,-1.30,0.19,-0.19,2.22,1.48,3.70,1.85,4.63,4.44,4.07,6.48,5.19,5.93,,,,,,,,,,,,,,
1799999995339547271,2027-01-15T07:59:55.339547271Z,1.30,-1.11,1.85,0.56,1.85,2.78,4.63,1.85,3.70,5.00,3.89,6.30,5.19,6.30,,,,,,,,,,,,,,
1799999995352862850,2027-01-15T07:59:55.352862850Z,-0.37,-0.37,-0.19,1.48,2.04,2.41,2.59,1.67,1.67,4.81,2.22,6.67,5.93,6.48,,,,,,,,,,,,,,
1799999995366178429,2027-01-15T07:59:55.366178429Z,-0.74,0.74,-1.67,0.93,1.85,3.15,2.04,2.04,1.67,3.89,3.70,6.67,5.00,6.30,,,,,,,,,,,,,,
1799999995379494008,2027-01-15T07:59:55.379494008Z,-1.67,-1.48,-2.22,-0.19,2.41,2.78,2.22,2.41,1.67,2.78,5.19,6.30,4.63,6.85,,,,,,,,,,,,,,
1799999995392809588,2027-01-15T07:59:55.392809588Z,0.19,-2.41,-0.37,0.56,2.78,1.11,2.59,2.04,1.85,4.26,4.81,3.70,5.19,6.85,,,,,,,,,,,,,,
1799999995406125167,2027-01-15T07:59:55.406125167Z,-0.37,0.00,-0.74,0.37,1.48,0.74,2.78,2.59,3.15,4.44,5.56,3.89,5.93,5.37,,,,,,,,,,,,,,
1799999995419440746,2027-01-15T07:59:55.419440746Z,2.22,-0.93,-2.22,0.37,1.11,0.74,1.85,3.15,4.81,3.89,5.93,5.00,5.56,5.93,,,,,,,,,,,,,,
1799999995432756325,2027-01-15T07:59:55.432756325Z,-0.37,-1.30,-0.56,1.48,2.78,0.37,0.93,2.78,3.70,4.63,6.11,4.81,6.30,6.85,,,,,,,,,,,,,,
1799999995446071905,2027-01-15T07:59:55.446071905Z,0.93,-2.41,0.19,0.56,2.22,1.48,2.41,1.85,2.41,5.19,4.44,5.19,7.41,6.30,,,,,,,,,,,,,,
1799999995459387484,2027-01-15T07:59:55.459387484Z,0.37,-0.93,0.37,0.00,2.22,2.78,2.59,2.59,2.41,5.19,4.44,5.74,6.85,6.48,,,,,,,,,,,,,,
1799999995472703063,2027-01-15T07:59:55.472703063Z,0.56,0.93,0.56,0.56,0.37,4.07,1.85,4.07,3.70,5.56,5.93,5.19,5.93,6.67,,,,,,,,,,,,,,
1799999995486018642,2027-01-15T07:59:55.486018642Z,1.67,-1.30,1.11,2.59,0.93,2.96,2.04,4.26,3.52,4.81,4.63,5.56,6.11,5.56,,,,,,,,,,,,,,
1799999995499334222,2027-01-15T07:59:55.499334222Z,0.37,-0.56,0.00,1.30,1.11,1.67,2.59,2.78,3.70,3.89,3.33,5.93,6.85,6.11,,,,,,,,,,,,,,
1799999995512649801,2027-01-15T07:59:55.512649801Z,-0.74,0.19,-0.74,0.19,2.22,0.93,2.22,2.41,3.89,3.52,3.33,5.37,5.74,6.48,,,,,,,,,,,,,,
1799999995525965380,2027-01-15T07:59:55.525965380Z,-1.11,0.56,-0.56,1.11,0.56,-0.56,1.48,3.33,2.59,3.89,3.89,5.19,5.56,5.93,,,,,,,,,,,,,,
1799999995539280959,2027-01-15T07:59:55.539280959Z,0.00,1.67,0.56,-0.74,0.37,2.04,2.04,3.33,4.26,3.52,5.56,3.70,5.37,6.85,,,,,,,,,,,,,,
1799999995552596538,2027-01-15T07:59:55.552596538Z,0.74,-1.67,-0.19,-1.11,0.56,2.78,1.11,2.59,5.74,3.15,5.93,4.44,7.22,6.67,,,,,,,,,,,,,,
1799999995565912118,2027-01-15T07:59:55.565912118Z,0.56,-2.04,-1.30,-0.56,0.74,2.04,0.93,2.59,7.96,4.07,6.30,5.56,7.59,6.85,,,,,,,,,,,,,,
1799999995579227697,2027-01-15T07:59:55.579227697Z,-2.22,-1.30,0.37,0.56,0.37,2.41,1.85,2.59,5.56,4.81,6.67,7.04,6.85,7.22,,,,,,,,,,,,,,
1799999995592543276,2027-01-15T07:59:55.592543276Z,-0.74,-1.30,0.00,1.11,0.19,2.22,3.33,1.67,3.89,4.63,5.19,5.19,5.00,6.48,,,,,,,,,,,,,,
1799999995605858855,2027-01-15T07:59:55.605858855Z,-0.19,-2.41,-0.19,1.48,-0.19,1.48,3.33,1.67,3.15,3.70,4.81,4.81,4.81,5.93,,,,,,,,,,,,,,
1799999995619174435,2027-01-15T07:59:55.619174435Z,0.93,-1.67,1.67,-0.19,-0.19,-0.37,2.04,4.07,3.33,5.00,5.19,5.93,5.00,7.59,,,,,,,,,,,,,,
1799999995632490014,2027-01-15T07:59:55.632490014Z,1.30,-1.30,1.11,-1.11,0.56,1.67,1.67,3.52,4.63,5.56,4.44,6.30,5.37,8.15,,,,,,,,,,,,,,
1799999995645805593,2027-01-15T07:59:55.645805593Z,,-0.93,-0.93,0.37,0.56,2.04,2.41,2.78,5.93,4.26,3.33,5.56,5.74,7.59,,,,,,,,,,,,,,
1799999995659121172,2027-01-15T07:59:55.659121172Z,-1.30,-1.85,-0.74,1.11,1.67,1.11,2.59,3.52,3.70,3.15,3.70,4.81,5.93,6.30,,,,,,,,,,,,,,
1799999995672436751,2027-01-15T07:59:55.672436751Z,-0.74,0.37,-0.37,1.67,0.19,2.59,2.78,2.59,4.07,2.78,4.81,4.81,5.37,6.48,,,,,,,,,,,,,,
1799999995685752331,2027-01-15T07:59:55.685752331Z,-2.04,-0.56,-0.93,1.67,-0.93,2.41,3.15,2.78,3.70,2.59,5.93,4.26,5.00,5.19,,,,,,,,,,,,,,
1799999995699067910,2027-01-15T07:59:55.699067910Z,-1.48,0.19,-0.93,2.41,0.19,2.78,1.85,3.33,4.81,3.15,5.56,3.70,5.00,4.81,,,,,,,,,,,,,,
1799999995712383489,2027-01-15T07:59:55.712383489Z,0.19,0.93,0.74,2.22,2.22,2.96,0.93,4.81,3.33,4.63,3.70,5.19,5.74,5.19,,,,,,,,,,,,,,
1799999995725699068,2027-01-15T07:59:55.725699068Z,0.00,-0.93,0.37,1.48,2.59,2.41,0.93,3.33,2.41,3.52,4.26,5.74,6.30,6.85,,,,,,,,,,,,,,
1799999995739014648,2027-01-15T07:59:55.739014648Z,-2.59,0.56,-0.37,0.37,1.48,0.74,1.11,0.56,1.85,3.52,5.00,5.74,6.67,7.59,,,,,,,,,,,,,,
1799999995752330227,2027-01-15T07:59:55.752330227Z,0.93,-0.19,-0.56,-0.56,0.56,-0.37,0.56,1.30,0.74,3.70,5.19,5.93,6.11,7.22,,,,,,,,,,,,,,
1799999995765645806,2027-01-15T07:59:55.765645806Z,1.11,0.00,1.30,0.00,0.37,0.93,3.33,3.70,3.15,3.33,4.44,5.74,5.56,7.22,,,,,,,,,,,,,,
1799999995778961385,2027-01-15T07:59:55.778961385Z,-0.74,0.56,0.19,0.00,0.74,1.48,4.07,4.63,2.96,3.15,3.89,5.93,5.37,7.78,,,,,,,,,,,,,,
1799999995792276965,2027-01-15T07:59:55.792276965Z,-1.30,-0.74,0.56,0.00,1.48,1.11,2.04,4.44,1.67,4.07,3.52,5.74,5.74,7.96,,,,,,,,,,,,,,
1799999995805592544,2027-01-15T07:59:55.805592544Z,0.37,-0.56,1.48,-0.19,1.30,2.22,1.48,3.70,2.59,4.63,4.81,5.37,5.74,7.41,,,,,,,,,,,,,,
1799999995818908123,2027-01-15T07:59:55.818908123Z,0.74,-0.74,1.85,-0.19,1.67,2.78,0.74,3.15,2.78,4.26,4.44,5.93,5.93,5.93,,,,,,,,,,,,,,
1799999995832223702,2027-01-15T07:59:55.832223702Z,0.00,-0.93,1.85,0.56,1.30,1.48,0.37,2.59,1.85,4.07,4.07,5.93,5.93,5.37,,,,,,,,,,,,,,
1799999995845539281,2027-01-15T07:59:55.845539281Z,0.93,,-0.56,0.37,0.56,1.30,-0.93,3.15,1.85,4.81,5.93,6.11,6.48,4.63,,,,,,,,,,,,,,
1799999995858854861,2027-01-15T07:59:55.858854861Z,-1.48,0.19,-0.19,0.19,0.56,2.22,1.48,4.26,2.96,3.89,4.81,5.74,5.93,5.00,,,,,,,,,,,,,,
1799999995872170440,2027-01-15T07:59:55.872170440Z,0.74,0.19,2.04,0.56,2.04,1.48,3.89,3.70,3.33,4.63,5.00,4.81,5.56,6.67,,,,,,,,,,,,,,
1799999995885486019,2027-01-15T07:59:55.885486019Z,-0.19,-1.85,1.11,0.56,2.04,2.22,2.78,2.96,2.78,4.63,5.93,4.26,6.48,7.78,,,,,,,,,,,,,,
1799999995898801598,2027-01-15T07:59:55.898801598Z,0.37,0.19,-2.22,-1.11,2.41,2.41,1.85,2.04,2.78,3.52,5.00,5.00,6.11,7.41,,,,,,,,,,,,,,
1799999995912117178,2027-01-15T07:59:55.912117178Z,-1.67,0.37,-0.93,-0.37,-2.41,1.30,2.59,1.48,3.52,3.89,4.63,6.30,6.48,8.15,,,,,,,,,,,,,,
1799999995925432757,2027-01-15T07:59:55.925432757Z,-2.22,-0.93,-0.37,1.30,-2.78,2.04,3.52,1.11,4.07,3.70,4.26,5.00,6.48,7.41,,,,,,,,,,,,,,
1799999995938748336,2027-01-15T07:59:55.938748336Z,-2.22,-0.74,-0.74,1.67,0.56,1.11,3.89,2.22,5.37,4.44,4.44,3.89,5.00,7.04,,,,,,,,,,,,,,
1799999995952063915,2027-01-15T07:59:55.952063915Z,-1.85,0.00,-0.74,0.00,0.56,2.04,3.52,3.52,4.81,4.44,4.44,5.56,5.00,7.59,,,,,,,,,,,,,,
1799999995965379495,2027-01-15T07:59:55.965379495Z,-1.11,0.56,-0.37,-1.48,0.93,3.33,2.96,2.41,3.33,3.15,3.89,6.11,5.74,6.30,,,,,,,,,,,,,,
1799999995978695074,2027-01-15T07:59:55.978695074Z,-2.78,-0.74,-0.19,-0.37,0.56,3.52,2.22,0.93,2.78,2.59,2.96,5.74,5.93,5.74,,,,,,,,,,,,,,
1799999995992010653,2027-01-15T07:59:55.992010653Z,-3.33,-0.56,0.00,1.30,2.59,2.96,3.15,1.30,1.48,2.59,2.59,4.63,6.30,6.67,,,,,,,,,,,,,,
1799999996005326232,2027-01-15T07:59:56.005326232Z,-2.78,-2.59,0.00,1.48,2.41,2.41,3.15,2.04,3.15,3.52,3.15,5.19,7.41,7.78,,,,,,,,,,,,,,
1799999996018641811,2027-01-15T07:59:56.018641811Z,-0.37,-0.74,-0.93,1.67,1.30,2.04,3.33,2.04,4.63,4.81,3.89,5.19,7.78,7.04,,,,,,,,,,,,,,
1799999996031957391,2027-01-15T07:59:56.031957391Z,-0.19,-0.37,-0.37,0.93,1.85,0.19,2.22,1.48,2.78,4.63,5.56,4.44,7.04,6.11,,,,,,,,,,,,,,
1799999996045272970,2027-01-15T07:59:56.045272970Z,0.93,0.19,0.19,0.19,-1.30,-0.37,1.67,2.04,2.22,4.81,5.00,5.74,6.30,5.19,,,,,,,,,,,,,,
1799999996058588549,2027-01-15T07:59:56.058588549Z,0.37,-1.67,0.00,0.00,-2.22,-0.19,0.56,1.48,3.52,4.63,4.81,5.37,5.56,5.93,,,,,,,,,,,,,,
1799999996071904128,2027-01-15T07:59:56.071904128Z,-0.19,0.37,-0.93,0.00,-1.11,1.11,1.48,2.96,5.00,5.37,4.44,3.89,5.19,5.93,,,,,,,,,,,,,,
1799999996085219708,2027-01-15T07:59:56.085219708Z,-1.11,-0.37,-1.11,0.74,0.19,2.41,1.48,4.07,4.44,4.81,5.37,5.56,7.59,5.74,,,,,,,,,,,,,,
1799999996098535287,2027-01-15T07:59:56.098535287Z,-0.56,0.19,-1.48,1.30,0.00,1.67,1.85,3.89,2.78,4.44,5.56,5.74,7.78,6.11,,,,,,,,,,,,,,
1799999996111850866,2027-01-15T07:59:56.111850866Z,-0.56,-0.74,-1.67,0.93,-0.19,-0.56,2.22,4.26,4.07,4.63,5.74,5.56,5.37,7.04,,,,,,,,,,,,,,
1799999996125166445,2027-01-15T07:59:56.125166445Z,-0.93,0.56,-0.74,0.93,-0.19,0.00,2.41,2.59,5.93,3.33,4.44,4.26,7.04,6.85,,,,,,,,,,,,,,
1799999996138482024,2027-01-15T07:59:56.138482024Z,-0.19,0.93,-0.19,0.93,0.93,-0.19,0.93,3.70,3.89,3.52,3.89,5.19,5.93,6.85,,,,,,,,,,,,,,
1799999996151797604,2027-01-15T07:59:56.151797604Z,-0.37,0.19,0.56,1.67,0.93,0.37,0.74,3.33,1.67,4.26,4.26,6.11,5.00,7.41,,,,,,,,,,,,,,
1799999996165113183,2027-01-15T07:59:56.165113183Z,1.11,0.56,0.19,1.67,-0.93,2.41,2.59,4.26,2.59,3.33,3.89,6.30,5.93,6.30,,,,,,,,,,,,,,
1799999996178428762,2027-01-15T07:59:56.178428762Z,-0.37,-0.56,1.11,0.93,1.11,2.41,2.59,5.19,3.70,3.52,3.15,5.74,5.74,5.19,,,,,,,,,,,,,,
1799999996191744341,2027-01-15T07:59:56.191744341Z,-0.37,-0.19,0.93,0.74,1.67,2.04,1.85,3.70,3.89,4.26,3.89,5.19,5.19,6.11,,,,,,,,,,,,,,
1799999996205059921,2027-01-15T07:59:56.205059921Z,-0.93,-0.56,0.56,0.56,3.33,2.59,2.41,5.00,3.33,4.26,3.52,5.19,5.19,7.04,,,,,,,,,,,,,,
1799999996218375500,2027-01-15T07:59:56.218375500Z,-0.74,-0.74,-0.37,0.37,4.44,1.67,1.85,3.15,3.52,5.74,4.07,5.56,5.37,5.56,,,,,,,,,,,,,,
1799999996231691079,2027-01-15T07:59:56.231691079Z,-0.56,0.56,-1.11,0.37,4.07,2.59,2.22,2.96,3.70,4.44,4.63,4.63,5.00,6.48,,,,,,,,,,,,,,
1799999996245006658,2027-01-15T07:59:56.245006658Z,-0.93,0.56,-0.93,0.56,2.22,3.15,2.04,3.52,2.78,2.59,5.37,4.44,4.81,7.22,,,,,,,,,,,,,,
1799999996258322238,2027-01-15T07:59:56.258322238Z,0.00,-0.37,-1.11,-0.56,2.96,1.85,2.04,2.59,3.33,3.33,6.85,5.37,5.00,6.30,,,,,,,,,,,,,,
1799999996271637817,2027-01-15T07:59:56.271637817Z,0.37,-0.56,0.93,-0.19,2.78,1.48,0.74,1.67,3.52,2.59,5.37,6.30,5.19,5.56,,,,,,,,,,,,,,
1799999996284953396,2027-01-15T07:59:56.284953396Z,1.11,-0.56,1.11,0.19,2.22,1.67,0.74,2.59,4.81,4.07,4.63,5.74,5.00,6.48,,,,,,,,,,,,,,
1799999996298268975,2027-01-15T07:59:56.298268975Z,-0.19,-0.74,0.93,1.48,1.85,2.96,2.22,4.07,8.15,5.19,7.41,6.30,5.93,6.30,,,,,,,,,,,,,,
1799999996311584554,2027-01-15T07:59:56.311584554Z,0.19,-0.93,0.74,2.04,0.56,1.67,2.59,3.52,6.85,5.00,7.41,5.56,5.56,5.74,,,,,,,,,,,,,,
1799999996324900134,2027-01-15T07:59:56.324900134Z,-2.22,-0.19,1.11,0.93,-2.41,1.67,3.15,2.59,3.15,3.89,3.89,6.48,5.19,6.67,,,,,,,,,,,,,,
1799999996338215713,2027-01-15T07:59:56.338215713Z,0.00,-1.85,0.74,0.00,-2.96,2.04,2.41,2.04,3.33,3.89,3.89,7.04,5.56,7.78,,,,,,,,,,,,,,
1799999996351531292,2027-01-15T07:59:56.351531292Z,0.74,0.19,0.19,0.37,0.00,0.56,3.89,2.22,6.48,4.26,4.63,4.44,5.19,7.22,,,,,,,,,,,,,,
1799999996364846871,2027-01-15T07:59:56.364846871Z,0.56,-0.19,-0.19,-0.56,2.78,0.37,4.07,1.85,5.00,3.70,4.81,3.15,5.19,6.30,,,,,,,,,,,,,,
1799999996378162451,2027-01-15T07:59:56.378162451Z,-0.74,-0.37,-1.11,-0.74,2.59,0.56,2.59,2.41,3.52,2.78,5.00,4.44,5.74,5.93,,,,,,,,,,,,,,
1799999996391478030,2027-01-15T07:59:56.391478030Z,-0.37,-0.56,-0.74,0.93,-0.56,1.11,1.85,1.48,1.48,3.52,3.70,7.04,5.19,6.30,,,,,,,,,,,,,,
1799999996404793609,2027-01-15T07:59:56.404793609Z,-1.48,-0.37,-0.74,0.37,1.48,1.48,3.33,0.93,2.41,4.26,4.44,5.93,4.81,6.67,,,,,,,,,,,,,,
1799999996418109188,2027-01-15T07:59:56.418109188Z,1.85,-0.37,-1.48,-0.74,3.89,1.11,2.59,1.85,4.63,4.44,4.44,5.19,6.67,7.78,,,,,,,,,,,,,,
1799999996431424767,2027-01-15T07:59:56.431424767Z,0.19,-0.74,-2.04,0.19,3.70,1.30,1.67,2.04,4.63,4.07,4.26,5.00,7.78,7.41,,,,,,,,,,,,,,
1799999996444740347,2027-01-15T07:59:56.444740347Z,-1.11,-3.15,-1.48,-0.74,0.74,1.67,3.33,2.78,3.89,3.70,5.37,5.19,6.85,7.04,,,,,,,,,,,,,,
1799999996458055926,2027-01-15T07:59:56.458055926Z,1.48,-3.15,-0.74,-1.48,1.30,3.52,1.85,2.78,3.89,3.89,5.37,6.11,5.93,6.11,,,,,,,,,,,,,,
1799999996471371505,2027-01-15T07:59:56.471371505Z,0.00,-1.30,-1.11,0.74,1.85,5.19,1.85,3.89,4.26,4.07,4.81,6.85,5.74,5.74,,,,,,,,,,,,,,
1799999996484687084,2027-01-15T07:59:56.484687084Z,-0.37,-1.30,-2.41,1.30,0.37,4.07,3.70,1.85,2.78,5.00,4.63,5.74,5.74,5.37,,,,,,,,,,,,,,
1799999996498002664,2027-01-15T07:59:56.498002664Z,-0.37,-1.30,0.19,0.19,0.56,2.96,3.52,0.93,0.74,4.81,4.63,4.44,5.37,5.74,,,,,,,,,,,,,,
1799999996511318243,2027-01-15T07:59:56.511318243Z,0.74,-1.11,1.30,-0.19,0.93,2.78,2.41,0.74,0.19,4.44,4.26,5.00,5.37,6.30,,,,,,,,,,,,,,
1799999996524633822,2027-01-15T07:59:56.524633822Z,-0.19,-0.37,0.00,-0.19,2.04,3.33,1.85,2.22,2.04,3.52,4.81,5.00,5.93,6.30,,,,,,,,,,,,,,
1799999996537949401,2027-01-15T07:59:56.537949401Z,-0.93,0.19,0.19,0.19,2.41,1.48,2.04,2.78,3.70,2.78,5.19,5.19,6.48,7.04,,,,,,,,,,,,,,
1799999996551264981,2027-01-15T07:59:56.551264981Z,-3.15,0.00,0.00,0.19,2.78,1.67,2.41,4.44,3.70,3.33,5.37,4.26,7.04,6.11,,,,,,,,,,,,,,
1799999996564580560,2027-01-15T07:59:56.564580560Z,-1.85,-1.85,-1.30,0.19,2.04,1.85,2.78,3.33,2.41,3.89,4.07,2.78,7.22,5.74,,,,,,,,,,,,,,
1799999996577896139,2027-01-15T07:59:56.577896139Z,1.67,-0.37,0.56,1.67,2.41,2.96,2.96,2.04,2.22,3.70,3.70,3.52,6.30,5.93,,,,,,,,,,,,,,
1799999996591211718,2027-01-15T07:59:56.591211718Z,0.93,-0.56,0.37,0.56,0.19,2.04,2.59,2.22,2.41,3.15,5.00,4.44,5.93,6.11,,,,,,,,,,,,,,
1799999996604527297,2027-01-15T07:59:56.604527297Z,-1.30,0.37,-0.74,-0.93,-1.48,0.56,2.78,3.15,4.07,3.52,5.37,7.04,5.56,6.48,,,,,,,,,,,,,,
1799999996617842877,2027-01-15T07:59:56.617842877Z,-0.74,0.56,-0.74,-0.19,-0.56,1.30,1.48,2.22,3.33,5.37,5.93,6.85,6.67,6.11,,,,,,,,,,,,,,
1799999996631158456,2027-01-15T07:59:56.631158456Z,1.85,0.37,0.74,-0.93,0.37,0.93,1.48,2.78,2.78,4.07,5.56,6.48,5.93,6.30,,,,,,,,,,,,,,
1799999996644474035,2027-01-15T07:59:56.644474035Z,-2.41,-0.19,0.93,-0.19,1.11,1.85,2.04,4.26,4.26,3.89,5.00,5.19,5.74,6.11,,,,,,,,,,,,,,
1799999996657789614,2027-01-15T07:59:56.657789614Z,-1.85,0.56,1.30,1.85,0.19,2.04,1.85,3.89,4.44,4.26,4.44,2.41,6.30,6.48,,,,,,,,,,,,,,
1799999996671105194,2027-01-15T07:59:56.671105194Z,-3.33,-0.93,0.93,2.04,-1.11,1.85,1.67,1.48,2.41,4.07,5.37,3.52,5.74,5.56,,,,,,,,,,,,,,
1799999996684420773,2027-01-15T07:59:56.684420773Z,-2.96,0.93,0.00,-0.56,1.30,1.67,3.33,1.85,3.70,4.26,5.19,4.26,5.74,6.11,,,,,,,,,,,,,,
1799999996697736352,2027-01-15T07:59:56.697736352Z,-1.48,1.30,-0.56,-2.04,1.67,2.04,4.44,4.07,5.93,4.44,4.44,5.37,5.56,6.67,,,,,,,,,,,,,,
1799999996711051931,2027-01-15T07:59:56.711051931Z,-1.85,1.30,1.48,0.00,2.04,1.30,2.04,3.89,5.74,5.00,5.19,5.19,6.11,4.81,,,,,,,,,,,,,,
1799999996724367510,2027-01-15T07:59:56.724367510Z,-3.70,-0.93,0.19,0.93,0.56,1.48,2.22,3.52,3.52,3.15,4.44,5.19,5.74,6.30,,,,,,,,,,,,,,
1799999996737683090,2027-01-15T07:59:56.737683090Z,1.11,-0.93,-0.37,1.30,0.19,2.04,3.52,4.07,2.22,3.70,3.33,5.56,5.56,8.52,,,,,,,,,,,,,,
1799999996750998669,2027-01-15T07:59:56.750998669Z,-0.74,-2.59,-0.37,1.11,1.48,2.96,1.48,2.96,2.41,4.81,2.96,4.81,7.41,7.22,,,,,,,,,,,,,,
1799999996764314248,2027-01-15T07:59:56.764314248Z,-0.74,-2.41,-0.19,1.48,2.22,1.48,2.78,4.07,4.07,4.63,4.63,5.37,6.48,7.04,,,,,,,,,,,,,,
1799999996777629827,2027-01-15T07:59:56.777629827Z,-1.85,0.37,0.19,-0.74,1.48,1.30,2.96,4.07,4.81,4.63,5.19,6.67,5.93,7.22,,,,,,,,,,,,,,
1799999996790945407,2027-01-15T07:59:56.790945407Z,0.00,-0.74,-0.19,-0.19,-0.37,1.11,1.85,3.15,2.78,4.63,4.63,7.41,6.48,7.96,,,,,,,,,,,,,,
1799999996804260986,2027-01-15T07:59:56.804260986Z,-1.85,-2.41,0.37,0.56,-1.11,0.37,-0.37,2.96,1.30,4.81,3.70,6.48,6.48,7.59,,,,,,,,,,,,,,
1799999996817576565,2027-01-15T07:59:56.817576565Z,0.19,-0.93,1.48,0.37,-0.37,1.11,1.85,3.33,2.59,4.63,3.52,6.30,6.11,6.85,,,,,,,,,,,,,,
1799999996830892144,2027-01-15T07:59:56.830892144Z,0.19,-0.37,1.85,0.00,2.96,0.19,2.78,3.33,5.19,5.00,4.63,6.67,5.00,5.93,,,,,,,,,,,,,,
1799999996844207724,2027-01-15T07:59:56.844207724Z,0.19,-0.93,1.48,2.22,4.81,0.74,0.93,4.44,6.67,4.63,4.81,6.30,5.56,6.30,,,,,,,,,,,,,,
1799999996857523303,2027-01-15T07:59:56.857523303Z,-1.48,-0.93,1.48,2.59,4.63,1.30,1.48,4.44,5.19,4.81,4.07,5.19,5.74,6.67,,,,,,,,,,,,,,
1799999996870838882,2027-01-15T07:59:56.870838882Z,-0.19,0.93,1.30,2.04,2.59,2.22,2.04,2.59,2.78,3.15,4.44,5.19,5.74,5.74,,,,,,,,,,,,,,
1799999996884154461,2027-01-15T07:59:56.884154461Z,1.11,0.19,-0.37,1.11,2.78,1.11,2.41,1.67,2.59,2.78,5.00,5.37,5.93,4.44,,,,,,,,,,,,,,
1799999996897470040,2027-01-15T07:59:56.897470040Z,0.19,-2.41,2.22,2.22,2.78,0.00,1.85,3.70,2.59,4.07,5.00,5.19,5.37,6.30,,,,,,,,,,,,,,
1799999996910785620,2027-01-15T07:59:56.910785620Z,1.11,-0.37,-0.19,1.67,0.93,2.41,1.67,3.89,3.89,4.63,4.26,5.00,5.37,7.22,,,,,,,,,,,,,,
1799999996924101199,2027-01-15T07:59:56.924101199Z,-0.74,0.37,-2.04,0.37,1.11,2.96,1.67,3.15,4.07,3.89,5.00,5.19,5.19,7.59,,,,,,,,,,,,,,
1799999996937416778,2027-01-15T07:59:56.937416778Z,-0.74,-1.48,-3.15,-0.74,2.59,1.67,1.30,3.89,3.52,3.70,5.74,5.37,5.93,6.67,,,,,,,,,,,,,,
1799999996950732357,2027-01-15T07:59:56.950732357Z,-1.48,-1.48,-2.41,0.56,2.41,1.67,2.41,4.63,3.15,3.70,6.48,4.81,6.48,6.67,,,,,,,,,,,,,,
1799999996964047937,2027-01-15T07:59:56.964047937Z,-0.93,-1.30,-2.04,1.67,0.74,2.59,3.15,4.63,2.41,3.89,6.11,4.81,6.48,7.41,,,,,,,,,,,,,,
1799999996977363516,2027-01-15T07:59:56.977363516Z,-1.48,0.00,-0.56,0.37,-0.19,1.30,1.48,2.59,1.11,4.26,4.07,6.30,8.52,6.11,,,,,,,,,,,,,,
1799999996990679095,2027-01-15T07:59:56.990679095Z,0.00,0.00,0.19,1.11,0.93,0.74,0.74,3.52,3.15,3.89,4.26,5.56,8.89,5.93,,,,,,,,,,,,,,
1799999997003994674,2027-01-15T07:59:57.003994674Z,-2.59,1.11,-0.19,0.00,0.19,0.19,2.22,3.33,5.37,3.15,5.19,5.19,7.59,5.93,,,,,,,,,,,,,,
1799999997017310253,2027-01-15T07:59:57.017310253Z,-0.93,0.00,-0.37,0.56,-1.48,1.11,3.15,2.78,3.70,2.96,5.56,4.81,6.48,6.48,,,,,,,,,,,,,,
1799999997030625833,2027-01-15T07:59:57.030625833Z,-0.74,-0.74,-0.19,2.41,0.37,3.70,2.78,2.78,2.96,4.26,4.44,5.74,3.89,8.15,,,,,,,,,,,,,,
1799999997043941412,2027-01-15T07:59:57.043941412Z,1.48,-0.37,1.30,0.19,-0.19,3.33,2.59,2.78,2.78,4.81,4.26,5.00,4.26,7.96,,,,,,,,,,,,,,
1799999997057256991,2027-01-15T07:59:57.057256991Z,-0.37,-1.30,0.74,-0.19,-1.11,2.96,2.04,2.04,2.04,4.26,4.07,5.00,5.37,6.48,,,,,,,,,,,,,,
1799999997070572570,2027-01-15T07:59:57.070572570Z,-0.74,-0.74,0.19,0.74,-2.78,3.33,4.07,2.22,1.67,3.52,4.26,6.11,5.56,4.63,,,,,,,,,,,,,,
1799999997083888150,2027-01-15T07:59:57.083888150Z,1.85,-0.37,0.00,0.00,-0.37,1.85,3.70,3.33,2.41,3.89,5.00,5.93,7.04,4.63,,,,,,,,,,,,,,
1799999997097203729,2027-01-15T07:59:57.097203729Z,-0.37,-2.41,-1.11,-0.56,0.37,1.48,2.41,2.96,3.89,4.63,5.37,5.19,7.22,6.67,,,,,,,,,,,,,,
1799999997110519308,2027-01-15T07:59:57.110519308Z,-0.19,-1.48,0.37,-0.19,1.11,3.15,2.78,2.41,3.70,5.19,4.44,5.00,6.30,7.04,,,,,,,,,,,,,,
1799999997123834887,2027-01-15T07:59:57.123834887Z,-1.30,-0.19,-0.19,0.93,-0.19,2.04,4.07,1.11,3.15,3.89,4.07,4.26,6.67,7.22,,,,,,,,,,,,,,
1799999997137150467,2027-01-15T07:59:57.137150467Z,-1.11,-1.30,-0.37,0.74,1.48,3.52,4.63,2.59,2.59,2.96,4.81,4.63,5.37,7.41,,,,,,,,,,,,,,
1799999997150466046,2027-01-15T07:59:57.150466046Z,-2.22,-2.22,0.56,0.19,2.59,3.89,3.52,3.89,2.78,3.52,5.00,4.81,5.00,7.59,,,,,,,,,,,,,,
1799999997163781625,2027-01-15T07:59:57.163781625Z,-0.93,0.74,-1.48,-0.37,2.22,1.85,2.22,2.41,2.41,3.52,5.19,4.26,5.00,6.30,,,,,,,,,,,,,,
1799999997177097204,2027-01-15T07:59:57.177097204Z,0.00,0.56,-1.48,0.74,3.33,1.11,2.59,1.67,4.44,4.63,5.74,4.81,5.93,7.22,,,,,,,,,,,,,,
1799999997190412783,2027-01-15T07:59:57.190412783Z,-1.48,0.00,-0.74,0.37,1.85,1.67,2.78,2.59,5.56,5.19,5.37,5.37,5.74,8.15,,,,,,,,,,,,,,
1799999997203728363,2027-01-15T07:59:57.203728363Z,-3.70,-0.56,-0.93,0.19,0.00,3.52,1.11,4.44,4.81,4.63,4.81,6.11,4.63,6.48,,,,,,,,,,,,,,
1799999997217043942,2027-01-15T07:59:57.217043942Z,-0.93,0.56,-1.48,0.93,-0.93,2.59,0.37,2.96,4.44,4.63,5.00,6.48,5.19,6.11,,,,,,,,,,,,,,
1799999997230359521,2027-01-15T07:59:57.230359521Z,-1.67,0.56,-1.30,1.48,0.37,1.48,0.19,1.85,4.63,4.81,4.63,6.48,5.19,5.56,,,,,,,,,,,,,,
1799999997243675100,2027-01-15T07:59:57.243675100Z,0.93,0.74,-1.30,0.56,2.22,2.04,1.48,3.52,3.15,4.44,3.70,5.93,4.81,6.30,,,,,,,,,,,,,,
1799999997256990680,2027-01-15T07:59:57.256990680Z,0.56,-0.37,-0.19,-0.37,1.48,3.15,2.22,3.33,2.96,3.70,4.63,4.44,5.19,7.78,,,,,,,,,,,,,,
1799999997270306259,2027-01-15T07:59:57.270306259Z,-0.74,0.37,0.74,-0.37,1.67,1.85,2.41,3.15,2.59,3.33,5.37,5.00,6.11,7.59,,,,,,,,,,,,,,
1799999997283621838,2027-01-15T07:59:57.283621838Z,-1.48,-0.19,0.93,-0.19,0.19,0.74,1.30,2.96,0.74,3.15,5.37,5.74,5.56,6.30,,,,,,,,,,,,,,
1799999997296937417,2027-01-15T07:59:57.296937417Z,-2.04,-0.19,-1.30,0.37,-2.78,-0.56,2.59,0.19,3.33,4.63,4.63,6.67,6.11,5.19,,,,,,,,,,,,,,
1799999997310252997,2027-01-15T07:59:57.310252997Z,-2.41,-0.56,-0.93,0.56,-0.74,-1.30,2.78,0.37,4.44,5.19,5.19,5.19,7.04,6.67,,,,,,,,,,,,,,
1799999997323568576,2027-01-15T07:59:57.323568576Z,-1.85,0.19,0.56,0.74,1.48,-1.30,2.22,2.59,4.26,5.74,5.19,5.56,7.22,6.85,,,,,,,,,,,,,,
1799999997336884155,2027-01-15T07:59:57.336884155Z,0.00,0.56,0.74,2.78,1.48,-2.04,2.22,2.96,2.59,5.56,4.81,6.67,5.37,5.56,,,,,,,,,,,,,,
1799999997350199734,2027-01-15T07:59:57.350199734Z,-0.74,2.22,-0.93,1.11,2.22,-0.37,0.37,1.30,2.96,4.44,5.00,4.81,5.19,5.93,,,,,,,,,,,,,,
1799999997363515313,2027-01-15T07:59:57.363515313Z,0.19,2.78,-0.93,0.19,1.67,1.11,1.30,1.11,3.70,4.07,5.19,5.19,5.37,6.67,,,,,,,,,,,,,,
1799999997376830893,2027-01-15T07:59:57.376830893Z,-0.37,3.33,0.19,0.37,0.74,1.85,1.48,3.33,4.07,3.89,4.26,5.56,5.93,7.04,,,,,,,,,,,,,,
1799999997390146472,2027-01-15T07:59:57.390146472Z,0.37,0.37,1.30,-0.37,2.22,1.85,0.93,5.37,5.00,4.44,4.81,4.63,5.93,6.30,,,,,,,,,,,,,,
1799999997403462051,2027-01-15T07:59:57.403462051Z,-0.93,-0.56,0.37,0.00,2.22,1.67,1.85,4.81,4.26,4.07,3.89,4.44,5.74,5.74,,,,,,,,,,,,,,
1799999997416777630,2027-01-15T07:59:57.416777630Z,0.37,-0.93,-0.37,0.00,2.22,0.74,3.33,3.89,3.15,3.70,3.70,5.00,6.30,5.19,,,,,,,,,,,,,,
1799999997430093210,2027-01-15T07:59:57.430093210Z,-1.11,-0.93,0.93,-2.04,1.48,0.37,1.48,5.56,1.67,3.33,4.26,5.93,6.67,5.56,,,,,,,,,,,,,,
1799999997443408789,2027-01-15T07:59:57.443408789Z,1.11,-1.85,1.67,-0.37,1.11,1.85,1.85,4.44,1.67,3.89,4.63,5.93,6.30,6.11,,,,,,,,,,,,,,
1799999997456724368,2027-01-15T07:59:57.456724368Z,0.00,-3.33,1.30,2.41,0.74,1.48,2.59,2.22,2.96,4.63,3.70,6.11,7.22,6.30,,,,,,,,,,,,,,
1799999997470039947,2027-01-15T07:59:57.470039947Z,-0.56,0.00,2.22,1.30,0.93,0.93,3.33,1.30,4.26,5.19,3.70,6.11,7.04,5.19,,,,,,,,,,,,,,
1799999997483355526,2027-01-15T07:59:57.483355526Z,0.74,1.30,0.56,-0.93,1.48,1.11,3.15,1.67,5.37,4.63,4.81,5.56,4.81,4.44,,,,,,,,,,,,,,
1799999997496671106,2027-01-15T07:59:57.496671106Z,0.19,-1.30,-0.19,-0.37,0.74,0.74,2.41,3.15,3.70,4.26,4.81,5.56,4.63,5.00,,,,,,,,,,,,,,
1799999997509986685,2027-01-15T07:59:57.509986685Z,0.19,-1.30,-2.59,1.48,0.74,1.30,2.59,2.96,2.78,4.81,4.07,6.11,5.37,7.22,,,,,,,,,,,,,,
1799999997523302264,2027-01-15T07:59:57.523302264Z,1.11,-0.74,-1.48,-0.19,0.93,2.59,4.63,1.85,2.78,5.74,5.93,5.74,5.37,7.59,,,,,,,,,,,,,,
1799999997536617843,2027-01-15T07:59:57.536617843Z,0.00,-0.37,-0.93,-1.85,1.67,2.22,5.00,1.48,2.59,4.63,5.00,5.00,5.37,7.22,,,,,,,,,,,,,,
1799999997549933423,2027-01-15T07:59:57.549933423Z,-2.41,-0.93,-0.37,-0.37,1.85,2.78,4.81,1.48,2.96,3.89,4.44,5.56,5.37,6.67,,,,,,,,,,,,,,
1799999997563249002,2027-01-15T07:59:57.563249002Z,-1.67,-1.30,-0.37,-0.19,0.74,2.96,4.26,3.89,5.74,3.70,5.56,6.67,5.56,6.48,,,,,,,,,,,,,,
1799999997576564581,2027-01-15T07:59:57.576564581Z,-1.11,1.11,-0.37,0.37,1.11,1.67,4.07,4.26,4.63,2.59,4.44,6.30,5.56,7.41,,,,,,,,,,,,,,
1799999997589880160,2027-01-15T07:59:57.589880160Z,0.74,0.19,0.00,0.37,0.93,2.22,3.33,2.22,3.89,2.96,3.52,4.81,5.37,8.52,,,,,,,,,,,,,,
1799999997603195740,2027-01-15T07:59:57.603195740Z,0.19,-2.59,-1.11,1.11,1.48,3.70,2.78,1.11,4.81,3.33,3.89,4.07,5.00,7.78,,,,,,,,,,,,,,
1799999997616511319,2027-01-15T07:59:57.616511319Z,-1.30,0.37,-0.74,1.11,1.48,2.59,3.70,0.37,6.85,3.70,5.19,5.19,6.11,5.93,,,,,,,,,,,,,,
1799999997629826898,2027-01-15T07:59:57.629826898Z,0.37,-0.56,-0.19,0.00,0.93,2.41,2.22,1.30,5.93,3.89,5.74,4.44,6.67,5.56,,,,,,,,,,,,,,
1799999997643142477,2027-01-15T07:59:57.643142477Z,-0.19,-0.93,-0.74,-0.37,0.19,1.85,1.48,2.96,5.37,4.07,5.56,3.89,6.85,6.30,,,,,,,,,,,,,,
1799999997656458056,2027-01-15T07:59:57.656458056Z,-2.04,-1.67,-0.93,1.67,0.00,1.11,1.48,2.59,3.33,4.44,4.81,3.89,7.04,7.22,,,,,,,,,,,,,,
1799999997669773636,2027-01-15T07:59:57.669773636Z,-3.70,-0.93,-0.74,2.22,1.11,2.59,1.48,3.15,4.44,4.63,5.37,4.07,6.48,7.41,,,,,,,,,,,,,,
1799999997683089215,2027-01-15T07:59:57.683089215Z,-2.78,-0.93,-0.56,1.11,1.85,2.22,1.30,2.78,5.00,4.44,5.37,4.63,5.56,7.04,,,,,,,,,,,,,,
1799999997696404794,2027-01-15T07:59:57.696404794Z,0.56,-1.11,0.56,0.56,0.74,0.00,0.19,1.11,5.74,3.33,4.26,4.81,4.44,6.30,,,,,,,,,,,,,,
1799999997709720373,2027-01-15T07:59:57.709720373Z,0.74,0.56,-1.48,0.56,0.56,1.48,0.00,2.22,2.59,4.44,4.63,5.74,5.93,5.37,,,,,,,,,,,,,,
1799999997723035953,2027-01-15T07:59:57.723035953Z,0.00,-0.37,-0.74,0.37,1.30,2.59,0.93,3.15,0.74,3.52,4.44,6.11,5.56,5.93,,,,,,,,,,,,,,
1799999997736351532,2027-01-15T07:59:57.736351532Z,-0.93,0.19,1.11,0.74,1.48,2.59,1.85,2.59,1.67,4.44,4.07,5.56,6.11,5.56,,,,,,,,,,,,,,
1799999997749667111,2027-01-15T07:59:57.749667111Z,-0.74,-0.56,2.22,0.93,0.74,1.85,2.78,3.15,2.78,4.44,4.44,4.81,7.04,4.44,,,,,,,,,,,,,,
1799999997762982690,2027-01-15T07:59:57.762982690Z,-0.19,-0.93,0.56,-0.37,0.19,1.30,2.04,3.33,3.33,3.52,4.81,4.63,6.85,5.74,,,,,,,,,,,,,,
1799999997776298269,2027-01-15T07:59:57.776298269Z,1.11,0.56,-0.19,-0.56,0.19,0.56,0.56,2.96,2.59,4.26,4.63,4.26,6.48,7.78,,,,,,,,,,,,,,
1799999997789613849,2027-01-15T07:59:57.789613849Z,-0.19,0.37,0.19,-0.37,1.30,0.19,0.37,2.59,3.15,4.63,5.00,3.70,5.56,7.96,,,,,,,,,,,,,,
1799999997802929428,2027-01-15T07:59:57.802929428Z,0.19,-1.11,0.93,0.93,1.67,0.74,3.33,3.52,4.07,3.89,4.81,4.81,5.56,6.85,,,,,,,,,,,,,,
1799999997816245007,2027-01-15T07:59:57.816245007Z,-1.30,-1.48,1.85,0.93,2.41,1.67,4.81,3.89,3.89,4.81,4.81,6.48,5.93,6.48,,,,,,,,,,,,,,
1799999997829560586,2027-01-15T07:59:57.829560586Z,-0.37,-0.74,0.93,0.93,1.11,1.48,3.15,2.96,4.26,5.37,5.19,6.11,6.48,6.30,,,,,,,,,,,,,,
1799999997842876166,2027-01-15T07:59:57.842876166Z,,0.00,1.30,0.74,0.37,0.93,1.85,3.33,3.89,4.07,5.19,5.19,5.74,7.22,,,,,,,,,,,,,,
1799999997856191745,2027-01-15T07:59:57.856191745Z,,-0.74,0.19,0.74,0.74,1.30,3.15,3.52,4.26,4.44,5.19,5.93,6.30,6.11,,,,,,,,,,,,,,
1799999997869507324,2027-01-15T07:59:57.869507324Z,,-0.37,-0.74,-0.19,1.30,1.11,3.89,3.33,4.81,5.00,5.00,5.37,7.04,5.74,,,,,,,,,,,,,,
1799999997882822903,2027-01-15T07:59:57.882822903Z,,-2.04,-0.19,-0.56,2.59,1.48,2.78,2.22,5.56,5.93,5.19,5.19,7.96,7.04,,,,,,,,,,,,,,
1799999997896138483,2027-01-15T07:59:57.896138483Z,,-1.11,-0.19,1.30,2.96,1.67,1.85,2.78,3.70,4.63,5.56,5.37,8.52,8.52,,,,,,,,,,,,,,
1799999997909454062,2027-01-15T07:59:57.909454062Z,,-1.11,-0.56,1.48,2.04,1.11,1.11,3.33,2.96,4.07,4.81,5.56,7.41,8.70,,,,,,,,,,,,,,
1799999997922769641,2027-01-15T07:59:57.922769641Z,,-1.30,0.00,0.00,1.30,0.37,0.93,3.33,2.04,3.89,3.33,5.74,7.04,8.15,,,,,,,,,,,,,,
1799999997936085220,2027-01-15T07:59:57.936085220Z,,-0.93,-0.19,0.74,3.70,1.48,3.52,4.26,2.41,2.22,3.70,5.19,5.00,6.67,,,,,,,,,,,,,,
1799999997949400799,2027-01-15T07:59:57.949400799Z,,-0.19,-0.93,0.56,0.37,1.67,3.15,3.33,2.41,1.85,4.26,5.93,5.74,6.11,,,,,,,,,,,,,,
1799999997962716379,2027-01-15T07:59:57.962716379Z,-7.78,0.56,-2.96,-0.37,-1.11,2.78,2.22,4.26,2.59,2.04,4.44,7.22,6.30,5.74,,,,,,,,,,,,,,
1799999997976031958,2027-01-15T07:59:57.976031958Z,-7.78,-1.11,-2.96,-0.74,2.22,3.15,1.85,3.52,5.74,3.52,4.26,7.04,6.11,6.11,,,,,,,,,,,,,,
1799999997989347537,2027-01-15T07:59:57.989347537Z,,-1.30,-2.59,-0.74,3.15,2.96,1.85,3.70,5.74,4.26,3.89,5.93,5.74,7.59,,,,,,,,,,,,,,
1799999998002663116,2027-01-15T07:59:58.002663116Z,,-1.48,-2.22,-1.85,0.74,3.70,2.04,4.81,4.07,4.26,4.07,5.00,7.22,6.67,,,,,,,,,,,,,,
1799999998015978696,2027-01-15T07:59:58.015978696Z,,-1.48,0.37,-0.74,0.37,4.26,0.93,2.78,2.59,3.15,4.63,5.19,6.48,4.26,,,,,,,,,,,,,,
1799999998029294275,2027-01-15T07:59:58.029294275Z,,-0.74,0.93,0.56,0.37,3.33,0.37,1.67,2.78,3.15,5.00,4.07,5.00,5.19,,,,,,,,,,,,,,
1799999998042609854,2027-01-15T07:59:58.042609854Z,,-1.11,0.93,2.22,0.37,2.59,1.67,1.85,4.44,3.52,5.19,3.15,5.19,6.30,,,,,,,,,,,,,,
1799999998055925433,2027-01-15T07:59:58.055925433Z,,-1.11,0.56,1.67,0.00,1.11,1.67,2.04,4.63,4.44,4.63,4.44,5.56,6.11,,,,,,,,,,,,,,
1799999998069241012,2027-01-15T07:59:58.069241012Z,,0.19,1.67,0.74,0.19,0.74,1.48,2.96,3.33,5.19,3.89,5.37,5.93,7.04,,,,,,,,,,,,,,
1799999998082556592,2027-01-15T07:59:58.082556592Z,,0.00,1.30,0.74,0.19,-0.74,1.67,3.70,2.59,5.19,4.07,6.67,7.41,7.22,,,,,,,,,,,,,,
1799999998095872171,2027-01-15T07:59:58.095872171Z,,-2.59,0.37,0.37,-0.19,-0.93,1.67,3.52,2.59,4.44,4.81,5.56,8.33,7.78,,,,,,,,,,,,,,
1799999998109187750,2027-01-15T07:59:58.109187750Z,,-2.04,0.19,0.37,1.67,1.11,1.48,3.33,2.78,3.33,4.81,3.70,5.74,6.85,,,,,,,,,,,,,,
1799999998122503329,2027-01-15T07:59:58.122503329Z,,-1.48,0.00,-0.74,2.41,1.30,2.04,3.33,2.59,3.70,5.37,4.81,5.93,7.41,,,,,,,,,,,,,,
1799999998135818909,2027-01-15T07:59:58.135818909Z,,0.00,-0.56,-1.48,2.22,4.44,2.22,3.33,2.22,4.26,5.37,5.93,5.74,7.41,,,,,,,,,,,,,,
1799999998149134488,2027-01-15T07:59:58.149134488Z,,1.48,-0.37,-0.56,0.56,5.37,2.96,4.07,2.22,4.81,4.81,5.37,5.37,6.67,,,,,,,,,,,,,,
1799999998162450067,2027-01-15T07:59:58.162450067Z,,0.00,1.30,1.11,1.11,1.48,2.04,3.15,0.93,4.44,4.81,3.52,5.19,6.48,,,,,,,,,,,,,,
1799999998175765646,2027-01-15T07:59:58.175765646Z,,1.30,0.93,0.93,0.74,0.74,2.04,2.41,0.19,4.26,5.00,4.07,5.00,7.04,,,,,,,,,,,,,,
1799999998189081226,2027-01-15T07:59:58.189081226Z,,1.30,-1.30,0.19,0.56,0.56,2.41,2.04,0.93,3.52,5.00,4.81,5.00,6.11,,,,,,,,,,,,,,
1799999998202396805,2027-01-15T07:59:58.202396805Z,,-0.19,-2.59,0.93,1.48,3.15,2.22,3.52,2.96,4.07,4.44,5.00,6.48,6.11,,,,,,,,,,,,,,
1799999998215712384,2027-01-15T07:59:58.215712384Z,,0.19,-1.67,0.37,0.93,2.22,2.41,4.63,3.70,3.70,3.15,5.93,5.19,6.67,,,,,,,,,,,,,,
1799999998229027963,2027-01-15T07:59:58.229027963Z,,-1.30,0.37,-0.56,-0.37,-0.37,2.22,3.33,4.26,3.15,2.78,6.11,4.63,7.41,,,,,,,,,,,,,,
1799999998242343542,2027-01-15T07:59:58.242343542Z,,-0.74,1.67,0.56,1.85,2.22,2.22,2.41,5.00,3.89,4.07,4.26,6.11,7.59,,,,,,,,,,,,,,
1799999998255659122,2027-01-15T07:59:58.255659122Z,,0.93,1.67,0.93,1.11,2.04,2.41,2.96,4.81,4.07,4.81,4.63,5.56,7.59,,,,,,,,,,,,,,
1799999998268974701,2027-01-15T07:59:58.268974701Z,,0.37,1.11,0.56,0.37,1.30,3.15,4.07,3.52,4.07,4.26,6.11,4.63,7.22,,,,,,,,,,,,,,
1799999998282290280,2027-01-15T07:59:58.282290280Z,,-0.56,-0.93,0.19,0.93,0.56,3.33,4.44,1.85,4.63,3.70,5.00,3.52,5.93,,,,,,,,,,,,,,
1799999998295605859,2027-01-15T07:59:58.295605859Z,,-1.30,-1.48,-0.19,1.11,0.93,2.04,4.07,1.85,4.07,4.81,6.30,4.26,5.56,,,,,,,,,,,,,,
1799999998308921439,2027-01-15T07:59:58.308921439Z,,-1.67,-0.93,0.19,1.11,1.85,1.48,3.70,2.41,3.33,6.11,6.85,7.59,5.19,,,,,,,,,,,,,,
1799999998322237018,2027-01-15T07:59:58.322237018Z,,-0.93,-1.11,0.19,1.11,2.04,1.85,4.07,3.15,3.89,5.93,7.04,8.15,4.44,,,,,,,,,,,,,,
1799999998335552597,2027-01-15T07:59:58.335552597Z,,-1.11,-0.19,1.11,1.85,0.19,2.78,3.89,4.07,4.44,4.81,5.56,6.67,6.11,,,,,,,,,,,,,,
1799999998348868176,2027-01-15T07:59:58.348868176Z,,-1.30,-0.56,0.74,2.41,2.59,1.67,3.70,3.89,5.37,5.19,5.37,3.33,6.85,,,,,,,,,,,,,,
1799999998362183755,2027-01-15T07:59:58.362183755Z,-7.78,-2.96,-0.37,0.00,2.04,4.26,2.78,4.63,3.89,5.93,4.63,5.56,4.44,6.85,,,,,,,,,,,,,,
1799999998375499335,2027-01-15T07:59:58.375499335Z,-7.78,-1.85,-0.19,-0.74,0.19,1.48,4.07,3.52,4.07,5.37,3.89,5.37,5.93,6.30,,,,,,,,,,,,,,
1799999998388814914,2027-01-15T07:59:58.388814914Z,,0.74,-2.04,0.93,0.56,1.67,2.41,2.04,2.78,4.81,5.19,5.19,7.96,5.93,,,,,,,,,,,,,,
1799999998402130493,2027-01-15T07:59:58.402130493Z,,-1.11,-1.30,0.56,0.93,2.22,1.85,2.96,2.78,4.44,4.26,5.93,6.67,5.19,,,,,,,,,,,,,,
1799999998415446072,2027-01-15T07:59:58.415446072Z,,-1.11,0.93,-0.56,1.11,2.78,1.48,2.04,2.96,4.26,4.07,6.48,4.81,5.56,,,,,,,,,,,,,,
1799999998428761652,2027-01-15T07:59:58.428761652Z,,-1.67,0.93,0.56,-0.56,1.85,1.30,2.78,3.70,4.07,4.44,5.19,5.56,7.04,,,,,,,,,,,,,,
1799999998442077231,2027-01-15T07:59:58.442077231Z,,-0.56,1.85,2.78,0.19,1.11,2.59,3.52,4.07,3.89,4.26,5.37,6.48,6.67,,,,,,,,,,,,,,
1799999998455392810,2027-01-15T07:59:58.455392810Z,,0.56,1.48,3.33,0.37,1.48,2.59,2.22,4.07,4.63,4.81,5.37,6.48,6.67,,,,,,,,,,,,,,
1799999998468708389,2027-01-15T07:59:58.468708389Z,,1.30,-0.56,0.93,-0.19,3.15,1.85,1.48,4.44,6.30,5.19,4.44,5.37,7.41,,,,,,,,,,,,,,
1799999998482023969,2027-01-15T07:59:58.482023969Z,,-1.30,0.93,0.37,0.37,3.70,2.04,2.22,4.26,6.11,5.56,4.63,5.19,5.56,,,,,,,,,,,,,,
1799999998495339548,2027-01-15T07:59:58.495339548Z,,-0.56,2.78,0.74,0.74,3.15,1.11,0.93,5.19,4.44,5.74,4.81,5.93,4.63,,,,,,,,,,,,,,
1799999998508655127,2027-01-15T07:59:58.508655127Z,,-1.48,0.93,1.11,1.11,2.59,0.56,0.56,5.56,4.26,6.67,5.00,5.93,5.56,,,,,,,,,,,,,,
1799999998521970706,2027-01-15T07:59:58.521970706Z,,-1.30,-0.93,2.59,0.00,0.74,1.30,0.74,4.26,4.26,7.22,3.33,4.63,6.67,,,,,,,,,,,,,,
1799999998535286285,2027-01-15T07:59:58.535286285Z,,-1.11,-1.30,1.30,-0.19,-0.19,1.85,0.74,2.78,3.89,6.30,4.63,5.56,6.67,,,,,,,,,,,,,,
1799999998548601865,2027-01-15T07:59:58.548601865Z,,-0.19,-1.67,-0.37,0.56,0.56,2.59,1.11,2.22,4.26,4.63,5.93,6.30,7.59,,,,,,,,,,,,,,
1799999998561917444,2027-01-15T07:59:58.561917444Z,,0.37,-2.41,-1.11,1.85,2.59,0.93,1.85,3.33,5.19,4.63,5.00,6.85,6.67,,,,,,,,,,,,,,
1799999998575233023,2027-01-15T07:59:58.575233023Z,,-0.19,-1.85,0.56,1.85,2.78,1.11,2.22,1.85,4.81,3.52,5.74,6.48,5.56,,,,,,,,,,,,,,
1799999998588548602,2027-01-15T07:59:58.588548602Z,,-0.56,-0.37,0.37,0.37,2.59,2.96,3.70,2.22,2.96,3.33,6.48,5.93,5.00,,,,,,,,,,,,,,
1799999998601864182,2027-01-15T07:59:58.601864182Z,,-1.48,0.74,-0.56,0.00,2.22,4.07,4.07,3.15,2.22,3.33,6.67,5.19,4.63,,,,,,,,,,,,,,
1799999998615179761,2027-01-15T07:59:58.615179761Z,,-1.30,0.37,-1.11,0.19,0.37,5.00,2.96,3.52,2.41,4.44,5.74,4.44,5.19,,,,,,,,,,,,,,
1799999998628495340,2027-01-15T07:59:58.628495340Z,,-1.85,-0.56,0.00,0.37,0.74,4.63,2.41,4.26,3.33,5.19,5.37,4.81,5.37,,,,,,,,,,,,,,
1799999998641810919,2027-01-15T07:59:58.641810919Z,,-0.37,-1.11,0.19,0.56,1.11,4.07,1.85,4.63,4.63,5.37,5.37,5.00,6.11,,,,,,,,,,,,,,
1799999998655126499,2027-01-15T07:59:58.655126499Z,,-0.19,0.93,0.56,0.19,1.85,3.89,1.67,3.70,2.78,4.26,4.63,7.22,6.85,,,,,,,,,,,,,,
1799999998668442078,2027-01-15T07:59:58.668442078Z,,-0.56,-0.37,1.85,-0.56,0.93,4.07,1.85,2.22,3.52,3.70,4.63,7.96,5.74,,,,,,,,,,,,,,
1799999998681757657,2027-01-15T07:59:58.681757657Z,,-1.48,-0.93,2.04,1.11,0.37,3.89,2.22,2.59,4.44,4.26,4.26,7.41,5.74,,,,,,,,,,,,,,
1799999998695073236,2027-01-15T07:59:58.695073236Z,,-0.37,-0.37,-0.56,2.59,1.11,3.70,4.26,4.81,5.19,4.26,5.56,7.59,7.22,,,,,,,,,,,,,,
1799999998708388815,2027-01-15T07:59:58.708388815Z,,-0.37,-1.11,-0.74,1.85,0.37,2.59,3.15,3.89,4.44,5.19,4.26,6.11,6.85,,,,,,,,,,,,,,
1799999998721704395,2027-01-15T07:59:58.721704395Z,,-0.56,-0.93,1.85,-0.74,-1.11,2.04,2.59,3.89,3.52,5.37,4.26,5.19,7.22,,,,,,,,,,,,,,
1799999998735019974,2027-01-15T07:59:58.735019974Z,,0.37,-1.85,2.59,0.37,1.11,2.41,3.52,5.00,3.52,5.00,5.56,4.81,7.22,,,,,,,,,,,,,,
1799999998748335553,2027-01-15T07:59:58.748335553Z,,0.93,-0.56,1.85,1.67,2.78,3.70,2.41,4.63,4.26,4.81,4.63,5.19,5.74,,,,,,,,,,,,,,
1799999998761651132,2027-01-15T07:59:58.761651132Z,,0.56,0.56,0.00,1.48,2.22,4.26,3.52,3.33,4.26,4.07,5.19,5.93,6.67,,,,,,,,,,,,,,
1799999998774966712,2027-01-15T07:59:58.774966712Z,,0.19,-0.93,-1.30,1.85,0.74,3.89,2.59,4.07,3.33,3.15,5.56,6.11,7.04,,,,,,,,,,,,,,
1799999998788282291,2027-01-15T07:59:58.788282291Z,,0.93,0.19,-1.30,0.37,0.00,3.89,2.96,3.33,3.15,2.59,5.74,5.74,6.48,,,,,,,,,,,,,,
1799999998801597870,2027-01-15T07:59:58.801597870Z,,0.56,0.19,0.19,0.56,2.04,2.96,4.26,4.81,3.33,3.52,6.11,6.11,5.93,,,,,,,,,,,,,,
1799999998814913449,2027-01-15T07:59:58.814913449Z,,1.30,1.48,1.48,2.04,3.52,2.22,2.41,4.81,4.07,4.63,4.81,6.11,6.48,,,,,,,,,,,,,,
1799999998828229028,2027-01-15T07:59:58.828229028Z,,2.04,1.11,1.67,2.22,4.44,2.22,1.11,4.81,4.07,5.00,4.63,6.67,7.78,,,,,,,,,,,,,,
1799999998841544608,2027-01-15T07:59:58.841544608Z,,-1.48,-0.19,1.67,1.11,1.30,0.93,2.59,4.26,4.26,3.33,5.00,6.48,6.48,,,,,,,,,,,,,,
1799999998854860187,2027-01-15T07:59:58.854860187Z,,-0.56,-0.93,1.48,0.19,-0.93,0.93,2.78,4.07,4.44,4.07,4.63,10.74,6.67,,,,,,,,,,,,,,
1799999998868175766,2027-01-15T07:59:58.868175766Z,,-3.15,0.00,0.19,-0.93,0.93,0.74,2.41,2.41,4.26,5.56,3.89,11.85,7.04,,,,,,,,,,,,,,
1799999998881491345,2027-01-15T07:59:58.881491345Z,,-0.56,1.30,-0.37,-1.67,2.96,1.11,2.59,3.33,4.44,4.63,4.81,6.11,9.07,,,,,,,,,,,,,,
1799999998894806925,2027-01-15T07:59:58.894806925Z,,-4.81,0.19,0.00,-0.56,3.33,1.85,3.15,3.70,4.44,4.07,5.56,3.89,9.26,,,,,,,,,,,,,,
1799999998908122504,2027-01-15T07:59:58.908122504Z,,-4.63,-0.56,0.74,1.11,2.78,2.04,3.70,3.89,4.63,4.44,4.63,5.74,8.70,,,,,,,,,,,,,,
1799999998921438083,2027-01-15T07:59:58.921438083Z,-8.33,-4.81,-1.48,-0.37,1.11,0.19,1.67,5.19,2.41,4.63,5.56,5.00,6.85,7.04,,,,,,,,,,,,,,
1799999998934753662,2027-01-15T07:59:58.934753662Z,-8.89,-1.11,-1.85,-1.30,1.85,0.00,0.93,3.89,2.04,3.70,4.26,5.93,6.30,6.48,,,,,,,,,,,,,,
1799999998948069242,2027-01-15T07:59:58.948069242Z,,-0.56,-1.85,-1.11,1.48,0.37,0.37,5.56,2.78,3.52,4.44,5.74,5.93,6.48,,,,,,,,,,,,,,
1799999998961384821,2027-01-15T07:59:58.961384821Z,,-4.07,-1.30,-0.93,0.56,0.93,1.11,5.56,3.15,4.07,5.56,5.56,6.30,7.04,,,,,,,,,,,,,,
1799999998974700400,2027-01-15T07:59:58.974700400Z,,-3.15,-1.30,-0.93,1.48,3.70,3.15,1.48,4.81,5.19,6.30,5.74,4.63,7.59,,,,,,,,,,,,,,
1799999998988015979,2027-01-15T07:59:58.988015979Z,,0.37,-0.93,-1.67,2.96,3.52,2.96,3.52,4.07,5.93,5.19,6.48,6.11,7.41,,,,,,,,,,,,,,
1799999999001331558,2027-01-15T07:59:59.001331558Z,,0.19,-0.93,-0.19,3.52,3.33,1.30,4.07,4.26,6.11,4.63,5.37,6.67,6.30,,,,,,,,,,,,,,
1799999999014647138,2027-01-15T07:59:59.014647138Z,,0.00,-0.19,1.30,2.04,1.11,1.48,3.33,3.70,6.85,6.11,4.63,5.93,6.48,,,,,,,,,,,,,,
1799999999027962717,2027-01-15T07:59:59.027962717Z,,-0.93,-1.11,1.48,2.22,-0.37,1.85,3.33,3.33,5.37,5.56,5.00,5.74,7.59,,,,,,,,,,,,,,
1799999999041278296,2027-01-15T07:59:59.041278296Z,,3.33,-0.56,2.04,1.11,-1.30,1.85,2.78,3.70,2.78,5.74,6.67,5.56,7.59,,,,,,,,,,,,,,
1799999999054593875,2027-01-15T07:59:59.054593875Z,,3.52,1.48,1.85,0.56,0.56,1.30,2.78,3.15,2.78,5.93,5.93,5.00,7.78,,,,,,,,,,,,,,
1799999999067909455,2027-01-15T07:59:59.067909455Z,,2.22,2.78,-0.19,1.48,3.70,1.48,2.96,2.96,4.07,4.26,6.11,4.44,6.85,,,,,,,,,,,,,,
1799999999081225034,2027-01-15T07:59:59.081225034Z,,-1.30,0.74,0.74,2.22,2.04,2.22,2.41,3.15,3.70,4.44,6.48,4.81,6.30,,,,,,,,,,,,,,
1799999999094540613,2027-01-15T07:59:59.094540613Z,,-0.93,0.56,2.41,1.11,0.19,2.41,2.04,3.15,3.15,4.63,5.56,5.00,5.37,,,,,,,,,,,,,,
1799999999107856192,2027-01-15T07:59:59.107856192Z,,-0.93,0.37,2.22,-0.19,2.04,4.26,2.22,1.85,2.96,5.00,5.56,6.11,4.81,,,,,,,,,,,,,,
1799999999121171771,2027-01-15T07:59:59.121171771Z,,1.48,0.56,1.30,0.00,1.30,3.70,2.59,1.85,2.96,3.89,6.48,5.56,5.74,,,,,,,,,,,,,,
1799999999134487351,2027-01-15T07:59:59.134487351Z,,-0.19,0.74,1.67,0.56,0.56,2.78,3.70,3.70,2.96,3.33,6.11,4.26,6.30,,,,,,,,,,,,,,
1799999999147802930,2027-01-15T07:59:59.147802930Z,,0.37,2.59,0.74,2.96,2.96,0.93,2.78,2.96,4.07,5.00,4.63,5.74,6.30,,,,,,,,,,,,,,
1799999999161118509,2027-01-15T07:59:59.161118509Z,,-0.19,2.41,1.30,2.59,4.26,1.11,2.22,2.78,4.26,6.11,5.93,5.74,7.41,,,,,,,,,,,,,,
1799999999174434088,2027-01-15T07:59:59.174434088Z,,0.93,1.30,0.93,2.59,1.11,1.67,2.59,2.41,4.44,6.85,4.63,6.67,5.74,,,,,,,,,,,,,,
1799999999187749668,2027-01-15T07:59:59.187749668Z,,1.48,0.74,1.11,3.33,0.00,0.93,0.93,2.78,4.81,6.11,3.89,7.59,5.56,,,,,,,,,,,,,,
1799999999201065247,2027-01-15T07:59:59.201065247Z,,1.11,-0.37,2.41,2.96,1.67,2.22,0.74,3.33,3.33,3.89,5.00,6.30,7.96,,,,,,,,,,,,,,
1799999999214380826,2027-01-15T07:59:59.214380826Z,,2.59,-0.19,2.22,2.59,0.93,2.59,0.93,2.96,2.59,5.00,5.37,6.11,7.22,,,,,,,,,,,,,,
1799999999227696405,2027-01-15T07:59:59.227696405Z,,4.26,-0.56,3.15,1.85,0.56,3.33,0.74,3.70,3.15,4.81,4.26,6.48,5.00,,,,,,,,,,,,,,
1799999999241011985,2027-01-15T07:59:59.241011985Z,,-0.74,-1.67,3.70,1.30,0.56,2.59,0.37,4.63,3.52,5.00,4.07,7.59,5.74,,,,,,,,,,,,,,
1799999999254327564,2027-01-15T07:59:59.254327564Z,,0.74,0.00,3.33,1.11,0.74,1.48,1.85,3.70,3.33,5.74,5.56,7.04,6.11,,,,,,,,,,,,,,
1799999999267643143,2027-01-15T07:59:59.267643143Z,,1.30,-0.93,1.11,0.37,1.30,0.56,2.96,3.89,3.52,5.74,6.30,6.30,6.67,,,,,,,,,,,,,,
1799999999280958722,2027-01-15T07:59:59.280958722Z,,-0.93,-1.30,1.11,-0.56,3.33,1.48,2.04,3.70,4.26,5.93,5.00,4.81,5.00,,,,,,,,,,,,,,
1799999999294274301,2027-01-15T07:59:59.294274301Z,,-1.85,-0.56,1.48,-0.37,2.78,2.04,3.15,3.15,4.26,5.56,5.37,4.44,5.37,,,,,,,,,,,,,,
1799999999307589881,2027-01-15T07:59:59.307589881Z,,-2.22,-1.67,0.56,0.56,1.11,1.67,4.07,3.89,3.70,4.44,5.74,5.00,6.85,,,,,,,,,,,,,,
1799999999320905460,2027-01-15T07:59:59.320905460Z,,-2.59,-1.85,0.19,0.93,0.93,1.48,4.26,4.26,3.89,2.96,6.30,4.63,5.56,,,,,,,,,,,,,,
1799999999334221039,2027-01-15T07:59:59.334221039Z,-7.96,-5.56,0.74,0.37,1.11,0.56,2.22,4.07,3.33,3.70,3.89,5.19,6.85,6.11,,,,,,,,,,,,,,
1799999999347536618,2027-01-15T07:59:59.347536618Z,-7.96,-5.56,0.19,-1.67,0.93,1.85,3.33,3.89,5.00,3.70,4.26,5.56,7.78,6.85,,,,,,,,,,,,,,
1799999999360852198,2027-01-15T07:59:59.360852198Z,-9.81,-1.67,-0.37,-3.33,3.15,3.33,3.33,3.33,5.19,3.89,3.70,4.63,6.85,6.67,,,,,,,,,,,,,,
1799999999374167777,2027-01-15T07:59:59.374167777Z,-8.33,-2.59,-0.93,-2.41,3.15,4.63,5.19,3.52,2.78,4.26,3.70,3.70,5.74,5.93,,,,,,,,,,,,,,
1799999999387483356,2027-01-15T07:59:59.387483356Z,-7.41,-2.41,-0.93,-3.89,2.41,4.26,3.70,4.44,2.78,4.26,4.07,2.59,5.37,5.56,,,,,,,,,,,,,,
1799999999400798935,2027-01-15T07:59:59.400798935Z,-8.52,-4.07,-1.67,-2.96,0.74,3.52,2.59,6.11,4.44,5.19,4.44,2.96,4.81,5.19,,,,,,,,,,,,,,
1799999999414114514,2027-01-15T07:59:59.414114514Z,-8.33,-0.37,-1.30,-1.67,0.93,2.96,2.41,6.85,5.19,5.74,3.15,5.00,5.74,5.93,,,,,,,,,,,,,,
1799999999427430094,2027-01-15T07:59:59.427430094Z,-7.96,0.00,-0.56,-0.74,1.30,2.22,3.70,4.44,4.63,5.19,2.04,5.19,6.48,6.11,,,,,,,,,,,,,,
1799999999440745673,2027-01-15T07:59:59.440745673Z,-7.96,1.30,0.37,-0.19,1.30,1.48,3.15,3.52,3.89,4.44,2.59,6.48,6.85,6.30,,,,,,,,,,,,,,
1799999999454061252,2027-01-15T07:59:59.454061252Z,,0.00,0.56,0.00,0.74,0.74,2.41,3.70,2.41,4.44,5.37,7.59,7.41,6.48,,,,,,,,,,,,,,
1799999999467376831,2027-01-15T07:59:59.467376831Z,,-2.41,0.74,-0.19,0.37,0.19,1.30,2.41,5.00,4.81,6.11,6.11,7.41,7.04,,,,,,,,,,,,,,
1799999999480692411,2027-01-15T07:59:59.480692411Z,,-0.37,1.67,0.00,1.11,2.59,1.30,2.04,4.81,4.44,5.74,5.56,7.96,6.67,,,,,,,,,,,,,,
1799999999494007990,2027-01-15T07:59:59.494007990Z,,-1.11,1.48,-0.19,0.37,1.30,1.11,2.22,4.07,4.44,5.56,5.37,7.22,7.22,,,,,,,,,,,,,,
1799999999507323569,2027-01-15T07:59:59.507323569Z,,-0.19,0.56,-0.37,0.00,-0.93,0.93,2.96,3.70,3.52,5.56,6.30,6.11,8.15,,,,,,,,,,,,,,
1799999999520639148,2027-01-15T07:59:59.520639148Z,,2.41,1.67,1.30,0.37,-1.67,1.30,3.70,3.33,3.89,5.37,6.30,5.19,6.85,,,,,,,,,,,,,,
1799999999533954728,2027-01-15T07:59:59.533954728Z,,2.78,1.48,2.04,0.37,0.56,2.22,3.33,1.67,4.63,5.37,5.56,5.37,7.59,,,,,,,,,,,,,,
1799999999547270307,2027-01-15T07:59:59.547270307Z,,3.52,1.85,2.22,-0.93,2.41,2.41,1.85,1.48,4.26,4.81,5.00,6.30,7.96,,,,,,,,,,,,,,
1799999999560585886,2027-01-15T07:59:59.560585886Z,,3.33,1.85,1.30,-0.37,4.26,3.15,0.00,4.26,2.96,4.63,3.15,5.74,6.85,,,,,,,,,,,,,,
1799999999573901465,2027-01-15T07:59:59.573901465Z,,3.52,1.30,2.41,0.19,2.96,3.70,-0.93,5.56,2.41,5.74,5.74,5.74,6.30,,,,,,,,,,,,,,
1799999999587217044,2027-01-15T07:59:59.587217044Z,,1.67,1.11,3.52,1.48,1.30,3.89,-1.48,4.63,2.96,4.81,7.22,5.37,6.30,,,,,,,,,,,,,,
1799999999600532624,2027-01-15T07:59:59.600532624Z,,1.67,1.48,1.30,0.93,2.96,0.56,0.19,1.30,3.70,4.26,6.67,6.48,5.74,,,,,,,,,,,,,,
1799999999613848203,2027-01-15T07:59:59.613848203Z,,-0.37,0.74,1.85,1.30,2.59,0.93,2.41,2.22,3.89,5.19,5.93,5.74,4.81,,,,,,,,,,,,,,
1799999999627163782,2027-01-15T07:59:59.627163782Z,,1.48,0.19,2.04,2.41,1.48,1.11,2.59,3.52,4.63,5.19,4.81,4.26,4.81,,,,,,,,,,,,,,
1799999999640479361,2027-01-15T07:59:59.640479361Z,,-0.37,-0.37,1.30,1.30,1.30,1.48,2.96,2.78,5.56,4.07,4.81,4.63,6.11,,,,,,,,,,,,,,
1799999999653794941,2027-01-15T07:59:59.653794941Z,,-1.11,-1.48,0.93,2.04,1.11,1.30,2.22,2.96,4.07,5.93,5.56,5.19,7.96,,,,,,,,,,,,,,
1799999999667110520,2027-01-15T07:59:59.667110520Z,,-1.30,-1.30,0.74,2.41,1.48,1.11,1.67,3.70,3.89,6.67,5.37,5.37,7.41,,,,,,,,,,,,,,
1799999999680426099,2027-01-15T07:59:59.680426099Z,,0.56,-1.48,0.93,1.48,2.04,0.56,1.11,5.19,3.15,5.37,5.00,5.00,7.59,,,,,,,,,,,,,,
1799999999693741678,2027-01-15T07:59:59.693741678Z,,1.67,-1.67,0.19,0.74,0.37,2.59,2.78,3.70,3.70,4.26,5.00,5.56,7.78,,,,,,,,,,,,,,
1799999999707057257,2027-01-15T07:59:59.707057257Z,,1.85,-1.48,-0.93,0.56,0.37,3.52,4.81,3.70,3.89,4.07,5.19,5.74,7.04,,,,,,,,,,,,,,
1799999999720372837,2027-01-15T07:59:59.720372837Z,-7.41,-1.11,-2.22,-0.56,-0.19,2.04,4.07,5.56,4.44,3.52,4.07,6.48,4.63,5.56,,,,,,,,,,,,,,
1799999999733688416,2027-01-15T07:59:59.733688416Z,-7.78,-2.96,-1.11,0.19,-0.74,3.89,4.07,4.81,6.30,3.70,4.63,6.85,3.89,5.00,,,,,,,,,,,,,,
1799999999747003995,2027-01-15T07:59:59.747003995Z,-7.78,-1.30,0.74,-0.74,-0.37,4.44,2.41,6.11,4.07,2.59,3.89,5.56,5.00,5.93,,,,,,,,,,,,,,
1799999999760319574,2027-01-15T07:59:59.760319574Z,-7.41,-0.37,0.37,-1.48,2.41,2.22,1.67,5.19,2.96,2.59,4.07,5.56,5.93,6.85,,,,,,,,,,,,,,
1799999999773635154,2027-01-15T07:59:59.773635154Z,,-2.22,-0.19,-2.41,2.04,0.00,2.04,3.33,2.04,3.70,4.07,5.93,7.04,6.85,,,,,,,,,,,,,,
1799999999786950733,2027-01-15T07:59:59.786950733Z,-7.41,-2.41,-1.11,-0.37,-0.19,0.19,2.78,2.96,2.96,5.19,4.44,5.37,6.48,5.74,,,,,,,,,,,,,,
1799999999800266312,2027-01-15T07:59:59.800266312Z,-8.52,-2.41,-1.11,-1.11,0.00,1.85,3.52,4.63,3.15,5.74,5.19,4.63,6.48,5.74,,,,,,,,,,,,,,
1799999999813581891,2027-01-15T07:59:59.813581891Z,-8.70,-0.93,-1.30,-0.93,0.74,1.48,3.15,4.81,3.89,5.37,5.19,5.19,5.74,6.67,,,,,,,,,,,,,,
1799999999826897471,2027-01-15T07:59:59.826897471Z,-8.52,-3.89,-1.30,0.37,0.56,2.96,1.67,4.07,2.41,3.70,4.07,5.00,4.81,7.59,,,,,,,,,,,,,,
1799999999840213050,2027-01-15T07:59:59.840213050Z,-8.89,-1.85,-1.30,0.19,0.74,2.04,2.41,4.07,1.48,4.26,4.63,4.26,5.56,7.59,,,,,,,,,,,,,,
1799999999853528629,2027-01-15T07:59:59.853528629Z,-7.41,-2.41,0.00,0.19,0.74,0.56,2.96,4.26,0.56,4.81,4.26,5.93,6.30,7.41,,,,,,,,,,,,,,
1799999999866844208,2027-01-15T07:59:59.866844208Z,-7.41,-2.78,-0.74,-0.19,0.56,-0.56,3.33,2.41,1.30,4.07,4.07,5.93,5.56,7.22,,,,,,,,,,,,,,
1799999999880159787,2027-01-15T07:59:59.880159787Z,-7.96,-4.26,-1.30,-0.56,2.59,0.56,4.07,4.07,4.63,5.19,3.70,5.93,5.00,7.22,,,,,,,,,,,,,,
1799999999893475367,2027-01-15T07:59:59.893475367Z,-7.78,-2.04,-0.56,-0.74,3.15,1.48,2.96,4.63,4.81,4.26,3.33,4.63,4.81,6.67,,,,,,,,,,,,,,
1799999999906790946,2027-01-15T07:59:59.906790946Z,,-4.26,0.00,-1.11,2.22,1.85,3.52,4.63,5.00,3.70,3.52,5.19,5.00,6.30,,,,,,,,,,,,,,
1799999999920106525,2027-01-15T07:59:59.920106525Z,,-3.52,1.11,-2.96,2.04,3.70,4.26,2.22,4.44,3.70,4.44,6.30,6.48,6.11,,,,,,,,,,,,,,
1799999999933422104,2027-01-15T07:59:59.933422104Z,,-2.96,-0.74,-1.11,3.15,2.41,5.56,2.22,3.15,3.70,5.19,5.93,6.48,7.41,,,,,,,,,,,,,,
1799999999946737684,2027-01-15T07:59:59.946737684Z,,0.00,-1.67,-0.19,2.41,3.70,5.19,2.96,4.07,3.33,4.81,5.37,6.67,7.96,,,,,,,,,,,,,,
1799999999960053263,2027-01-15T07:59:59.960053263Z,,0.37,-0.19,0.74,0.93,4.44,3.89,3.15,3.52,3.89,4.44,6.11,6.85,7.41,,,,,,,,,,,,,,
1799999999973368842,2027-01-15T07:59:59.973368842Z,,-0.19,0.93,-0.19,1.30,3.52,2.41,2.78,3.15,5.00,5.56,5.93,6.85,7.96,,,,,,,,,,,,,,
1799999999986684421,2027-01-15T07:59:59.986684421Z,,1.67,2.04,1.30,2.04,1.67,0.93,1.85,2.59,4.07,5.37,4.63,6.67,7.59,,,,,,,,,,,,,,
