# spacing_uv=20.0
timestamp_ns,timestamp_iso,AF3,F7,F3,FC5,T7,P7,O1,O2,P8,T8,FC6,F4,F8,AF4,AF3_q,F7_q,F3_q,FC5_q,T7_q,P7_q,O1_q,O2_q,P8_q,T8_q,FC6_q,F4_q,F8_q,AF4_q
1799999990000000000,2027-01-15T07:59:50.000000000Z,,,,,,,,,,,,,,,,,,,,,,,,,,,,
1799999990012484395,2027-01-15T07:59:50.012484395Z,2.55,-0.43,-0.43,-1.70,0.21,1.28,2.34,1.70,6.81,3.19,9.36,3.62,4.89,6.38,,,,,,,,,,,,,,
1799999990024968790,2027-01-15T07:59:50.024968790Z,1.49,1.28,0.21,-1.49,-0.21,1.91,2.55,2.34,5.96,4.04,7.02,4.26,4.89,8.09,,,,,,,,,,,,,,
1799999990037453184,2027-01-15T07:59:50.037453184Z,0.21,0.85,1.28,0.43,0.85,1.49,3.83,4.68,4.04,5.96,4.68,6.81,4.89,9.57,,,,,,,,,,,,,,
1799999990049937579,2027-01-15T07:59:50.049937579Z,0.85,-0.43,-0.21,-0.43,1.06,1.49,2.98,4.47,4.26,5.53,5.11,6.38,5.96,7.45,,,,,,,,,,,,,,
1799999990062421973,2027-01-15T07:59:50.062421973Z,1.06,0.00,-0.64,-1.28,0.64,2.13,2.34,4.26,5.11,5.32,5.96,5.96,6.17,5.74,,,,,,,,,,,,,,
1799999990074906368,2027-01-15T07:59:50.074906368Z,-0.85,1.70,-0.21,-0.21,-0.21,1.91,2.34,5.11,4.47,5.74,6.17,6.81,7.87,5.53,,,,,,,,,,,,,,
1799999990087390762,2027-01-15T07:59:50.087390762Z,-1.28,1.06,1.06,-0.64,0.00,1.28,1.91,4.04,3.40,5.32,5.74,6.17,7.02,6.60,,,,,,,,,,,,,,
1799999990099875157,2027-01-15T07:59:50.099875157Z,-3.40,-1.70,2.34,-0.21,-0.85,1.91,2.77,3.83,2.13,4.47,3.83,5.74,6.81,5.74,,,,,,,,,,,,,,
1799999990112359551,2027-01-15T07:59:50.112359551Z,-3.19,-2.34,0.21,0.64,-0.85,3.19,3.40,4.47,3.19,3.83,2.55,6.60,5.32,6.38,,,,,,,,,,,,,,
1799999990124843946,2027-01-15T07:59:50.124843946Z,1.28,-2.55,-1.91,0.43,-0.64,4.26,3.19,3.40,1.91,4.26,3.83,7.23,4.89,6.60,,,,,,,,,,,,,,
1799999990137328340,2027-01-15T07:59:50.137328340Z,-1.28,0.00,-2.77,-0.64,0.21,2.77,4.26,3.62,1.06,4.89,6.17,5.96,4.26,7.45,,,,,,,,,,,,,,
1799999990149812735,2027-01-15T07:59:50.149812735Z,-1.91,0.64,-2.55,-1.06,-0.21,1.91,4.89,3.83,1.70,5.11,5.96,5.32,5.11,8.51,,,,,,,,,,,,,,
1799999990162297129,2027-01-15T07:59:50.162297129Z,-0.85,0.43,1.49,0.85,2.13,2.98,4.89,3.19,3.40,4.89,5.32,6.38,5.11,7.87,,,,,,,,,,,,,,
1799999990174781524,2027-01-15T07:59:50.174781524Z,0.64,0.00,1.49,0.64,3.83,4.04,4.47,2.98,3.40,5.11,6.17,6.81,6.60,6.17,,,,,,,,,,,,,,
1799999990187265918,2027-01-15T07:59:50.187265918Z,1.06,-0.21,0.85,1.06,4.47,3.83,3.83,3.62,4.04,5.11,6.38,6.60,7.02,6.60,,,,,,,,,,,,,,
1799999990199750313,2027-01-15T07:59:50.199750313Z,-0.21,0.64,2.77,0.21,2.13,2.55,2.98,5.32,2.77,2.98,4.68,7.66,7.02,7.02,,,,,,,,,,,,,,
1799999990212234707,2027-01-15T07:59:50.212234707Z,-0.43,0.00,1.91,-0.85,0.00,2.98,3.19,5.96,2.13,3.83,3.62,7.23,7.87,5.96,,,,,,,,,,,,,,
1799999990224719102,2027-01-15T07:59:50.224719102Z,-2.34,-1.91,-0.64,0.64,0.43,1.28,1.28,4.26,2.77,5.53,5.53,5.96,7.23,6.60,,,,,,,,,,,,,,
1799999990237203496,2027-01-15T07:59:50.237203496Z,-1.28,-2.13,-1.91,1.28,0.00,0.00,1.91,2.98,3.40,5.11,6.17,5.11,8.09,7.66,,,,,,,,,,,,,,
1799999990249687891,2027-01-15T07:59:50.249687891Z,0.64,-1.91,-0.85,0.64,0.85,0.21,3.83,2.34,2.34,3.83,7.45,5.74,7.87,7.02,,,,,,,,,,,,,,
1799999990262172285,2027-01-15T07:59:50.262172285Z,0.85,-0.43,0.43,1.70,1.28,1.28,2.13,0.85,3.19,3.40,6.60,8.09,5.53,8.09,,,,,,,,,,,,,,
1799999990274656680,2027-01-15T07:59:50.274656680Z,-2.55,-0.43,0.21,2.34,0.64,0.43,1.70,0.21,4.04,3.83,5.74,7.45,5.53,7.87,,,,,,,,,,,,,,
1799999990287141074,2027-01-15T07:59:50.287141074Z,-1.70,-1.49,0.21,2.77,1.28,-0.43,2.77,1.06,2.98,3.83,5.53,6.60,7.02,6.81,,,,,,,,,,,,,,
1799999990299625469,2027-01-15T07:59:50.299625469Z,1.06,0.21,1.06,1.49,2.13,1.70,3.19,1.70,4.04,4.26,5.74,5.96,7.45,7.02,,,,,,,,,,,,,,
1799999990312109863,2027-01-15T07:59:50.312109863Z,1.06,0.21,1.70,1.28,2.55,2.55,2.55,2.55,4.47,4.47,4.26,5.32,7.45,7.45,,,,,,,,,,,,,,
1799999990324594258,2027-01-15T07:59:50.324594258Z,-1.70,-0.64,0.00,1.70,0.85,2.34,2.98,4.47,4.04,4.26,2.98,5.11,5.74,7.66,,,,,,,,,,,,,,
1799999990337078652,2027-01-15T07:59:50.337078652Z,0.85,-0.64,-1.91,3.19,0.43,2.34,3.19,2.98,4.68,4.89,3.62,6.38,5.53,7.45,,,,,,,,,,,,,,
1799999990349563047,2027-01-15T07:59:50.349563047Z,-0.64,-0.85,-2.13,1.49,1.06,2.13,3.62,2.34,5.74,4.68,5.96,7.45,6.81,7.45,,,,,,,,,,,,,,
1799999990362047441,2027-01-15T07:59:50.362047441Z,1.06,-1.28,0.43,1.28,2.34,2.77,1.91,2.13,5.74,3.62,5.74,7.02,7.02,6.60,,,,,,,,,,,,,,
1799999990374531836,2027-01-15T07:59:50.374531836Z,1.06,-1.28,1.49,1.70,3.83,2.55,0.85,1.49,5.96,4.04,4.68,6.38,6.81,6.17,,,,,,,,,,,,,,
1799999990387016230,2027-01-15T07:59:50.387016230Z,0.21,0.64,1.49,0.85,3.40,2.55,0.85,4.68,4.47,5.11,4.89,7.87,7.23,6.60,,,,,,,,,,,,,,
1799999990399500625,2027-01-15T07:59:50.399500625Z,1.06,0.43,-0.21,1.06,3.40,3.40,0.64,4.26,2.98,4.68,4.89,8.94,7.87,7.66,,,,,,,,,,,,,,
1799999990411985019,2027-01-15T07:59:50.411985019Z,0.85,-0.64,-1.49,1.70,1.28,2.13,1.49,2.13,4.26,4.89,5.32,6.38,7.02,7.87,,,,,,,,,,,,,,
1799999990424469414,2027-01-15T07:59:50.424469414Z,1.06,0.64,-0.85,1.06,0.00,1.91,2.13,2.34,4.04,5.32,5.53,4.89,6.38,7.45,,,,,,,,,,,,,,
1799999990436953808,2027-01-15T07:59:50.436953808Z,2.77,0.00,1.06,-0.43,-0.43,2.77,2.55,2.77,4.26,5.53,5.53,5.53,5.74,8.30,,,,,,,,,,,,,,
1799999990449438203,2027-01-15T07:59:50.449438203Z,-2.13,-1.06,1.70,-1.28,2.13,2.55,1.70,3.40,6.38,5.53,5.11,5.53,5.96,8.30,,,,,,,,,,,,,,
1799999990461922597,2027-01-15T07:59:50.461922597Z,-0.43,0.43,1.28,-0.21,3.83,2.55,1.28,2.55,5.74,5.53,5.74,5.32,6.38,8.09,,,,,,,,,,,,,,
1799999990474406992,2027-01-15T07:59:50.474406992Z,-0.21,-1.28,-0.21,-0.43,3.19,1.91,1.06,1.49,2.98,4.89,6.17,5.11,6.81,7.66,,,,,,,,,,,,,,
1799999990486891386,2027-01-15T07:59:50.486891386Z,1.06,-1.91,-0.64,-0.64,1.28,2.98,2.98,3.19,3.40,4.26,6.38,4.89,6.60,7.02,,,,,,,,,,,,,,
1799999990499375781,2027-01-15T07:59:50.499375781Z,-2.34,-1.28,-0.64,-0.43,1.49,2.77,3.19,4.47,4.68,2.55,6.81,5.74,6.38,6.38,,,,,,,,,,,,,,
1799999990511860175,2027-01-15T07:59:50.511860175Z,-2.34,-0.21,0.43,0.21,2.77,2.34,2.77,4.47,3.62,1.06,5.11,7.02,5.32,7.45,,,,,,,,,,,,,,
1799999990524344570,2027-01-15T07:59:50.524344570Z,-2.13,-0.21,0.43,1.28,1.91,2.55,3.19,3.19,4.26,2.98,3.83,7.23,4.68,7.87,,,,,,,,,,,,,,
1799999990536828964,2027-01-15T07:59:50.536828964Z,1.70,-2.55,-1.49,0.64,-0.64,2.55,3.19,1.49,3.40,6.17,3.62,5.74,5.74,7.23,,,,,,,,,,,,,,
1799999990549313359,2027-01-15T07:59:50.549313359Z,1.70,-1.28,-2.55,0.00,-1.06,1.06,4.89,4.04,3.62,4.04,4.04,6.81,7.23,6.81,,,,,,,,,,,,,,
1799999990561797753,2027-01-15T07:59:50.561797753Z,-6.38,1.06,-2.98,0.64,1.70,0.85,6.17,5.32,4.68,2.98,4.26,7.45,7.66,7.66,,,,,,,,,,,,,,
1799999990574282148,2027-01-15T07:59:50.574282148Z,0.43,0.43,-1.91,0.43,2.98,1.28,5.32,6.60,4.89,4.68,5.53,6.60,7.23,8.30,,,,,,,,,,,,,,
1799999990586766542,2027-01-15T07:59:50.586766542Z,0.00,-0.85,-1.49,-0.85,1.06,1.28,3.40,4.26,4.26,6.17,6.38,4.68,6.60,8.51,,,,,,,,,,,,,,
1799999990599250937,2027-01-15T07:59:50.599250937Z,2.34,0.43,0.21,0.21,0.85,3.40,1.91,0.21,4.89,2.98,8.94,5.32,6.60,8.51,,,,,,,,,,,,,,
1799999990611735331,2027-01-15T07:59:50.611735331Z,-0.21,-0.21,-1.28,0.21,0.85,4.89,2.34,3.40,4.26,2.13,7.23,7.45,6.60,9.57,,,,,,,,,,,,,,
1799999990624219726,2027-01-15T07:59:50.624219726Z,1.06,-1.49,-1.49,-0.21,1.70,4.04,3.62,4.68,3.62,2.77,4.47,9.36,7.02,10.21,,,,,,,,,,,,,,
1799999990636704120,2027-01-15T07:59:50.636704120Z,1.49,0.21,1.28,1.70,1.28,1.06,0.00,5.32,4.89,5.96,3.83,5.74,6.17,8.51,,,,,,,,,,,,,,
1799999990649188515,2027-01-15T07:59:50.649188515Z,-2.77,0.43,0.64,1.70,1.49,-0.85,-0.43,3.40,4.47,6.38,5.74,4.26,5.74,7.66,,,,,,,,,,,,,,
1799999990661672909,2027-01-15T07:59:50.661672909Z,-2.55,-0.85,0.85,-2.55,1.91,0.43,2.13,0.85,4.26,6.17,7.02,4.04,6.60,6.17,,,,,,,,,,,,,,
1799999990674157304,2027-01-15T07:59:50.674157304Z,-1.70,0.21,0.85,-1.49,2.13,1.70,4.47,2.34,4.04,6.17,5.53,5.32,5.96,5.74,,,,,,,,,,,,,,
1799999990686641698,2027-01-15T07:59:50.686641698Z,-1.28,-0.64,-0.43,0.43,2.77,3.83,4.04,4.04,2.98,5.74,2.55,5.96,5.53,6.60,,,,,,,,,,,,,,
1799999990699126093,2027-01-15T07:59:50.699126093Z,1.06,-0.43,0.00,0.00,0.64,3.19,1.91,4.26,2.77,5.74,4.68,6.17,6.38,7.45,,,,,,,,,,,,,,
1799999990711610487,2027-01-15T07:59:50.711610487Z,-0.43,0.43,0.64,-0.21,-0.64,2.98,0.85,3.40,3.19,5.53,6.17,6.81,7.23,7.02,,,,,,,,,,,,,,
1799999990724094882,2027-01-15T07:59:50.724094882Z,-0.43,-1.06,-0.21,-0.43,1.49,2.98,1.28,2.55,2.55,3.19,7.66,8.30,7.23,6.81,,,,,,,,,,,,,,
1799999990736579276,2027-01-15T07:59:50.736579276Z,-0.64,-2.13,0.00,-0.43,2.55,4.89,2.55,4.89,2.77,3.83,6.17,6.81,7.45,6.81,,,,,,,,,,,,,,
1799999990749063671,2027-01-15T07:59:50.749063671Z,-2.98,-1.28,-0.85,0.21,0.85,5.11,4.26,8.09,4.68,5.11,6.17,6.17,7.02,6.81,,,,,,,,,,,,,,
1799999990761548065,2027-01-15T07:59:50.761548065Z,-1.06,0.64,-0.64,3.40,0.43,2.77,3.40,4.04,5.74,3.83,7.02,6.81,5.11,5.96,,,,,,,,,,,,,,
1799999990774032460,2027-01-15T07:59:50.774032460Z,0.00,0.43,-0.21,3.62,0.43,1.49,3.40,2.77,4.47,2.13,7.23,7.02,6.17,5.96,,,,,,,,,,,,,,
1799999990786516854,2027-01-15T07:59:50.786516854Z,-1.49,0.43,0.00,-0.43,1.06,-0.21,3.62,0.21,2.55,4.89,6.81,6.81,7.45,7.23,,,,,,,,,,,,,,
1799999990799001249,2027-01-15T07:59:50.799001249Z,-1.06,-0.21,-0.64,-1.06,4.04,-0.85,3.19,3.62,3.62,5.11,6.17,5.74,6.81,7.45,,,,,,,,,,,,,,
1799999990811485643,2027-01-15T07:59:50.811485643Z,0.21,0.43,-0.43,1.70,4.26,0.43,1.91,4.26,5.32,4.26,4.26,5.11,5.53,6.81,,,,,,,,,,,,,,
1799999990823970038,2027-01-15T07:59:50.823970038Z,0.64,0.43,-0.21,2.77,3.19,2.13,2.77,2.55,4.68,4.89,4.47,6.17,7.02,6.81,,,,,,,,,,,,,,
1799999990836454432,2027-01-15T07:59:50.836454432Z,-2.34,0.21,-1.49,2.13,2.34,2.34,3.19,0.00,4.89,4.26,5.53,6.17,7.66,6.38,,,,,,,,,,,,,,
1799999990848938827,2027-01-15T07:59:50.848938827Z,1.28,0.64,-2.13,1.49,2.13,1.49,2.13,1.28,4.68,4.26,5.96,4.89,7.45,6.81,,,,,,,,,,,,,,
1799999990861423221,2027-01-15T07:59:50.861423221Z,0.21,-0.64,-1.70,1.28,3.40,1.28,0.85,3.83,4.26,5.53,3.62,5.53,6.60,7.66,,,,,,,,,,,,,,
1799999990873907616,2027-01-15T07:59:50.873907616Z,-0.85,-0.64,-0.85,0.85,2.55,1.06,1.91,6.17,4.26,6.38,2.98,5.96,5.74,8.72,,,,,,,,,,,,,,
1799999990886392010,2027-01-15T07:59:50.886392010Z,1.70,0.64,-0.43,0.43,-2.55,1.49,3.40,3.62,3.62,5.74,5.32,4.89,5.74,7.23,,,,,,,,,,,,,,
1799999990898876405,2027-01-15T07:59:50.898876405Z,-1.49,-0.21,-0.64,0.00,-2.55,1.91,4.04,1.91,3.62,6.81,6.38,5.53,6.17,7.02,,,,,,,,,,,,,,
1799999990911360800,2027-01-15T07:59:50.911360800Z,0.21,-3.19,-0.21,0.21,0.21,0.43,3.19,2.34,3.62,4.89,5.32,5.74,6.81,7.23,,,,,,,,,,,,,,
1799999990923845194,2027-01-15T07:59:50.923845194Z,-0.43,-1.70,0.00,0.43,1.28,0.85,2.77,3.19,4.04,5.32,4.68,5.74,7.23,7.45,,,,,,,,,,,,,,
1799999990936329589,2027-01-15T07:59:50.936329589Z,-0.64,-1.28,0.64,1.49,1.49,1.28,2.34,3.83,4.89,5.32,4.26,5.96,6.38,7.23,,,,,,,,,,,,,,
1799999990948813983,2027-01-15T07:59:50.948813983Z,0.43,-1.28,0.64,1.28,0.00,1.49,2.77,3.83,5.11,4.04,4.26,5.53,6.60,7.02,,,,,,,,,,,,,,
1799999990961298378,2027-01-15T07:59:50.961298378Z,0.64,-1.49,0.64,-0.21,1.06,2.55,3.62,2.98,4.89,4.68,4.89,6.17,7.23,6.81,,,,,,,,,,,,,,
1799999990973782772,2027-01-15T07:59:50.973782772Z,1.49,0.21,1.70,-1.06,0.64,2.13,3.62,2.34,5.53,4.04,6.38,5.96,6.60,6.60,,,,,,,,,,,,,,
1799999990986267167,2027-01-15T07:59:50.986267167Z,-0.43,-0.43,1.49,-1.70,1.28,1.70,2.13,2.98,5.32,5.74,5.11,5.32,6.17,7.23,,,,,,,,,,,,,,
1799999990998751561,2027-01-15T07:59:50.998751561Z,-0.21,-0.64,-0.21,-0.43,2.13,1.49,1.49,2.98,4.04,5.96,3.83,5.53,5.74,7.66,,,,,,,,,,,,,,
1799999991011235956,2027-01-15T07:59:51.011235956Z,2.55,1.28,-1.49,1.49,4.26,1.91,4.68,1.06,2.98,2.98,4.68,6.60,6.60,7.02,,,,,,,,,,,,,,
1799999991023720350,2027-01-15T07:59:51.023720350Z,-1.70,1.70,0.21,2.13,2.55,2.34,5.53,1.49,2.55,3.40,6.17,6.17,6.38,6.81,,,,,,,,,,,,,,
1799999991036204745,2027-01-15T07:59:51.036204745Z,-1.06,-0.64,0.00,0.00,-1.06,2.13,3.19,3.83,3.83,5.74,5.96,5.53,6.17,6.81,,,,,,,,,,,,,,
1799999991048689139,2027-01-15T07:59:51.048689139Z,-2.77,-1.28,-1.06,0.43,0.43,1.49,3.19,4.47,3.40,5.32,4.89,4.89,7.23,8.09,,,,,,,,,,,,,,
1799999991061173534,2027-01-15T07:59:51.061173534Z,1.91,-0.64,-1.06,1.49,1.91,1.70,3.62,4.04,2.77,5.53,4.47,4.04,7.87,8.51,,,,,,,,,,,,,,
1799999991073657928,2027-01-15T07:59:51.073657928Z,-1.28,-2.98,-1.06,0.00,2.55,3.40,3.62,1.70,4.04,5.96,4.04,5.32,6.60,7.66,,,,,,,,,,,,,,
1799999991086142323,2027-01-15T07:59:51.086142323Z,0.43,-1.06,-0.43,-0.64,0.64,3.40,3.83,1.91,2.13,6.38,5.74,5.32,5.53,7.02,,,,,,,,,,,,,,
1799999991098626717,2027-01-15T07:59:51.098626717Z,0.21,0.43,0.85,-0.64,-1.28,0.85,2.34,4.68,2.55,4.47,8.09,4.89,5.74,7.66,,,,,,,,,,,,,,
1799999991111111112,2027-01-15T07:59:51.111111112Z,-0.21,0.43,-1.06,0.64,-0.64,1.28,0.85,3.40,3.19,3.62,6.17,5.11,5.96,6.38,,,,,,,,,,,,,,
1799999991123595506,2027-01-15T07:59:51.123595506Z,-1.06,-0.64,-0.21,1.28,1.06,1.91,1.28,1.91,2.34,2.77,4.89,5.53,5.53,5.96,,,,,,,,,,,,,,
1799999991136079901,2027-01-15T07:59:51.136079901Z,-1.28,0.85,0.64,0.43,1.49,2.55,4.26,2.34,5.53,4.47,7.66,5.96,6.60,7.87,,,,,,,,,,,,,,
1799999991148564295,2027-01-15T07:59:51.148564295Z,-0.43,1.06,0.43,-0.21,1.28,3.40,4.26,2.13,6.60,4.47,7.87,6.81,7.02,7.87,,,,,,,,,,,,,,
1799999991161048690,2027-01-15T07:59:51.161048690Z,-2.13,0.00,1.49,0.43,-0.21,4.04,4.04,2.13,3.62,5.96,4.68,7.02,4.26,8.94,,,,,,,,,,,,,,
1799999991173533084,2027-01-15T07:59:51.173533084Z,-0.21,-2.34,0.85,0.43,-0.64,2.13,3.83,2.98,2.55,6.60,4.04,6.60,5.74,8.09,,,,,,,,,,,,,,
1799999991186017479,2027-01-15T07:59:51.186017479Z,-0.85,-2.77,0.64,0.21,-1.91,0.64,4.04,2.98,1.49,6.17,2.77,7.87,7.87,6.81,,,,,,,,,,,,,,
1799999991198501873,2027-01-15T07:59:51.198501873Z,-0.64,-1.91,0.21,-0.21,0.21,1.06,4.04,1.28,2.98,4.47,4.04,8.72,6.17,7.23,,,,,,,,,,,,,,
1799999991210986268,2027-01-15T07:59:51.210986268Z,-4.68,-1.28,-0.43,0.85,1.28,2.13,3.40,0.64,2.98,3.83,4.89,7.45,6.38,7.02,,,,,,,,,,,,,,
1799999991223470662,2027-01-15T07:59:51.223470662Z,-1.06,0.43,-0.43,1.91,2.13,2.34,1.91,3.19,3.83,4.04,6.60,6.17,6.60,7.23,,,,,,,,,,,,,,
1799999991235955057,2027-01-15T07:59:51.235955057Z,0.64,-0.43,0.43,0.43,1.49,1.70,1.91,4.47,4.26,4.89,6.38,5.53,6.60,7.66,,,,,,,,,,,,,,
1799999991248439451,2027-01-15T07:59:51.248439451Z,-2.13,-2.34,1.06,-1.28,1.70,1.70,3.40,3.83,3.40,4.26,7.45,5.96,7.02,7.02,,,,,,,,,,,,,,
1799999991260923846,2027-01-15T07:59:51.260923846Z,-2.55,-0.64,1.70,-0.43,1.06,3.19,4.04,1.70,4.68,5.96,7.02,5.96,7.66,8.09,,,,,,,,,,,,,,
1799999991273408240,2027-01-15T07:59:51.273408240Z,-2.98,0.00,1.49,0.64,1.06,2.34,3.83,1.06,5.32,6.38,7.23,5.53,6.60,9.15,,,,,,,,,,,,,,
1799999991285892635,2027-01-15T07:59:51.285892635Z,-0.85,-0.43,-1.28,2.55,0.85,2.55,2.98,4.04,4.26,5.74,5.11,7.45,6.38,7.87,,,,,,,,,,,,,,
1799999991298377029,2027-01-15T07:59:51.298377029Z,0.43,-1.49,-2.13,1.49,0.85,2.98,2.34,3.62,5.11,4.26,4.47,8.09,6.60,5.74,,,,,,,,,,,,,,
1799999991310861424,2027-01-15T07:59:51.310861424Z,1.49,-0.85,-1.49,-1.06,0.21,3.19,2.98,2.98,6.38,3.62,5.11,6.81,5.96,5.32,,,,,,,,,,,,,,
1799999991323345818,2027-01-15T07:59:51.323345818Z,-1.91,1.06,0.00,-1.28,1.06,4.26,2.98,4.68,5.11,4.68,5.53,7.66,7.02,7.23,,,,,,,,,,,,,,
1799999991335830213,2027-01-15T07:59:51.335830213Z,-2.55,-0.43,0.21,-0.21,3.62,4.04,2.98,5.53,4.04,4.47,4.04,8.30,7.66,7.66,,,,,,,,,,,,,,
1799999991348314607,2027-01-15T07:59:51.348314607Z,-1.49,-2.13,-1.28,1.28,4.04,3.40,2.55,6.60,4.68,4.68,5.32,7.02,7.66,6.81,,,,,,,,,,,,,,
1799999991360799002,2027-01-15T07:59:51.360799002Z,-0.21,-1.28,-1.70,1.70,2.77,2.55,2.34,6.17,4.26,4.68,5.74,5.74,7.45,6.81,,,,,,,,,,,,,,
1799999991373283396,2027-01-15T07:59:51.373283396Z,0.00,-0.64,-0.85,0.64,2.55,1.70,3.19,4.68,2.55,3.62,6.38,5.74,7.02,6.81,,,,,,,,,,,,,,
1799999991385767791,2027-01-15T07:59:51.385767791Z,0.00,-0.43,1.06,-1.06,2.55,1.28,4.04,4.26,2.13,4.68,6.38,5.96,6.38,7.02,,,,,,,,,,,,,,
1799999991398252185,2027-01-15T07:59:51.398252185Z,-1.06,-0.43,1.28,0.00,1.70,0.85,3.40,3.40,2.34,4.47,6.17,6.38,5.74,7.45,,,,,,,,,,,,,,
1799999991410736580,2027-01-15T07:59:51.410736580Z,-0.64,-0.21,-0.85,2.13,0.85,-0.21,2.55,1.70,4.04,2.98,4.89,5.74,5.53,6.81,,,,,,,,,,,,,,
1799999991423220974,2027-01-15T07:59:51.423220974Z,-0.64,-0.21,-0.85,1.49,0.85,0.00,3.19,2.98,3.83,4.04,5.74,6.38,5.96,7.87,,,,,,,,,,,,,,
1799999991435705369,2027-01-15T07:59:51.435705369Z,-1.28,-0.43,-2.34,0.21,0.85,0.21,3.62,3.62,3.19,4.04,5.53,7.23,7.02,8.72,,,,,,,,,,,,,,
1799999991448189763,2027-01-15T07:59:51.448189763Z,1.49,1.06,-1.91,0.85,-1.49,0.00,2.34,3.19,3.19,4.04,4.04,7.02,7.02,6.60,,,,,,,,,,,,,,
1799999991460674158,2027-01-15T07:59:51.460674158Z,-1.06,0.43,0.64,1.91,0.43,1.06,2.55,4.47,2.77,5.11,3.62,7.23,6.81,5.74,,,,,,,,,,,,,,
1799999991473158552,2027-01-15T07:59:51.473158552Z,0.00,-1.06,1.06,2.34,2.55,2.34,2.77,5.11,2.98,3.62,4.04,6.60,6.81,8.72,,,,,,,,,,,,,,
1799999991485642947,2027-01-15T07:59:51.485642947Z,-0.43,-0.64,1.06,1.06,1.49,2.34,2.98,2.77,3.62,4.26,2.98,6.17,6.17,9.36,,,,,,,,,,,,,,
1799999991498127341,2027-01-15T07:59:51.498127341Z,0.21,0.00,1.91,-0.85,-1.28,1.91,2.34,1.49,4.47,4.26,2.77,5.32,5.96,9.36,,,,,,,,,,,,,,
1799999991510611736,2027-01-15T07:59:51.510611736Z,0.21,0.00,1.70,-0.43,0.00,1.06,1.49,1.91,5.74,4.04,3.40,4.47,6.60,8.09,,,,,,,,,,,,,,
1799999991523096130,2027-01-15T07:59:51.523096130Z,1.28,0.85,0.85,1.28,1.06,1.70,1.91,0.00,5.32,4.47,3.62,4.68,6.81,6.81,,,,,,,,,,,,,,
1799999991535580525,2027-01-15T07:59:51.535580525Z,0.43,0.43,-1.49,1.49,4.04,2.55,3.19,-0.21,3.40,2.98,5.32,5.11,7.23,5.74,,,,,,,,,,,,,,
1799999991548064919,2027-01-15T07:59:51.548064919Z,1.91,-1.06,-2.34,0.21,2.55,2.77,2.34,1.49,4.68,3.40,7.02,4.89,6.81,7.02,,,,,,,,,,,,,,
1799999991560549314,2027-01-15T07:59:51.560549314Z,-0.21,-0.21,-2.13,-0.21,2.34,3.62,2.55,3.83,5.11,2.77,8.30,5.32,7.02,7.23,,,,,,,,,,,,,,
1799999991573033708,2027-01-15T07:59:51.573033708Z,-1.91,0.00,-0.21,2.13,2.55,3.19,2.55,5.11,4.68,4.04,8.94,5.96,6.38,6.38,,,,,,,,,,,,,,
1799999991585518103,2027-01-15T07:59:51.585518103Z,-2.34,-0.43,0.64,2.77,2.55,2.98,2.13,4.89,4.47,5.32,6.81,5.74,6.17,6.17,,,,,,,,,,,,,,
1799999991598002497,2027-01-15T07:59:51.598002497Z,-2.55,-1.28,-1.91,1.91,1.28,1.91,1.06,3.40,4.04,6.38,4.26,5.32,6.81,6.60,,,,,,,,,,,,,,
1799999991610486892,2027-01-15T07:59:51.610486892Z,-0.85,-2.13,-2.55,0.85,0.85,0.85,1.49,4.04,5.32,5.53,5.53,5.74,7.87,5.96,,,,,,,,,,,,,,
1799999991622971286,2027-01-15T07:59:51.622971286Z,-1.06,-1.49,-0.64,-0.43,0.64,0.85,0.64,4.89,4.04,5.74,8.09,5.96,7.87,7.66,,,,,,,,,,,,,,
1799999991635455681,2027-01-15T07:59:51.635455681Z,-0.21,-0.21,1.91,0.85,3.40,1.91,0.64,5.11,2.55,4.89,7.02,7.87,6.38,9.36,,,,,,,,,,,,,,
1799999991647940075,2027-01-15T07:59:51.647940075Z,-0.85,-0.85,2.98,0.64,3.40,1.49,1.49,4.47,2.34,4.47,6.81,7.45,6.38,8.72,,,,,,,,,,,,,,
1799999991660424470,2027-01-15T07:59:51.660424470Z,0.43,-2.34,1.06,-1.70,0.64,1.28,3.40,1.49,3.19,5.32,6.81,5.96,5.96,6.60,,,,,,,,,,,,,,
1799999991672908864,2027-01-15T07:59:51.672908864Z,-0.43,-0.64,-0.64,-0.85,-0.21,1.49,4.68,2.13,4.89,5.53,6.38,6.17,5.96,7.23,,,,,,,,,,,,,,
1799999991685393259,2027-01-15T07:59:51.685393259Z,-0.43,0.43,-2.34,0.00,0.64,3.40,5.11,4.04,4.26,5.32,5.74,6.17,5.74,6.81,,,,,,,,,,,,,,
1799999991697877653,2027-01-15T07:59:51.697877653Z,-0.64,0.85,-1.06,-0.21,0.64,4.04,2.98,3.19,2.98,5.53,4.68,5.53,4.68,7.23,,,,,,,,,,,,,,
1799999991710362048,2027-01-15T07:59:51.710362048Z,-1.70,0.00,0.00,0.21,0.00,2.98,2.34,2.98,3.19,5.32,5.11,4.89,4.89,6.81,,,,,,,,,,,,,,
1799999991722846442,2027-01-15T07:59:51.722846442Z,0.85,0.21,-1.28,-0.43,1.91,1.91,0.85,1.28,3.40,5.11,6.38,4.89,7.02,7.02,,,,,,,,,,,,,,
1799999991735330837,2027-01-15T07:59:51.735330837Z,1.28,1.06,-1.49,-0.43,1.70,2.77,0.21,2.77,2.98,6.17,6.17,6.38,7.23,8.09,,,,,,,,,,,,,,
1799999991747815231,2027-01-15T07:59:51.747815231Z,-3.19,1.06,0.43,-0.64,0.43,3.19,-0.21,4.26,2.98,6.38,5.32,7.87,7.45,8.51,,,,,,,,,,,,,,
1799999991760299626,2027-01-15T07:59:51.760299626Z,-1.06,0.00,-0.43,0.00,-0.64,2.13,2.13,3.62,2.34,5.32,5.74,7.45,5.96,6.81,,,,,,,,,,,,,,
1799999991772784020,2027-01-15T07:59:51.772784020Z,0.64,-0.85,-1.06,0.43,0.64,1.06,3.19,3.62,2.77,4.47,5.96,7.02,7.02,5.96,,,,,,,,,,,,,,
1799999991785268415,2027-01-15T07:59:51.785268415Z,-1.06,-2.55,-1.70,-0.21,-0.21,-0.21,0.43,2.55,4.26,4.47,3.83,6.60,5.74,7.66,,,,,,,,,,,,,,
1799999991797752809,2027-01-15T07:59:51.797752809Z,0.85,-1.91,0.00,1.49,0.21,0.85,0.43,3.19,3.40,4.26,3.62,7.02,5.53,5.74,,,,,,,,,,,,,,
1799999991810237204,2027-01-15T07:59:51.810237204Z,1.70,-1.06,-0.64,2.55,1.06,2.34,3.62,4.26,1.70,4.04,4.26,6.60,6.60,3.83,,,,,,,,,,,,,,
1799999991822721599,2027-01-15T07:59:51.822721599Z,-1.28,0.21,-2.13,1.49,-0.85,2.77,5.53,5.11,3.19,4.47,3.83,7.45,6.81,7.66,,,,,,,,,,,,,,
1799999991835205993,2027-01-15T07:59:51.835205993Z,-0.21,1.06,-1.49,0.85,-0.21,2.34,5.53,5.11,4.04,3.40,3.83,7.87,7.02,7.87,,,,,,,,,,,,,,
1799999991847690388,2027-01-15T07:59:51.847690388Z,-2.98,0.85,-0.64,0.85,0.85,1.91,2.98,2.98,4.68,3.19,5.32,7.02,6.38,6.60,,,,,,,,,,,,,,
1799999991860174782,2027-01-15T07:59:51.860174782Z,-0.43,-0.85,0.85,1.06,2.77,2.98,1.28,3.40,3.83,4.47,5.96,7.02,7.02,7.66,,,,,,,,,,,,,,
1799999991872659177,2027-01-15T07:59:51.872659177Z,-0.43,-1.70,0.00,0.64,1.91,2.77,1.49,4.26,2.98,5.11,5.53,6.60,7.66,7.23,,,,,,,,,,,,,,
1799999991885143571,2027-01-15T07:59:51.885143571Z,-2.34,0.00,-1.49,1.91,-0.64,2.55,1.91,1.70,4.89,5.74,5.74,5.74,6.17,6.38,,,,,,,,,,,,,,
1799999991897627966,2027-01-15T07:59:51.897627966Z,-2.34,-0.85,-0.85,1.91,-0.43,2.98,3.40,1.70,5.96,5.32,6.38,6.60,5.96,5.96,,,,,,,,,,,,,,
1799999991910112360,2027-01-15T07:59:51.910112360Z,-0.64,-2.77,-0.85,0.00,0.85,2.34,4.89,4.26,4.47,3.83,5.96,7.66,6.17,7.02,,,,,,,,,,,,,,
1799999991922596755,2027-01-15T07:59:51.922596755Z,0.00,-1.49,-0.43,0.64,-0.85,0.85,4.47,4.04,3.40,4.04,5.53,7.45,6.38,7.23,,,,,,,,,,,,,,
1799999991935081149,2027-01-15T07:59:51.935081149Z,-2.77,-1.91,1.06,0.00,1.28,1.49,3.19,2.98,3.19,4.47,5.96,5.96,7.45,6.38,,,,,,,,,,,,,,
1799999991947565544,2027-01-15T07:59:51.947565544Z,-0.21,-1.28,1.06,-0.85,3.83,4.04,4.04,2.34,3.83,4.68,5.53,6.60,7.45,7.87,,,,,,,,,,,,,,
1799999991960049938,2027-01-15T07:59:51.960049938Z,0.21,0.21,1.28,0.21,3.83,4.47,2.98,2.34,3.19,4.89,5.74,7.02,7.02,9.15,,,,,,,,,,,,,,
1799999991972534333,2027-01-15T07:59:51.972534333Z,1.28,0.00,-0.85,0.85,1.91,1.49,0.85,2.13,3.83,5.53,5.32,4.89,6.17,6.81,,,,,,,,,,,,,,
1799999991985018727,2027-01-15T07:59:51.985018727Z,0.21,-0.43,-1.91,1.06,1.06,1.70,0.43,0.85,3.62,5.53,6.60,3.40,6.17,6.81,,,,,,,,,,,,,,
1799999991997503122,2027-01-15T07:59:51.997503122Z,-1.91,-0.64,-0.64,2.13,0.21,2.55,1.06,0.43,2.34,5.53,6.60,4.68,6.60,7.87,,,,,,,,,,,,,,
1799999992009987516,2027-01-15T07:59:52.009987516Z,-2.34,-1.28,2.13,-0.43,0.21,2.77,1.70,0.85,2.34,4.04,4.68,7.02,6.38,6.60,,,,,,,,,,,,,,
1799999992022471911,2027-01-15T07:59:52.022471911Z,-2.55,0.21,3.40,-0.85,-0.85,2.34,2.34,1.28,4.47,4.26,4.47,7.02,5.96,6.38,,,,,,,,,,,,,,
1799999992034956305,2027-01-15T07:59:52.034956305Z,-1.91,0.21,2.77,-1.28,0.64,2.55,1.70,3.19,5.32,5.74,3.62,6.17,5.74,7.66,,,,,,,,,,,,,,
1799999992047440700,2027-01-15T07:59:52.047440700Z,1.06,-0.21,0.21,-0.64,1.06,1.70,2.13,2.55,4.47,5.74,3.62,7.02,5.32,7.66,,,,,,,,,,,,,,
1799999992059925094,2027-01-15T07:59:52.059925094Z,1.06,-0.64,0.21,0.00,1.49,0.85,2.98,1.70,2.98,4.68,4.47,7.23,5.53,7.45,,,,,,,,,,,,,,
1799999992072409489,2027-01-15T07:59:52.072409489Z,0.43,-1.49,2.55,0.21,1.70,0.43,4.04,3.40,3.83,4.47,4.89,5.32,6.60,7.23,,,,,,,,,,,,,,
1799999992084893883,2027-01-15T07:59:52.084893883Z,-0.43,-0.85,1.70,-0.21,1.49,1.06,3.62,4.26,3.83,4.89,4.68,3.62,7.23,6.81,,,,,,,,,,,,,,
1799999992097378278,2027-01-15T07:59:52.097378278Z,-1.91,0.21,0.21,1.91,4.68,1.91,5.32,2.98,4.89,5.53,4.89,5.53,6.60,7.87,,,,,,,,,,,,,,
1799999992109862672,2027-01-15T07:59:52.109862672Z,-1.28,0.21,1.28,0.64,3.83,2.98,5.11,2.77,4.47,5.11,4.68,6.60,7.23,6.81,,,,,,,,,,,,,,
1799999992122347067,2027-01-15T07:59:52.122347067Z,-0.43,1.49,2.13,-0.21,1.70,1.28,4.26,2.55,4.04,5.11,4.89,6.38,8.51,6.60,,,,,,,,,,,,,,
1799999992134831461,2027-01-15T07:59:52.134831461Z,0.21,1.28,2.13,-0.64,1.06,0.64,3.62,3.40,3.83,4.47,6.38,6.17,6.38,7.02,,,,,,,,,,,,,,
1799999992147315856,2027-01-15T07:59:52.147315856Z,0.64,0.21,0.64,-1.06,3.62,1.70,4.47,4.89,4.47,3.83,7.45,5.96,5.53,6.38,,,,,,,,,,,,,,
1799999992159800250,2027-01-15T07:59:52.159800250Z,-1.28,-1.06,-1.91,1.06,3.83,2.13,2.55,4.04,4.04,5.32,6.17,6.60,6.17,7.23,,,,,,,,,,,,,,
1799999992172284645,2027-01-15T07:59:52.172284645Z,-1.06,-1.06,-2.55,0.21,2.34,1.70,2.55,2.98,2.98,5.11,5.53,5.53,6.81,8.09,,,,,,,,,,,,,,
1799999992184769039,2027-01-15T07:59:52.184769039Z,1.91,-1.49,-1.49,-0.43,2.34,0.64,3.62,2.98,4.04,3.62,6.17,4.89,6.81,8.09,,,,,,,,,,,,,,
1799999992197253434,2027-01-15T07:59:52.197253434Z,1.70,-1.06,-0.43,0.43,3.62,2.34,4.47,4.26,5.53,3.19,7.02,5.11,6.38,8.09,,,,,,,,,,,,,,
1799999992209737828,2027-01-15T07:59:52.209737828Z,-2.34,-1.06,-0.64,0.21,3.83,3.19,4.26,3.62,4.47,3.83,5.74,5.74,6.60,8.30,,,,,,,,,,,,,,
1799999992222222223,2027-01-15T07:59:52.222222223Z,1.91,0.85,-1.49,2.13,0.21,4.26,3.19,3.19,3.83,3.62,3.83,5.96,5.96,7.66,,,,,,,,,,,,,,
1799999992234706617,2027-01-15T07:59:52.234706617Z,1.28,1.49,-0.64,1.70,1.28,4.68,3.83,2.13,5.32,3.83,4.26,6.60,6.17,7.45,,,,,,,,,,,,,,
1799999992247191012,2027-01-15T07:59:52.247191012Z,-2.34,1.28,-1.06,0.21,2.13,4.26,3.19,1.06,5.74,3.83,5.96,7.45,6.81,8.51,,,,,,,,,,,,,,
1799999992259675406,2027-01-15T07:59:52.259675406Z,-0.21,1.70,0.85,0.00,0.64,3.19,2.13,4.47,5.32,4.68,5.96,5.74,6.81,8.94,,,,,,,,,,,,,,
1799999992272159801,2027-01-15T07:59:52.272159801Z,-1.28,1.28,2.77,1.06,1.28,2.34,2.55,6.17,4.26,5.32,5.11,6.60,6.17,8.51,,,,,,,,,,,,,,
1799999992284644195,2027-01-15T07:59:52.284644195Z,-0.85,-0.43,1.49,0.21,2.77,0.64,2.77,3.40,4.04,6.60,4.89,6.17,5.96,8.51,,,,,,,,,,,,,,
1799999992297128590,2027-01-15T07:59:52.297128590Z,-0.21,0.21,-0.64,-0.64,1.28,1.28,3.62,2.77,3.19,5.96,5.96,5.74,6.81,7.87,,,,,,,,,,,,,,
1799999992309612984,2027-01-15T07:59:52.309612984Z,-1.70,-0.43,-2.55,0.00,0.64,2.34,4.68,2.13,3.83,4.26,6.17,6.38,7.02,8.09,,,,,,,,,,,,,,
1799999992322097379,2027-01-15T07:59:52.322097379Z,0.00,-2.77,-1.49,-0.64,-0.21,1.49,3.40,2.34,5.11,4.89,5.74,6.38,7.02,8.72,,,,,,,,,,,,,,
1799999992334581773,2027-01-15T07:59:52.334581773Z,,-3.40,-2.13,-0.64,1.06,-0.21,2.55,3.19,5.96,4.89,6.17,4.68,7.02,8.09,,,,,,,,,,,,,,
1799999992347066168,2027-01-15T07:59:52.347066168Z,-3.40,-1.06,-2.34,0.21,2.55,0.21,0.85,4.04,5.74,5.74,6.81,5.11,6.38,6.81,,,,,,,,,,,,,,
1799999992359550562,2027-01-15T07:59:52.359550562Z,2.13,-1.70,-1.91,0.43,2.55,0.00,0.64,2.77,4.68,3.83,4.89,4.89,5.53,7.45,,,,,,,,,,,,,,
1799999992372034957,2027-01-15T07:59:52.372034957Z,1.91,-2.55,-1.49,-0.64,2.13,-0.21,1.49,1.70,5.32,2.55,4.89,5.53,5.74,8.09,,,,,,,,,,,,,,
1799999992384519351,2027-01-15T07:59:52.384519351Z,-0.21,-1.28,-0.85,-0.43,3.19,1.49,3.40,1.28,3.19,3.62,4.04,6.17,6.60,7.02,,,,,,,,,,,,,,
1799999992397003746,2027-01-15T07:59:52.397003746Z,-0.64,-1.28,-1.06,0.85,3.62,2.55,2.98,2.77,2.55,4.26,3.62,5.96,6.38,6.17,,,,,,,,,,,,,,
1799999992409488140,2027-01-15T07:59:52.409488140Z,0.64,-1.49,-1.91,2.13,2.13,2.98,2.34,3.62,3.19,3.83,4.04,6.81,7.02,5.32,,,,,,,,,,,,,,
1799999992421972535,2027-01-15T07:59:52.421972535Z,0.43,-1.91,-3.19,1.28,0.85,3.40,0.64,2.77,5.11,2.98,5.53,5.96,7.02,7.45,,,,,,,,,,,,,,
1799999992434456929,2027-01-15T07:59:52.434456929Z,-1.28,-2.13,-2.55,0.00,-3.40,2.98,0.00,3.62,4.47,3.62,5.96,5.53,6.17,8.09,,,,,,,,,,,,,,
1799999992446941324,2027-01-15T07:59:52.446941324Z,1.06,0.85,-1.28,0.00,-5.32,2.98,2.98,3.62,2.13,4.04,5.96,6.17,6.60,6.81,,,,,,,,,,,,,,
1799999992459425718,2027-01-15T07:59:52.459425718Z,-0.21,0.00,-1.28,1.49,-3.62,2.77,2.98,2.55,3.62,3.83,5.96,7.23,6.60,6.17,,,,,,,,,,,,,,
1799999992471910113,2027-01-15T07:59:52.471910113Z,0.43,-2.98,1.06,1.28,1.28,0.64,1.06,2.13,2.13,4.26,6.38,6.81,5.32,5.53,,,,,,,,,,,,,,
1799999992484394507,2027-01-15T07:59:52.484394507Z,0.21,-1.28,0.64,0.43,2.34,1.49,1.70,2.13,1.49,4.89,4.26,5.74,4.89,6.17,,,,,,,,,,,,,,
1799999992496878902,2027-01-15T07:59:52.496878902Z,0.43,0.00,-0.64,1.06,2.77,2.55,1.49,2.77,4.26,4.68,3.19,5.32,4.89,6.38,,,,,,,,,,,,,,
1799999992509363296,2027-01-15T07:59:52.509363296Z,0.43,2.13,-0.21,2.77,1.06,2.55,2.13,4.47,3.40,2.55,6.17,6.38,5.53,8.72,,,,,,,,,,,,,,
1799999992521847691,2027-01-15T07:59:52.521847691Z,-1.28,0.85,-1.06,2.13,1.28,3.19,2.98,4.68,4.04,2.55,6.60,5.74,5.96,9.15,,,,,,,,,,,,,,
1799999992534332085,2027-01-15T07:59:52.534332085Z,-0.21,-1.28,-2.34,0.64,1.28,1.91,5.53,4.04,4.68,4.89,5.32,5.74,6.60,7.87,,,,,,,,,,,,,,
1799999992546816480,2027-01-15T07:59:52.546816480Z,-0.64,-0.64,-1.70,1.28,1.28,0.85,5.32,4.04,3.83,5.32,6.17,5.53,6.60,7.23,,,,,,,,,,,,,,
1799999992559300874,2027-01-15T07:59:52.559300874Z,-0.43,1.06,-0.64,0.85,2.13,1.70,2.98,4.68,3.40,5.74,6.17,6.38,7.23,6.81,,,,,,,,,,,,,,
1799999992571785269,2027-01-15T07:59:52.571785269Z,0.43,1.28,-0.43,0.00,3.19,2.55,2.13,3.19,3.40,5.32,4.26,7.02,7.23,6.38,,,,,,,,,,,,,,
1799999992584269663,2027-01-15T07:59:52.584269663Z,0.64,0.64,-0.43,1.06,2.55,2.34,1.91,3.40,4.04,4.47,4.04,7.02,5.96,5.96,,,,,,,,,,,,,,
1799999992596754058,2027-01-15T07:59:52.596754058Z,-1.28,-1.70,-0.64,0.21,1.70,2.77,3.40,4.04,3.83,5.32,3.83,7.02,7.45,6.81,,,,,,,,,,,,,,
1799999992609238452,2027-01-15T07:59:52.609238452Z,0.85,-2.34,-0.21,0.00,-0.21,3.40,4.89,2.98,3.19,4.89,4.47,7.23,7.45,7.02,,,,,,,,,,,,,,
1799999992621722847,2027-01-15T07:59:52.621722847Z,-0.43,-0.85,0.21,1.06,-1.91,2.13,4.47,2.13,3.19,5.96,5.11,6.38,6.81,7.23,,,,,,,,,,,,,,
1799999992634207241,2027-01-15T07:59:52.634207241Z,-1.06,-0.21,0.64,0.00,0.85,1.06,2.34,2.13,2.98,5.53,6.60,4.89,6.60,7.66,,,,,,,,,,,,,,
1799999992646691636,2027-01-15T07:59:52.646691636Z,-2.13,-0.43,0.00,-0.43,2.55,1.70,2.98,2.98,3.40,5.11,6.81,5.74,6.81,7.87,,,,,,,,,,,,,,
1799999992659176030,2027-01-15T07:59:52.659176030Z,0.00,-1.70,0.64,-2.34,0.64,1.91,3.40,5.11,2.55,5.11,5.32,7.66,6.60,7.87,,,,,,,,,,,,,,
1799999992671660425,2027-01-15T07:59:52.671660425Z,-0.43,-0.21,1.49,-1.49,-1.06,1.91,2.34,5.74,4.04,5.32,5.11,7.02,7.02,6.60,,,,,,,,,,,,,,
1799999992684144819,2027-01-15T07:59:52.684144819Z,-2.13,2.34,4.04,-0.43,0.00,1.91,1.70,6.17,5.32,5.11,4.89,5.53,7.45,6.38,,,,,,,,,,,,,,
1799999992696629214,2027-01-15T07:59:52.696629214Z,-3.83,0.43,3.62,0.64,1.06,2.77,3.62,3.40,4.47,5.74,6.60,5.74,7.02,6.38,,,,,,,,,,,,,,
1799999992709113608,2027-01-15T07:59:52.709113608Z,,-1.28,3.83,1.70,0.85,2.98,3.62,2.13,4.04,5.32,6.17,6.81,7.02,7.23,,,,,,,,,,,,,,
1799999992721598003,2027-01-15T07:59:52.721598003Z,0.00,-2.98,3.62,1.28,0.64,2.34,3.19,1.91,4.47,4.47,5.74,7.02,5.53,7.23,,,,,,,,,,,,,,
1799999992734082398,2027-01-15T07:59:52.734082398Z,0.85,-2.34,3.19,0.64,0.21,2.98,3.40,2.55,4.89,4.68,5.53,6.38,6.17,7.23,,,,,,,,,,,,,,
1799999992746566792,2027-01-15T07:59:52.746566792Z,-1.70,-1.49,1.70,1.28,0.64,2.98,3.62,3.40,5.11,4.68,4.04,6.81,7.66,7.45,,,,,,,,,,,,,,
1799999992759051187,2027-01-15T07:59:52.759051187Z,-3.62,0.00,0.43,1.91,1.28,1.49,3.40,2.55,4.89,5.32,3.40,5.32,7.66,8.51,,,,,,,,,,,,,,
1799999992771535581,2027-01-15T07:59:52.771535581Z,-2.13,-1.70,0.00,0.85,0.21,1.49,2.77,3.83,5.11,5.11,4.26,5.74,6.81,7.45,,,,,,,,,,,,,,
1799999992784019976,2027-01-15T07:59:52.784019976Z,0.64,-1.91,-1.06,0.85,0.21,4.89,3.40,4.47,4.68,3.83,6.60,5.74,5.11,7.23,,,,,,,,,,,,,,
1799999992796504370,2027-01-15T07:59:52.796504370Z,1.91,-0.64,-1.49,1.06,1.70,5.74,3.40,4.26,4.04,4.47,6.17,5.53,6.17,7.66,,,,,,,,,,,,,,
1799999992808988765,2027-01-15T07:59:52.808988765Z,-1.28,0.21,-2.13,1.06,2.34,4.47,2.98,4.04,5.11,4.26,5.53,5.96,6.81,7.66,,,,,,,,,,,,,,
1799999992821473159,2027-01-15T07:59:52.821473159Z,0.00,-1.28,-2.34,1.06,0.43,2.77,2.13,2.98,2.55,4.47,6.17,5.74,6.60,7.87,,,,,,,,,,,,,,
1799999992833957554,2027-01-15T07:59:52.833957554Z,-0.43,-0.85,-2.34,0.85,0.64,2.98,2.98,1.28,2.13,5.53,6.81,5.53,6.81,7.45,,,,,,,,,,,,,,
1799999992846441948,2027-01-15T07:59:52.846441948Z,-0.43,1.06,-0.64,0.43,2.77,2.55,2.55,2.77,5.32,4.26,6.60,4.89,6.17,7.02,,,,,,,,,,,,,,
1799999992858926343,2027-01-15T07:59:52.858926343Z,1.91,1.91,0.43,2.34,3.62,2.98,1.06,2.55,5.11,4.26,4.68,5.11,5.53,8.72,,,,,,,,,,,,,,
1799999992871410737,2027-01-15T07:59:52.871410737Z,-1.49,-1.49,0.21,2.77,3.40,4.26,2.55,2.34,3.62,4.47,3.83,5.32,5.96,9.36,,,,,,,,,,,,,,
1799999992883895132,2027-01-15T07:59:52.883895132Z,-2.55,-4.04,-0.85,-0.43,0.64,5.53,4.89,0.85,4.89,4.68,5.53,7.45,5.74,8.72,,,,,,,,,,,,,,
1799999992896379526,2027-01-15T07:59:52.896379526Z,-1.49,-3.19,-1.06,-2.77,-0.64,3.83,4.47,1.28,4.89,4.26,5.96,7.87,5.11,7.87,,,,,,,,,,,,,,
1799999992908863921,2027-01-15T07:59:52.908863921Z,0.64,-1.06,-0.85,-2.13,-0.64,2.13,2.13,2.55,4.04,3.40,5.32,7.23,6.60,6.60,,,,,,,,,,,,,,
1799999992921348315,2027-01-15T07:59:52.921348315Z,-0.85,0.43,-0.43,-0.85,0.21,1.70,1.91,2.98,3.62,2.98,5.74,6.81,7.23,6.38,,,,,,,,,,,,,,
1799999992933832710,2027-01-15T07:59:52.933832710Z,-0.64,-0.64,-0.85,1.06,0.64,1.28,2.13,2.98,3.62,4.26,5.53,7.45,6.81,6.38,,,,,,,,,,,,,,
1799999992946317104,2027-01-15T07:59:52.946317104Z,-0.64,-1.91,-1.06,1.49,0.64,2.13,1.70,2.13,2.55,5.32,4.89,7.66,5.74,5.74,,,,,,,,,,,,,,
1799999992958801499,2027-01-15T07:59:52.958801499Z,-0.43,0.00,-0.85,1.28,1.06,2.13,1.28,1.49,3.19,5.74,5.53,7.45,5.74,5.96,,,,,,,,,,,,,,
1799999992971285893,2027-01-15T07:59:52.971285893Z,0.85,0.64,-1.28,0.00,-1.06,2.77,2.34,1.70,4.47,5.32,7.23,7.02,6.60,6.81,,,,,,,,,,,,,,
1799999992983770288,2027-01-15T07:59:52.983770288Z,-1.91,0.21,-1.70,0.64,-2.34,1.70,1.49,3.19,4.89,3.83,5.96,6.17,7.45,7.66,,,,,,,,,,,,,,
1799999992996254682,2027-01-15T07:59:52.996254682Z,0.00,-0.43,-1.28,1.28,0.00,0.21,1.06,4.26,4.68,4.26,5.74,5.53,7.02,7.23,,,,,,,,,,,,,,
1799999993008739077,2027-01-15T07:59:53.008739077Z,-1.91,-2.13,-0.21,1.28,2.13,-1.49,3.19,3.62,3.19,6.17,7.23,6.17,7.45,6.38,,,,,,,,,,,,,,
1799999993021223471,2027-01-15T07:59:53.021223471Z,-1.06,-3.83,0.00,1.49,1.49,-1.06,3.40,3.40,2.98,5.96,6.60,6.81,7.66,6.81,,,,,,,,,,,,,,
1799999993033707866,2027-01-15T07:59:53.033707866Z,-1.06,0.64,-0.43,-0.43,1.06,1.06,5.53,5.74,2.77,5.11,5.74,7.02,6.60,7.45,,,,,,,,,,,,,,
1799999993046192260,2027-01-15T07:59:53.046192260Z,-1.49,0.85,1.70,0.43,3.40,-0.43,5.53,5.32,2.13,3.62,4.47,7.02,5.96,8.94,,,,,,,,,,,,,,
1799999993058676655,2027-01-15T07:59:53.058676655Z,-0.64,0.21,1.91,0.85,4.47,1.28,3.83,4.04,2.55,2.98,3.40,7.23,6.60,9.36,,,,,,,,,,,,,,
1799999993071161049,2027-01-15T07:59:53.071161049Z,-1.70,-0.21,1.28,-1.28,2.55,2.55,2.13,5.11,2.55,4.26,4.47,5.53,5.96,7.66,,,,,,,,,,,,,,
1799999993083645444,2027-01-15T07:59:53.083645444Z,1.06,-0.21,0.43,-0.64,3.83,1.70,1.91,4.68,2.55,5.53,4.68,4.89,6.60,6.81,,,,,,,,,,,,,,
1799999993096129838,2027-01-15T07:59:53.096129838Z,0.64,-0.43,0.00,0.85,4.04,1.06,2.77,4.47,4.68,6.17,4.68,6.17,6.17,5.74,,,,,,,,,,,,,,
1799999993108614233,2027-01-15T07:59:53.108614233Z,0.85,-0.43,-0.64,0.00,3.40,1.70,2.98,4.04,4.68,6.17,4.68,6.38,6.60,5.11,,,,,,,,,,,,,,
1799999993121098627,2027-01-15T07:59:53.121098627Z,-0.64,1.06,-1.06,-0.21,4.47,1.28,2.98,3.40,3.40,4.89,4.89,6.60,7.45,6.81,,,,,,,,,,,,,,
1799999993133583022,2027-01-15T07:59:53.133583022Z,0.85,0.21,0.00,0.43,4.04,0.00,3.40,2.98,4.26,4.89,2.98,6.38,6.60,9.15,,,,,,,,,,,,,,
1799999993146067416,2027-01-15T07:59:53.146067416Z,-1.06,-1.06,-1.28,1.06,4.04,0.21,3.19,1.91,2.98,4.47,5.53,6.60,6.38,10.64,,,,,,,,,,,,,,
1799999993158551811,2027-01-15T07:59:53.158551811Z,-1.91,-0.43,-1.70,1.06,3.19,1.06,3.83,1.06,3.40,2.77,7.02,5.96,6.60,10.43,,,,,,,,,,,,,,
1799999993171036205,2027-01-15T07:59:53.171036205Z,-2.98,-0.21,-1.70,1.49,0.85,-0.43,4.04,2.55,3.40,3.62,5.96,5.53,6.81,9.57,,,,,,,,,,,,,,
1799999993183520600,2027-01-15T07:59:53.183520600Z,-2.34,-0.64,-1.91,0.64,-0.43,-1.70,3.62,1.70,2.13,5.53,6.38,6.17,6.81,7.87,,,,,,,,,,,,,,
1799999993196004994,2027-01-15T07:59:53.196004994Z,-1.70,-2.34,-2.13,0.00,2.77,-1.06,2.34,2.34,3.19,5.53,5.53,6.81,7.23,6.81,,,,,,,,,,,,,,
1799999993208489389,2027-01-15T07:59:53.208489389Z,-1.70,-1.70,-2.98,-0.64,3.19,-0.21,2.55,2.98,2.77,4.89,5.96,7.23,7.45,5.96,,,,,,,,,,,,,,
1799999993220973783,2027-01-15T07:59:53.220973783Z,-2.13,-0.21,-0.64,0.21,0.43,1.06,1.49,2.13,3.83,4.47,5.11,5.96,6.60,5.96,,,,,,,,,,,,,,
1799999993233458178,2027-01-15T07:59:53.233458178Z,-2.13,-0.64,-1.06,2.34,3.19,0.64,1.49,1.28,4.26,4.47,4.26,5.11,5.74,6.38,,,,,,,,,,,,,,
1799999993245942572,2027-01-15T07:59:53.245942572Z,-2.13,-0.21,-1.49,1.91,4.26,0.43,1.91,2.13,4.04,5.11,5.11,4.47,5.53,5.74,,,,,,,,,,,,,,
1799999993258426967,2027-01-15T07:59:53.258426967Z,-0.64,-0.21,-1.28,-0.85,2.34,2.13,3.83,1.06,6.81,5.53,5.32,6.17,6.81,7.87,,,,,,,,,,,,,,
1799999993270911361,2027-01-15T07:59:53.270911361Z,-2.34,-0.64,0.21,0.43,2.34,1.28,4.68,1.28,5.11,5.32,4.68,6.81,7.45,8.94,,,,,,,,,,,,,,
1799999993283395756,2027-01-15T07:59:53.283395756Z,-1.28,0.21,-0.64,2.77,2.98,1.49,4.04,3.83,1.91,5.32,5.53,5.74,7.02,7.87,,,,,,,,,,,,,,
1799999993295880150,2027-01-15T07:59:53.295880150Z,-3.83,1.49,-0.21,2.13,2.98,2.77,2.55,4.26,3.40,4.68,5.53,5.11,7.23,7.45,,,,,,,,,,,,,,
1799999993308364545,2027-01-15T07:59:53.308364545Z,-3.83,1.28,1.49,0.85,2.13,2.55,1.49,3.83,6.38,3.83,6.38,5.53,6.81,7.02,,,,,,,,,,,,,,
1799999993320848939,2027-01-15T07:59:53.320848939Z,-0.64,1.28,-0.43,-0.43,0.00,1.91,0.21,2.77,3.40,4.68,5.53,5.74,7.02,7.66,,,,,,,,,,,,,,
1799999993333333334,2027-01-15T07:59:53.333333334Z,-1.91,-0.85,-0.43,-0.64,0.85,1.49,1.28,3.40,2.34,4.47,4.68,5.96,7.23,8.51,,,,,,,,,,,,,,
1799999993345817728,2027-01-15T07:59:53.345817728Z,-1.91,-1.49,-1.28,-2.13,2.77,2.55,2.55,3.40,4.89,4.89,4.89,5.11,6.60,7.45,,,,,,,,,,,,,,
1799999993358302123,2027-01-15T07:59:53.358302123Z,-1.28,0.00,-1.70,-1.49,1.49,2.13,1.91,3.83,6.17,4.89,4.68,4.89,6.17,6.38,,,,,,,,,,,,,,
1799999993370786517,2027-01-15T07:59:53.370786517Z,-0.21,0.00,-0.21,0.21,0.85,2.98,3.19,4.04,3.19,3.83,4.04,7.23,6.81,7.02,,,,,,,,,,,,,,
1799999993383270912,2027-01-15T07:59:53.383270912Z,-1.49,-1.49,0.21,1.91,-0.64,2.34,2.55,4.26,4.04,5.11,5.96,6.81,6.81,6.60,,,,,,,,,,,,,,
1799999993395755306,2027-01-15T07:59:53.395755306Z,-1.28,-2.13,-0.21,1.49,-1.06,1.06,1.70,3.40,5.32,5.11,6.17,5.53,6.81,6.60,,,,,,,,,,,,,,
1799999993408239701,2027-01-15T07:59:53.408239701Z,1.06,1.06,0.85,1.06,0.64,1.70,2.55,1.91,3.40,5.11,4.68,4.47,6.60,8.09,,,,,,,,,,,,,,
1799999993420724095,2027-01-15T07:59:53.420724095Z,0.43,0.64,0.43,1.28,0.43,1.91,2.55,1.91,3.62,5.11,5.32,5.11,6.17,8.09,,,,,,,,,,,,,,
1799999993433208490,2027-01-15T07:59:53.433208490Z,-0.64,-2.34,1.49,-0.21,2.13,6.17,3.19,3.40,4.68,4.68,5.32,5.74,5.74,7.66,,,,,,,,,,,,,,
1799999993445692884,2027-01-15T07:59:53.445692884Z,-0.64,-1.28,1.28,-0.43,1.91,5.11,2.77,4.47,4.47,4.89,5.74,5.32,5.53,6.17,,,,,,,,,,,,,,
1799999993458177279,2027-01-15T07:59:53.458177279Z,-0.64,-1.28,0.64,0.85,1.28,2.13,1.49,4.47,4.47,4.89,6.17,4.89,5.11,5.11,,,,,,,,,,,,,,
1799999993470661673,2027-01-15T07:59:53.470661673Z,-2.55,-2.13,0.85,1.49,-0.43,2.98,1.70,3.62,7.02,4.68,3.62,5.74,7.23,6.38,,,,,,,,,,,,,,
1799999993483146068,2027-01-15T07:59:53.483146068Z,0.00,-2.13,0.64,0.85,-1.06,2.98,2.55,4.04,6.17,4.04,4.47,6.60,8.09,7.66,,,,,,,,,,,,,,
1799999993495630462,2027-01-15T07:59:53.495630462Z,0.21,-1.49,1.70,0.85,0.21,4.04,2.77,3.40,3.83,2.55,7.23,5.53,6.38,8.09,,,,,,,,,,,,,,
1799999993508114857,2027-01-15T07:59:53.508114857Z,-2.34,-0.64,2.34,1.70,1.49,2.55,2.77,3.83,3.40,3.83,5.74,5.53,6.60,7.45,,,,,,,,,,,,,,
1799999993520599251,2027-01-15T07:59:53.520599251Z,0.00,-0.43,2.13,2.55,1.28,1.28,2.77,4.47,3.19,5.11,4.04,6.81,6.38,6.81,,,,,,,,,,,,,,
1799999993533083646,2027-01-15T07:59:53.533083646Z,0.21,-1.70,-1.49,1.70,0.00,2.77,1.70,4.68,3.19,4.68,6.17,6.81,5.11,6.81,,,,,,,,,,,,,,
1799999993545568040,2027-01-15T07:59:53.545568040Z,0.43,-0.43,-2.34,1.06,-0.64,2.55,1.28,4.47,2.98,5.32,6.60,6.17,5.53,6.60,,,,,,,,,,,,,,
1799999993558052435,2027-01-15T07:59:53.558052435Z,0.85,-0.21,0.00,-1.06,0.21,2.77,1.91,3.62,2.98,4.89,7.45,6.60,5.32,7.02,,,,,,,,,,,,,,
1799999993570536829,2027-01-15T07:59:53.570536829Z,1.70,-1.28,0.00,0.21,0.64,2.13,2.98,2.34,3.19,4.89,6.17,6.81,6.60,6.81,,,,,,,,,,,,,,
1799999993583021224,2027-01-15T07:59:53.583021224Z,-1.28,-0.85,-0.43,0.85,2.13,1.70,4.26,1.28,3.40,4.47,5.11,6.17,7.02,7.45,,,,,,,,,,,,,,
1799999993595505618,2027-01-15T07:59:53.595505618Z,-1.70,-1.49,0.85,1.28,3.40,1.49,4.26,2.77,3.62,3.62,5.32,6.17,5.53,7.87,,,,,,,,,,,,,,
1799999993607990013,2027-01-15T07:59:53.607990013Z,0.85,-0.64,0.00,0.85,2.77,1.70,3.62,2.77,4.47,4.26,7.23,6.81,6.17,8.09,,,,,,,,,,,,,,
1799999993620474407,2027-01-15T07:59:53.620474407Z,-0.85,1.28,-0.43,0.64,1.28,2.98,2.55,2.77,4.68,5.11,7.66,6.81,7.87,7.23,,,,,,,,,,,,,,
1799999993632958802,2027-01-15T07:59:53.632958802Z,-0.85,1.70,-0.43,0.43,0.43,4.26,2.13,3.40,3.83,4.68,6.81,7.02,7.23,6.17,,,,,,,,,,,,,,
1799999993645443197,2027-01-15T07:59:53.645443197Z,-0.21,0.00,-0.43,-0.43,0.64,4.04,1.28,2.98,2.34,4.47,5.96,6.17,6.17,6.17,,,,,,,,,,,,,,
1799999993657927591,2027-01-15T07:59:53.657927591Z,-0.43,-2.77,-1.70,-0.21,-0.43,1.70,1.91,2.98,2.34,5.11,5.32,5.74,5.74,7.45,,,,,,,,,,,,,,
1799999993670411986,2027-01-15T07:59:53.670411986Z,-1.91,-2.77,-0.64,0.21,-0.43,0.21,2.55,3.40,3.62,4.04,4.47,5.74,6.60,7.87,,,,,,,,,,,,,,
1799999993682896380,2027-01-15T07:59:53.682896380Z,-2.13,-2.34,0.85,2.34,1.06,1.91,3.83,2.13,5.11,2.98,6.17,6.60,7.23,5.96,,,,,,,,,,,,,,
1799999993695380775,2027-01-15T07:59:53.695380775Z,-1.91,-1.49,0.43,2.13,1.28,2.34,3.40,2.34,5.53,3.83,6.38,5.74,6.38,5.74,,,,,,,,,,,,,,
1799999993707865169,2027-01-15T07:59:53.707865169Z,1.49,1.06,0.00,1.91,0.64,1.28,2.34,2.34,5.11,5.11,5.74,5.53,6.38,5.32,,,,,,,,,,,,,,
1799999993720349564,2027-01-15T07:59:53.720349564Z,1.06,0.21,-0.21,0.00,1.70,3.62,2.98,1.91,2.34,4.47,6.17,6.60,6.81,7.66,,,,,,,,,,,,,,
1799999993732833958,2027-01-15T07:59:53.732833958Z,-1.28,0.00,0.21,-0.43,1.70,4.04,2.98,2.34,2.98,4.04,5.74,6.38,6.38,8.51,,,,,,,,,,,,,,
1799999993745318353,2027-01-15T07:59:53.745318353Z,-1.91,-1.28,0.00,-0.85,0.00,2.13,3.83,2.55,4.04,4.89,4.47,6.81,5.74,9.57,,,,,,,,,,,,,,
1799999993757802747,2027-01-15T07:59:53.757802747Z,-1.91,-0.43,-0.64,-0.21,-0.64,1.49,3.19,2.98,3.19,5.53,5.32,6.60,6.17,8.09,,,,,,,,,,,,,,
1799999993770287142,2027-01-15T07:59:53.770287142Z,-1.91,-0.43,-0.43,1.06,-0.21,1.28,4.04,2.77,3.19,5.32,5.74,6.17,6.81,7.23,,,,,,,,,,,,,,
1799999993782771536,2027-01-15T07:59:53.782771536Z,1.49,-1.06,0.43,-0.85,1.70,2.13,4.47,2.98,4.47,5.74,5.11,5.53,7.45,5.74,,,,,,,,,,,,,,
1799999993795255931,2027-01-15T07:59:53.795255931Z,0.64,-0.85,0.00,-1.06,0.64,2.98,3.19,4.47,3.83,5.74,4.47,5.32,7.87,6.17,,,,,,,,,,,,,,
1799999993807740325,2027-01-15T07:59:53.807740325Z,0.21,-1.49,-1.49,1.70,1.28,1.70,2.98,6.17,2.55,4.89,5.11,6.17,6.81,7.66,,,,,,,,,,,,,,
1799999993820224720,2027-01-15T07:59:53.820224720Z,0.85,0.00,-1.28,1.91,-1.06,0.85,3.40,5.96,5.11,5.11,5.53,5.74,7.45,8.51,,,,,,,,,,,,,,
1799999993832709114,2027-01-15T07:59:53.832709114Z,0.00,0.64,-1.28,1.28,-0.43,1.49,4.26,5.32,5.96,4.47,5.32,4.89,7.66,8.09,,,,,,,,,,,,,,
1799999993845193509,2027-01-15T07:59:53.845193509Z,-2.55,0.21,-1.91,0.21,2.77,2.34,3.40,3.62,3.40,3.83,4.04,5.32,7.23,7.87,,,,,,,,,,,,,,
1799999993857677903,2027-01-15T07:59:53.857677903Z,-2.13,0.43,-0.21,-0.64,2.77,1.06,3.40,2.34,2.77,3.62,4.47,6.17,5.74,8.09,,,,,,,,,,,,,,
1799999993870162298,2027-01-15T07:59:53.870162298Z,2.55,-0.85,-0.43,0.00,2.34,-0.43,2.34,1.91,4.89,4.68,4.68,6.60,5.96,7.02,,,,,,,,,,,,,,
1799999993882646692,2027-01-15T07:59:53.882646692Z,0.85,-0.85,0.21,0.00,2.98,1.70,4.04,1.91,4.68,5.11,4.47,7.23,5.96,6.81,,,,,,,,,,,,,,
1799999993895131087,2027-01-15T07:59:53.895131087Z,-1.06,-0.64,1.91,-0.21,2.55,3.19,5.11,1.70,4.89,5.11,5.11,7.45,5.74,6.60,,,,,,,,,,,,,,
1799999993907615481,2027-01-15T07:59:53.907615481Z,1.06,0.00,0.21,0.85,1.70,2.77,4.89,2.13,3.62,6.17,3.19,7.45,5.74,7.45,,,,,,,,,,,,,,
1799999993920099876,2027-01-15T07:59:53.920099876Z,0.85,0.64,-0.43,1.49,2.13,2.77,3.19,2.13,2.13,5.32,2.77,7.45,6.38,7.23,,,,,,,,,,,,,,
1799999993932584270,2027-01-15T07:59:53.932584270Z,-1.49,-0.43,-1.91,0.21,2.13,3.19,2.55,2.98,2.98,3.40,6.17,7.02,5.74,7.02,,,,,,,,,,,,,,
1799999993945068665,2027-01-15T07:59:53.945068665Z,-1.28,-1.70,-1.49,0.43,3.40,2.34,2.77,2.55,2.13,3.83,5.96,5.53,5.53,7.87,,,,,,,,,,,,,,
1799999993957553059,2027-01-15T07:59:53.957553059Z,0.85,-2.13,-0.43,0.64,3.19,1.49,3.19,2.34,2.34,4.89,5.53,4.47,5.96,7.87,,,,,,,,,,,,,,
1799999993970037454,2027-01-15T07:59:53.970037454Z,0.64,-0.43,-0.85,0.21,0.43,1.28,3.40,3.40,4.26,5.11,6.38,4.68,6.38,6.38,,,,,,,,,,,,,,
1799999993982521848,2027-01-15T07:59:53.982521848Z,-0.21,0.64,-2.55,0.21,1.28,1.49,2.55,3.62,5.11,4.26,6.17,5.96,6.17,6.17,,,,,,,,,,,,,,
1799999993995006243,2027-01-15T07:59:53.995006243Z,1.70,-1.70,-0.64,1.49,2.98,0.85,1.49,3.19,4.04,5.32,6.60,5.74,6.81,7.45,,,,,,,,,,,,,,
1799999994007490637,2027-01-15T07:59:54.007490637Z,0.64,-2.34,0.21,0.64,2.55,1.91,2.77,2.55,3.19,5.74,5.74,5.96,7.45,7.45,,,,,,,,,,,,,,
1799999994019975032,2027-01-15T07:59:54.019975032Z,0.43,-0.85,0.21,0.00,2.55,2.77,3.19,2.55,2.34,5.53,5.11,7.02,8.09,7.23,,,,,,,,,,,,,,
1799999994032459426,2027-01-15T07:59:54.032459426Z,-0.21,1.49,0.43,0.43,0.64,4.47,2.55,4.26,4.04,6.17,7.02,6.17,6.38,7.66,,,,,,,,,,,,,,
1799999994044943821,2027-01-15T07:59:54.044943821Z,-0.21,1.06,1.06,1.70,0.43,3.40,2.13,4.26,4.26,5.96,6.17,5.96,6.38,6.60,,,,,,,,,,,,,,
1799999994057428215,2027-01-15T07:59:54.057428215Z,-0.21,-1.28,-0.21,1.28,1.28,2.13,3.19,3.19,3.83,5.11,5.53,7.23,7.45,6.81,,,,,,,,,,,,,,
1799999994069912610,2027-01-15T07:59:54.069912610Z,1.70,-0.85,-0.85,-0.43,2.34,1.70,2.77,2.98,4.04,4.47,4.26,6.38,7.45,7.23,,,,,,,,,,,,,,
1799999994082397004,2027-01-15T07:59:54.082397004Z,0.00,1.49,-0.85,0.43,1.70,0.85,2.13,2.77,4.26,4.26,4.26,5.96,6.38,6.60,,,,,,,,,,,,,,
1799999994094881399,2027-01-15T07:59:54.094881399Z,-0.64,1.70,0.00,0.64,0.64,0.21,2.13,3.62,2.77,4.26,5.53,5.53,5.74,7.23,,,,,,,,,,,,,,
1799999994107365793,2027-01-15T07:59:54.107365793Z,0.21,1.70,0.43,-0.85,0.43,2.55,2.34,3.83,4.89,3.83,6.17,4.68,5.96,7.66,,,,,,,,,,,,,,
1799999994119850188,2027-01-15T07:59:54.119850188Z,-1.06,0.00,-1.28,-1.06,1.06,3.19,1.70,2.77,8.09,3.62,6.60,5.32,7.66,7.45,,,,,,,,,,,,,,
1799999994132334582,2027-01-15T07:59:54.132334582Z,0.64,-1.91,-1.49,-0.43,0.85,2.34,1.91,2.77,7.02,5.11,6.81,6.38,7.87,8.30,,,,,,,,,,,,,,
1799999994144818977,2027-01-15T07:59:54.144818977Z,-2.13,-1.49,0.21,0.64,0.64,2.98,2.55,2.77,5.74,5.32,7.23,7.66,7.45,8.09,,,,,,,,,,,,,,
1799999994157303371,2027-01-15T07:59:54.157303371Z,-0.64,-1.70,-0.21,1.06,0.43,2.55,4.04,1.70,4.47,4.47,5.74,5.96,5.53,6.17,,,,,,,,,,,,,,
1799999994169787766,2027-01-15T07:59:54.169787766Z,-0.21,-2.13,-0.43,1.49,0.00,1.91,3.83,1.70,3.62,4.26,5.53,5.74,5.32,6.60,,,,,,,,,,,,,,
1799999994182272160,2027-01-15T07:59:54.182272160Z,0.85,-1.28,1.49,-0.21,0.00,-0.21,2.55,4.26,3.83,5.32,5.74,6.81,5.53,8.09,,,,,,,,,,,,,,
1799999994194756555,2027-01-15T07:59:54.194756555Z,1.06,-2.13,0.85,-1.06,0.64,1.91,2.13,3.62,5.11,5.96,5.11,7.02,5.96,8.72,,,,,,,,,,,,,,
1799999994207240949,2027-01-15T07:59:54.207240949Z,,-2.34,-0.85,-0.64,0.64,3.19,2.98,2.34,6.38,5.53,4.04,6.38,5.74,8.30,,,,,,,,,,,,,,
1799999994219725344,2027-01-15T07:59:54.219725344Z,-1.70,-1.70,-0.85,1.06,1.70,1.28,3.19,3.83,4.47,3.83,4.68,5.74,6.38,6.81,,,,,,,,,,,,,,
1799999994232209738,2027-01-15T07:59:54.232209738Z,-1.06,-1.70,-0.64,1.70,1.91,1.70,3.40,3.40,4.26,3.40,5.11,5.53,6.17,7.02,,,,,,,,,,,,,,
1799999994244694133,2027-01-15T07:59:54.244694133Z,-0.85,1.28,-1.06,1.70,-0.64,2.77,4.04,2.98,4.04,2.98,6.81,5.74,5.96,6.81,,,,,,,,,,,,,,
1799999994257178527,2027-01-15T07:59:54.257178527Z,-0.85,0.43,-1.06,2.13,-0.64,3.19,2.55,3.40,5.32,3.83,6.38,5.11,5.74,5.74,,,,,,,,,,,,,,
1799999994269662922,2027-01-15T07:59:54.269662922Z,-0.21,-0.21,-0.43,2.13,1.06,3.83,1.91,4.89,5.53,4.68,5.53,5.11,5.96,5.32,,,,,,,,,,,,,,
1799999994282147316,2027-01-15T07:59:54.282147316Z,-1.70,0.85,1.06,1.70,3.40,2.77,1.49,3.40,2.77,4.89,4.89,6.81,6.38,7.02,,,,,,,,,,,,,,
1799999994294631711,2027-01-15T07:59:54.294631711Z,-0.85,0.21,0.21,1.28,2.77,2.34,1.70,1.28,2.55,3.83,5.32,6.60,6.81,7.87,,,,,,,,,,,,,,
1799999994307116105,2027-01-15T07:59:54.307116105Z,-1.70,1.28,-1.70,-0.21,1.06,1.06,1.70,1.70,2.13,4.26,5.96,6.60,7.23,8.30,,,,,,,,,,,,,,
1799999994319600500,2027-01-15T07:59:54.319600500Z,0.85,1.28,0.21,-0.21,0.43,0.00,2.55,3.83,1.91,4.04,6.17,6.60,6.38,7.87,,,,,,,,,,,,,,
1799999994332084894,2027-01-15T07:59:54.332084894Z,1.06,0.43,1.28,0.21,0.64,1.06,3.83,4.26,3.40,3.83,5.32,6.38,6.17,7.87,,,,,,,,,,,,,,
1799999994344569289,2027-01-15T07:59:54.344569289Z,-2.34,-0.43,-0.43,0.00,1.91,2.13,4.47,4.89,2.77,3.62,3.83,6.60,5.96,8.51,,,,,,,,,,,,,,
1799999994357053683,2027-01-15T07:59:54.357053683Z,-1.28,-1.06,0.64,0.00,1.70,1.49,2.55,4.68,2.34,4.47,4.04,6.38,6.38,8.72,,,,,,,,,,,,,,
1799999994369538078,2027-01-15T07:59:54.369538078Z,0.43,-1.49,1.49,-0.21,1.49,2.55,1.91,4.04,2.98,5.32,5.53,6.17,6.38,8.09,,,,,,,,,,,,,,
1799999994382022472,2027-01-15T07:59:54.382022472Z,-1.49,-0.64,1.70,0.00,1.91,3.19,1.28,3.40,2.98,4.89,5.32,7.02,6.60,6.60,,,,,,,,,,,,,,
1799999994394506867,2027-01-15T07:59:54.394506867Z,-0.43,-1.06,1.70,0.64,1.49,1.91,1.06,2.98,2.34,4.68,4.68,6.81,6.60,5.96,,,,,,,,,,,,,,
1799999994406991261,2027-01-15T07:59:54.406991261Z,1.06,-0.85,-0.64,0.21,0.85,1.49,-0.21,3.40,2.34,5.32,6.38,7.02,7.23,5.53,,,,,,,,,,,,,,
1799999994419475656,2027-01-15T07:59:54.419475656Z,-1.06,-0.21,-0.64,0.21,0.85,2.55,1.28,4.47,2.77,4.04,5.96,7.02,6.60,5.32,,,,,,,,,,,,,,
1799999994431960050,2027-01-15T07:59:54.431960050Z,-0.21,-0.21,1.91,0.00,1.06,1.91,4.68,3.83,3.83,5.11,5.32,5.96,6.17,7.66,,,,,,,,,,,,,,
1799999994444444445,2027-01-15T07:59:54.444444445Z,0.85,-1.70,1.06,0.43,2.13,2.55,4.26,3.19,2.98,5.32,5.74,5.32,7.02,8.30,,,,,,,,,,,,,,
1799999994456928839,2027-01-15T07:59:54.456928839Z,0.21,-1.06,0.00,-0.21,2.77,3.40,2.34,2.77,2.13,4.04,6.38,5.11,7.02,8.09,,,,,,,,,,,,,,
1799999994469413234,2027-01-15T07:59:54.469413234Z,0.00,0.00,-2.13,-0.64,-0.21,1.70,2.77,2.34,3.83,4.47,5.74,7.02,6.60,8.94,,,,,,,,,,,,,,
1799999994481897628,2027-01-15T07:59:54.481897628Z,-2.98,-0.43,-1.06,0.64,-2.13,1.70,3.19,1.91,4.04,4.68,5.53,7.45,7.23,9.15,,,,,,,,,,,,,,
1799999994494382023,2027-01-15T07:59:54.494382023Z,-2.13,-1.28,0.21,1.70,-1.49,1.91,3.83,1.70,4.89,4.47,5.53,4.68,6.38,7.45,,,,,,,,,,,,,,
1799999994506866417,2027-01-15T07:59:54.506866417Z,-3.19,-0.43,-1.28,0.43,0.64,1.70,4.68,3.19,5.32,5.11,5.32,4.89,5.53,7.87,,,,,,,,,,,,,,
1799999994519350812,2027-01-15T07:59:54.519350812Z,-1.28,1.06,-0.85,-0.21,0.21,2.34,4.04,3.40,4.26,5.11,5.32,6.38,6.17,8.72,,,,,,,,,,,,,,
1799999994531835206,2027-01-15T07:59:54.531835206Z,-1.06,-0.43,0.00,-1.49,1.70,3.83,2.55,1.49,3.83,3.40,4.47,7.23,6.60,6.81,,,,,,,,,,,,,,
1799999994544319601,2027-01-15T07:59:54.544319601Z,-2.77,-1.28,-0.43,-0.43,0.85,3.83,2.77,1.28,3.19,2.98,3.62,6.60,6.60,6.38,,,,,,,,,,,,,,
1799999994556803996,2027-01-15T07:59:54.556803996Z,-3.40,-2.13,-0.21,1.28,2.77,3.19,3.62,1.49,1.91,3.19,3.62,5.53,6.81,7.45,,,,,,,,,,,,,,
1799999994569288390,2027-01-15T07:59:54.569288390Z,-2.77,-2.77,0.00,1.70,2.77,2.77,3.62,2.34,3.40,4.04,4.04,6.17,7.87,8.51,,,,,,,,,,,,,,
1799999994581772785,2027-01-15T07:59:54.581772785Z,-0.21,-2.13,-0.85,1.91,1.70,2.55,3.83,2.34,4.89,5.32,4.68,6.17,8.30,7.87,,,,,,,,,,,,,,
1799999994594257179,2027-01-15T07:59:54.594257179Z,-0.21,-0.21,-0.43,0.85,2.13,0.64,2.77,1.70,3.19,5.32,6.38,5.32,7.45,6.60,,,,,,,,,,,,,,
1799999994606741574,2027-01-15T07:59:54.606741574Z,1.06,-0.43,0.00,0.85,2.13,-0.21,2.34,2.55,2.13,5.74,5.96,6.17,6.60,6.17,,,,,,,,,,,,,,
1799999994619225968,2027-01-15T07:59:54.619225968Z,0.43,-1.49,-0.21,0.21,-1.91,0.43,1.28,1.70,3.83,5.11,5.53,5.96,5.96,6.60,,,,,,,,,,,,,,
1799999994631710363,2027-01-15T07:59:54.631710363Z,0.00,-0.85,-1.28,0.21,-0.64,1.70,1.91,2.98,5.11,5.96,5.11,5.74,5.74,6.60,,,,,,,,,,,,,,
1799999994644194757,2027-01-15T07:59:54.644194757Z,-1.28,0.43,-1.49,0.00,1.49,2.77,2.34,4.26,4.89,5.53,5.11,4.68,8.09,6.60,,,,,,,,,,,,,,
1799999994656679152,2027-01-15T07:59:54.656679152Z,-0.21,-0.43,-0.85,1.49,-0.21,2.13,1.70,4.26,3.19,5.11,6.17,6.60,8.72,6.81,,,,,,,,,,,,,,
1799999994669163546,2027-01-15T07:59:54.669163546Z,-1.91,-0.43,-1.49,1.49,0.21,0.85,2.34,4.89,3.19,5.11,6.60,6.38,7.66,7.23,,,,,,,,,,,,,,
1799999994681647941,2027-01-15T07:59:54.681647941Z,-0.21,0.00,-1.28,1.06,-0.21,0.21,3.40,3.40,5.53,4.68,5.53,5.11,6.38,7.87,,,,,,,,,,,,,,
1799999994694132335,2027-01-15T07:59:54.694132335Z,-0.21,0.64,-0.64,1.06,1.28,0.00,2.34,3.62,5.11,3.83,4.89,5.53,7.23,7.45,,,,,,,,,,,,,,
1799999994706616730,2027-01-15T07:59:54.706616730Z,-0.85,1.06,-0.21,1.06,3.62,0.21,1.28,3.83,3.83,4.04,4.47,5.96,6.38,7.45,,,,,,,,,,,,,,
1799999994719101124,2027-01-15T07:59:54.719101124Z,0.21,0.00,0.43,2.13,-1.91,2.34,2.34,3.62,2.34,4.26,5.32,7.23,5.96,7.87,,,,,,,,,,,,,,
1799999994731585519,2027-01-15T07:59:54.731585519Z,0.85,0.00,0.21,1.70,-0.64,2.98,3.19,4.68,2.98,3.83,4.68,7.45,6.60,6.81,,,,,,,,,,,,,,
1799999994744069913,2027-01-15T07:59:54.744069913Z,-1.06,-1.06,1.49,0.85,2.34,2.77,3.19,5.53,4.04,5.11,3.83,6.81,6.38,5.53,,,,,,,,,,,,,,
1799999994756554308,2027-01-15T07:59:54.756554308Z,-0.43,-0.43,0.85,0.64,1.91,2.34,2.34,4.04,4.26,4.68,4.68,5.74,5.53,6.60,,,,,,,,,,,,,,
1799999994769038702,2027-01-15T07:59:54.769038702Z,-0.64,0.21,0.43,0.64,3.62,2.98,2.77,5.11,3.62,4.68,4.26,5.96,5.53,7.45,,,,,,,,,,,,,,
1799999994781523097,2027-01-15T07:59:54.781523097Z,-0.64,-0.64,-0.43,0.43,4.47,2.13,2.55,3.19,3.83,6.38,4.68,6.60,6.17,6.17,,,,,,,,,,,,,,
1799999994794007491,2027-01-15T07:59:54.794007491Z,-0.21,-0.85,-1.28,0.64,4.26,2.98,2.77,2.34,4.26,5.11,5.53,6.17,5.74,6.38,,,,,,,,,,,,,,
1799999994806491886,2027-01-15T07:59:54.806491886Z,-1.49,0.64,-0.85,0.64,2.34,3.40,2.55,3.83,3.40,3.19,6.17,5.11,5.32,7.87,,,,,,,,,,,,,,
1799999994818976280,2027-01-15T07:59:54.818976280Z,0.00,1.06,-1.06,-0.64,3.19,2.98,2.55,3.19,3.83,3.62,7.66,5.74,5.74,7.45,,,,,,,,,,,,,,
1799999994831460675,2027-01-15T07:59:54.831460675Z,-0.21,-0.85,-1.06,-0.85,3.83,2.13,1.28,1.91,4.04,3.19,7.66,7.02,5.96,5.96,,,,,,,,,,,,,,
1799999994843945069,2027-01-15T07:59:54.843945069Z,0.85,0.00,1.06,0.43,2.55,2.13,1.28,3.19,5.32,4.68,5.32,6.81,5.74,7.02,,,,,,,,,,,,,,
1799999994856429464,2027-01-15T07:59:54.856429464Z,0.21,0.64,1.28,0.43,1.91,2.98,1.91,4.04,6.17,5.11,6.60,7.23,6.17,7.66,,,,,,,,,,,,,,
1799999994868913858,2027-01-15T07:59:54.868913858Z,0.21,-0.64,0.21,2.13,1.06,2.13,2.98,5.11,7.87,5.32,7.87,6.60,6.81,6.38,,,,,,,,,,,,,,
1799999994881398253,2027-01-15T07:59:54.881398253Z,-0.64,-1.06,1.28,1.91,0.64,2.13,3.40,3.19,4.26,4.26,6.17,7.02,6.17,6.60,,,,,,,,,,,,,,
1799999994893882647,2027-01-15T07:59:54.893882647Z,-2.13,-1.49,1.06,0.64,-1.91,2.77,3.62,1.91,2.98,4.47,4.47,7.45,5.74,7.87,,,,,,,,,,,,,,
1799999994906367042,2027-01-15T07:59:54.906367042Z,0.21,-1.91,0.43,0.21,-1.49,1.70,3.62,3.19,5.11,4.26,4.68,7.23,5.96,9.36,,,,,,,,,,,,,,
1799999994918851436,2027-01-15T07:59:54.918851436Z,0.85,0.21,0.00,0.43,0.43,0.85,4.47,2.55,6.81,4.68,5.32,5.32,5.53,8.09,,,,,,,,,,,,,,
1799999994931335831,2027-01-15T07:59:54.931335831Z,0.64,0.43,-0.85,-0.43,3.62,0.85,4.68,2.13,5.32,4.26,5.53,3.40,5.74,5.96,,,,,,,,,,,,,,
1799999994943820225,2027-01-15T07:59:54.943820225Z,-0.43,-0.21,-1.28,-0.21,1.91,1.06,3.19,2.34,4.04,3.40,5.53,5.32,5.96,6.60,,,,,,,,,,,,,,
1799999994956304620,2027-01-15T07:59:54.956304620Z,-1.06,-0.43,-0.64,1.06,-0.43,1.28,2.34,1.49,2.13,4.26,4.47,7.87,5.74,7.02,,,,,,,,,,,,,,
1799999994968789014,2027-01-15T07:59:54.968789014Z,-1.49,-0.43,-0.85,0.64,1.70,2.13,3.83,1.06,2.98,5.32,5.11,6.60,5.32,7.66,,,,,,,,,,,,,,
1799999994981273409,2027-01-15T07:59:54.981273409Z,1.70,0.43,-1.49,-0.64,4.26,1.49,2.98,1.06,4.47,4.89,5.53,6.17,5.96,8.72,,,,,,,,,,,,,,
1799999994993757803,2027-01-15T07:59:54.993757803Z,1.28,-0.64,-2.13,0.00,3.62,1.70,2.13,2.13,5.11,4.47,5.11,5.96,8.30,8.30,,,,,,,,,,,,,,
1799999995006242198,2027-01-15T07:59:55.006242198Z,-2.13,-2.55,-1.49,-0.64,1.06,1.91,2.98,2.98,4.68,4.26,5.53,6.17,8.09,7.87,,,,,,,,,,,,,,
1799999995018726592,2027-01-15T07:59:55.018726592Z,1.28,-2.98,-0.85,-1.28,1.49,3.19,2.98,3.19,4.26,4.47,5.96,6.38,6.81,7.66,,,,,,,,,,,,,,
1799999995031210987,2027-01-15T07:59:55.031210987Z,0.21,-2.13,-1.06,0.85,2.13,5.74,2.13,4.04,4.68,4.26,5.53,7.66,6.38,6.60,,,,,,,,,,,,,,
1799999995043695381,2027-01-15T07:59:55.043695381Z,0.00,-0.85,-1.91,1.70,1.49,5.32,2.77,3.19,3.83,5.11,5.74,7.23,6.17,6.60,,,,,,,,,,,,,,
1799999995056179776,2027-01-15T07:59:55.056179776Z,-1.70,-1.06,-1.06,0.21,0.64,3.62,4.04,1.06,2.55,5.32,5.32,5.32,5.96,5.74,,,,,,,,,,,,,,
1799999995068664170,2027-01-15T07:59:55.068664170Z,-2.55,-2.34,0.00,-0.43,1.06,3.19,3.19,0.85,1.28,5.11,5.11,5.53,5.96,6.38,,,,,,,,,,,,,,
1799999995081148565,2027-01-15T07:59:55.081148565Z,0.43,-1.06,0.21,0.00,2.34,3.83,2.98,1.70,1.49,4.26,4.89,5.96,6.38,7.45,,,,,,,,,,,,,,
1799999995093632959,2027-01-15T07:59:55.093632959Z,0.00,0.43,0.00,0.21,2.55,1.91,2.55,2.55,4.04,3.19,5.96,5.53,6.60,7.02,,,,,,,,,,,,,,
1799999995106117354,2027-01-15T07:59:55.106117354Z,-2.34,0.21,0.21,0.21,2.98,1.28,2.55,3.62,4.04,3.62,6.38,5.96,7.23,7.66,,,,,,,,,,,,,,
1799999995118601748,2027-01-15T07:59:55.118601748Z,-3.40,-0.64,-0.85,0.21,2.77,2.13,3.19,4.89,4.26,3.83,6.17,5.11,7.87,6.81,,,,,,,,,,,,,,
1799999995131086143,2027-01-15T07:59:55.131086143Z,0.64,-0.64,-1.28,1.06,2.13,2.55,3.19,2.98,2.55,4.68,4.89,3.62,7.66,6.38,,,,,,,,,,,,,,
1799999995143570537,2027-01-15T07:59:55.143570537Z,-0.85,-0.21,0.43,1.70,2.55,3.19,3.40,2.13,2.55,4.26,4.47,4.26,6.81,7.02,,,,,,,,,,,,,,
1799999995156054932,2027-01-15T07:59:55.156054932Z,0.64,0.43,0.21,0.21,0.43,1.28,2.77,3.40,4.26,3.40,6.81,7.23,5.96,6.81,,,,,,,,,,,,,,
1799999995168539326,2027-01-15T07:59:55.168539326Z,-1.49,-0.21,-0.85,-1.06,-1.06,1.06,3.19,3.40,4.47,4.04,6.17,7.87,6.38,7.23,,,,,,,,,,,,,,
1799999995181023721,2027-01-15T07:59:55.181023721Z,-1.06,1.06,-0.85,-0.21,-0.21,1.70,1.91,2.34,3.62,5.74,6.60,7.66,7.23,6.81,,,,,,,,,,,,,,
1799999995193508115,2027-01-15T07:59:55.193508115Z,1.91,-0.43,0.43,-0.85,0.43,1.28,1.91,2.77,2.98,4.68,6.17,7.23,6.60,7.02,,,,,,,,,,,,,,
1799999995205992510,2027-01-15T07:59:55.205992510Z,-2.13,0.00,0.64,-0.21,1.49,2.13,2.98,4.47,3.40,4.26,5.53,5.96,5.96,7.02,,,,,,,,,,,,,,
1799999995218476904,2027-01-15T07:59:55.218476904Z,-1.06,0.85,1.06,2.13,0.43,2.13,2.34,4.26,4.68,4.89,4.89,3.19,6.81,7.45,,,,,,,,,,,,,,
1799999995230961299,2027-01-15T07:59:55.230961299Z,-3.40,0.21,1.28,1.70,-0.43,2.13,2.55,2.98,3.83,4.68,5.53,3.62,6.60,7.66,,,,,,,,,,,,,,
1799999995243445693,2027-01-15T07:59:55.243445693Z,-4.26,1.70,-0.21,0.64,-0.43,1.70,2.13,1.49,3.40,4.89,6.17,4.68,6.17,5.53,,,,,,,,,,,,,,
1799999995255930088,2027-01-15T07:59:55.255930088Z,-1.91,1.91,-0.64,-0.43,1.49,2.13,3.83,3.83,5.32,5.32,5.74,6.17,6.17,6.81,,,,,,,,,,,,,,
1799999995268414482,2027-01-15T07:59:55.268414482Z,-1.70,1.28,0.64,-2.55,2.77,1.70,4.04,4.89,6.81,5.74,5.74,6.38,6.17,6.38,,,,,,,,,,,,,,
1799999995280898877,2027-01-15T07:59:55.280898877Z,-2.13,-0.21,0.64,0.85,2.13,1.70,2.77,3.62,4.47,3.62,5.53,5.53,7.02,7.23,,,,,,,,,,,,,,
1799999995293383271,2027-01-15T07:59:55.293383271Z,,-0.85,0.00,1.28,0.85,1.91,3.83,3.83,3.19,2.98,5.11,6.17,6.38,9.79,,,,,,,,,,,,,,
1799999995305867666,2027-01-15T07:59:55.305867666Z,1.28,-2.55,-1.28,0.64,1.28,3.19,3.19,4.68,2.98,4.68,4.26,6.17,7.23,8.09,,,,,,,,,,,,,,
1799999995318352060,2027-01-15T07:59:55.318352060Z,0.43,-2.34,-0.64,1.06,1.91,1.91,2.34,3.19,3.40,5.11,4.47,5.74,7.02,8.09,,,,,,,,,,,,,,
1799999995330836455,2027-01-15T07:59:55.330836455Z,-1.28,-1.91,0.21,1.06,2.55,1.28,3.62,4.26,4.47,5.11,5.32,6.38,6.17,7.87,,,,,,,,,,,,,,
1799999995343320849,2027-01-15T07:59:55.343320849Z,-2.55,-0.64,0.00,-0.64,1.49,2.34,3.62,4.26,5.11,5.11,5.96,8.30,7.23,8.09,,,,,,,,,,,,,,
1799999995355805244,2027-01-15T07:59:55.355805244Z,0.00,-0.43,-0.21,-0.21,-0.21,1.49,2.34,3.40,3.19,5.11,5.32,8.30,7.23,8.94,,,,,,,,,,,,,,
1799999995368289638,2027-01-15T07:59:55.368289638Z,-1.70,-2.13,0.43,0.64,-0.85,0.85,0.21,3.19,1.70,5.32,4.26,7.66,7.02,8.51,,,,,,,,,,,,,,
1799999995380774033,2027-01-15T07:59:55.380774033Z,0.21,-1.49,1.28,0.43,0.21,1.49,2.34,3.62,2.98,5.11,4.04,7.23,6.60,7.66,,,,,,,,,,,,,,
1799999995393258427,2027-01-15T07:59:55.393258427Z,0.43,0.00,1.70,0.00,3.19,0.43,3.19,3.62,5.53,5.53,5.11,7.45,5.74,6.81,,,,,,,,,,,,,,
1799999995405742822,2027-01-15T07:59:55.405742822Z,0.43,-0.64,1.28,2.13,4.89,1.06,1.49,4.68,7.23,5.11,5.53,7.23,5.96,6.81,,,,,,,,,,,,,,
1799999995418227216,2027-01-15T07:59:55.418227216Z,,-0.85,1.28,2.98,4.89,1.91,1.28,4.89,5.53,5.32,5.74,6.17,6.60,7.66,,,,,,,,,,,,,,
1799999995430711611,2027-01-15T07:59:55.430711611Z,0.00,0.00,1.28,2.13,2.98,4.04,2.55,3.62,3.83,5.11,4.47,5.53,6.60,6.60,,,,,,,,,,,,,,
1799999995443196005,2027-01-15T07:59:55.443196005Z,1.06,-0.85,0.64,1.06,2.98,1.70,2.98,2.13,3.19,3.83,5.11,5.96,6.38,5.32,,,,,,,,,,,,,,
1799999995455680400,2027-01-15T07:59:55.455680400Z,0.21,-1.06,1.28,2.13,3.19,0.21,2.98,3.19,2.77,4.04,5.96,6.17,6.17,6.17,,,,,,,,,,,,,,
1799999995468164795,2027-01-15T07:59:55.468164795Z,-0.85,-1.91,1.49,2.13,1.91,1.49,2.34,4.89,4.04,5.11,4.89,5.74,5.96,7.45,,,,,,,,,,,,,,
1799999995480649189,2027-01-15T07:59:55.480649189Z,0.43,-0.43,-0.21,1.70,1.06,2.77,2.13,4.04,4.26,4.68,5.32,5.96,6.17,8.51,,,,,,,,,,,,,,
1799999995493133584,2027-01-15T07:59:55.493133584Z,-0.85,-1.06,-3.40,-0.21,2.13,2.34,2.13,3.19,4.04,4.47,6.38,6.81,6.38,8.09,,,,,,,,,,,,,,
1799999995505617978,2027-01-15T07:59:55.505617978Z,-2.34,-1.49,-3.19,0.64,2.55,2.13,1.91,4.68,4.26,4.26,6.38,5.96,6.60,7.45,,,,,,,,,,,,,,
1799999995518102373,2027-01-15T07:59:55.518102373Z,-0.85,-0.43,-2.55,1.49,1.70,2.55,2.98,4.89,3.40,4.26,7.02,5.53,7.23,7.66,,,,,,,,,,,,,,
1799999995530586767,2027-01-15T07:59:55.530586767Z,-1.06,-1.06,-0.85,1.70,0.21,2.34,3.62,3.83,1.06,4.68,5.96,5.96,7.23,7.23,,,,,,,,,,,,,,
1799999995543071162,2027-01-15T07:59:55.543071162Z,0.00,-0.85,-0.64,0.64,-0.21,1.70,2.13,2.98,1.49,5.11,4.89,7.02,9.15,6.81,,,,,,,,,,,,,,
1799999995555555556,2027-01-15T07:59:55.555555556Z,0.00,-0.85,0.64,1.06,2.13,0.43,1.28,4.04,4.47,4.47,5.32,6.60,9.36,6.60,,,,,,,,,,,,,,
1799999995568039951,2027-01-15T07:59:55.568039951Z,-2.55,-0.64,0.00,0.00,0.43,0.43,2.55,3.62,5.53,3.83,5.74,5.96,8.09,6.60,,,,,,,,,,,,,,
1799999995580524345,2027-01-15T07:59:55.580524345Z,-1.06,0.00,-0.43,0.64,-1.49,1.49,3.62,2.98,4.04,3.40,6.17,5.74,7.02,7.23,,,,,,,,,,,,,,
1799999995593008740,2027-01-15T07:59:55.593008740Z,-0.85,-0.85,-0.43,2.55,0.64,4.04,3.19,2.98,3.40,4.89,5.32,6.60,4.26,8.94,,,,,,,,,,,,,,
1799999995605493134,2027-01-15T07:59:55.605493134Z,1.49,-0.85,1.06,1.70,1.70,3.62,3.62,2.98,3.40,5.53,5.32,5.96,4.68,8.51,,,,,,,,,,,,,,
1799999995617977529,2027-01-15T07:59:55.617977529Z,-0.21,-2.13,0.64,0.00,-0.85,3.19,2.77,2.34,2.34,4.89,4.89,5.74,5.96,7.23,,,,,,,,,,,,,,
1799999995630461923,2027-01-15T07:59:55.630461923Z,1.49,-0.85,0.21,0.43,-2.55,3.62,4.04,2.98,2.13,4.47,5.11,6.81,6.17,5.96,,,,,,,,,,,,,,
1799999995642946318,2027-01-15T07:59:55.642946318Z,0.00,0.00,1.06,1.28,-2.55,2.13,4.68,2.98,1.70,4.47,5.11,7.66,7.02,5.11,,,,,,,,,,,,,,
1799999995655430712,2027-01-15T07:59:55.655430712Z,-0.21,-0.43,-1.28,-0.43,0.43,1.91,2.55,3.83,4.26,4.89,6.17,6.17,7.87,6.81,,,,,,,,,,,,,,
1799999995667915107,2027-01-15T07:59:55.667915107Z,-1.91,-2.13,-1.49,-0.64,1.70,3.62,2.98,3.19,4.04,5.32,5.96,6.17,7.66,7.45,,,,,,,,,,,,,,
1799999995680399501,2027-01-15T07:59:55.680399501Z,-0.43,-2.55,0.85,0.85,-0.21,2.34,3.83,2.55,4.04,5.11,4.04,5.96,6.81,7.87,,,,,,,,,,,,,,
1799999995692883896,2027-01-15T07:59:55.692883896Z,-0.43,-1.49,-0.43,1.06,0.85,2.34,5.11,1.49,3.62,4.47,5.32,5.32,6.60,8.09,,,,,,,,,,,,,,
1799999995705368290,2027-01-15T07:59:55.705368290Z,-1.70,-3.19,-0.43,0.64,1.70,3.83,5.74,2.98,3.19,3.62,5.96,5.74,5.96,8.30,,,,,,,,,,,,,,
1799999995717852685,2027-01-15T07:59:55.717852685Z,-1.91,-1.06,-0.21,-0.21,2.55,3.19,3.19,3.62,3.19,4.04,5.74,5.53,5.53,7.66,,,,,,,,,,,,,,
1799999995730337079,2027-01-15T07:59:55.730337079Z,-1.06,0.21,-1.49,-0.21,2.34,2.13,2.77,2.55,2.77,4.04,5.74,5.32,5.53,7.02,,,,,,,,,,,,,,
1799999995742821474,2027-01-15T07:59:55.742821474Z,0.21,0.21,-1.49,0.64,3.62,1.70,3.19,2.34,4.68,5.32,6.17,5.74,6.38,7.87,,,,,,,,,,,,,,
1799999995755305868,2027-01-15T07:59:55.755305868Z,-1.28,-0.64,-0.85,0.43,1.91,2.77,3.40,4.04,5.96,5.53,5.53,6.38,6.17,8.09,,,,,,,,,,,,,,
1799999995767790263,2027-01-15T07:59:55.767790263Z,-3.19,-1.28,-1.28,0.21,0.21,3.83,1.91,4.89,5.11,5.11,5.53,6.81,5.53,7.23,,,,,,,,,,,,,,
1799999995780274657,2027-01-15T07:59:55.780274657Z,-0.64,-0.21,-1.49,0.85,-0.85,2.77,0.43,2.55,4.68,5.11,5.74,7.23,6.60,6.81,,,,,,,,,,,,,,
1799999995792759052,2027-01-15T07:59:55.792759052Z,-2.34,0.43,-1.49,1.70,0.64,1.91,0.85,1.91,6.17,5.53,5.11,7.02,6.60,6.17,,,,,,,,,,,,,,
1799999995805243446,2027-01-15T07:59:55.805243446Z,1.06,0.21,-1.49,0.43,2.55,2.34,2.13,3.62,3.62,5.11,4.47,6.81,5.53,7.02,,,,,,,,,,,,,,
1799999995817727841,2027-01-15T07:59:55.817727841Z,-0.43,0.21,-0.85,0.00,1.70,3.40,2.34,3.62,3.40,4.47,4.89,5.74,5.53,7.87,,,,,,,,,,,,,,
1799999995830212235,2027-01-15T07:59:55.830212235Z,-1.28,-0.21,-0.64,-0.43,1.91,2.34,3.40,4.04,3.19,4.04,5.96,5.32,6.38,8.30,,,,,,,,,,,,,,
1799999995842696630,2027-01-15T07:59:55.842696630Z,-0.64,0.43,0.85,-0.43,0.43,1.06,1.70,3.40,1.49,3.40,6.38,6.60,6.17,7.45,,,,,,,,,,,,,,
1799999995855181024,2027-01-15T07:59:55.855181024Z,-0.85,0.64,-0.43,0.43,-1.70,1.06,2.13,1.28,2.34,4.68,5.96,8.09,5.74,6.81,,,,,,,,,,,,,,
1799999995867665419,2027-01-15T07:59:55.867665419Z,-1.28,-0.85,-1.06,0.43,-2.55,-1.06,3.83,0.21,4.68,5.74,5.53,5.96,7.66,7.02,,,,,,,,,,,,,,
1799999995880149813,2027-01-15T07:59:55.880149813Z,-2.34,-0.64,-0.21,0.85,-0.43,-1.06,3.40,1.28,5.11,6.17,6.38,6.38,7.87,8.09,,,,,,,,,,,,,,
1799999995892634208,2027-01-15T07:59:55.892634208Z,1.06,-0.43,0.64,2.55,2.13,-1.06,2.55,3.40,3.62,6.60,5.74,7.23,6.17,7.45,,,,,,,,,,,,,,
1799999995905118602,2027-01-15T07:59:55.905118602Z,0.43,0.21,-0.21,1.28,2.13,-0.64,2.55,2.34,2.98,5.96,5.53,6.81,5.96,5.74,,,,,,,,,,,,,,
1799999995917602997,2027-01-15T07:59:55.917602997Z,-0.85,2.13,-1.06,0.85,2.55,0.21,0.85,1.49,3.40,4.89,5.74,5.74,5.53,6.60,,,,,,,,,,,,,,
1799999995930087391,2027-01-15T07:59:55.930087391Z,0.00,4.04,-0.21,0.21,0.85,1.70,1.70,1.28,4.26,4.47,5.53,6.60,5.96,8.09,,,,,,,,,,,,,,
1799999995942571786,2027-01-15T07:59:55.942571786Z,0.00,2.98,0.21,0.21,1.06,2.34,1.70,4.89,5.32,4.68,4.89,5.74,6.38,7.87,,,,,,,,,,,,,,
1799999995955056180,2027-01-15T07:59:55.955056180Z,0.21,0.21,1.06,-0.64,2.34,2.34,1.49,5.74,5.53,4.89,5.53,5.11,6.38,7.23,,,,,,,,,,,,,,
1799999995967540575,2027-01-15T07:59:55.967540575Z,0.00,-0.43,-0.43,0.00,2.55,2.13,2.98,3.83,4.04,3.83,4.68,5.32,6.38,6.60,,,,,,,,,,,,,,
1799999995980024969,2027-01-15T07:59:55.980024969Z,0.00,-0.85,-0.43,0.00,2.55,1.06,4.04,4.04,3.40,4.04,4.04,5.96,7.02,5.96,,,,,,,,,,,,,,
1799999995992509364,2027-01-15T07:59:55.992509364Z,-1.06,-0.85,0.85,-2.13,1.70,0.64,2.13,5.74,2.13,3.83,4.89,6.81,7.45,6.38,,,,,,,,,,,,,,
1799999996004993758,2027-01-15T07:59:56.004993758Z,1.28,-1.49,1.49,-0.43,1.28,2.13,2.55,4.89,2.13,4.68,5.32,6.60,7.02,7.02,,,,,,,,,,,,,,
1799999996017478153,2027-01-15T07:59:56.017478153Z,0.21,-2.55,1.49,2.34,0.85,2.34,3.40,2.98,2.98,5.32,4.89,6.81,7.66,6.81,,,,,,,,,,,,,,
1799999996029962547,2027-01-15T07:59:56.029962547Z,-0.85,-1.70,2.13,1.28,0.85,1.28,4.04,1.49,4.47,5.53,4.47,6.81,7.66,5.96,,,,,,,,,,,,,,
1799999996042446942,2027-01-15T07:59:56.042446942Z,0.85,0.00,2.34,0.21,1.06,1.06,3.62,1.70,5.32,5.11,5.32,6.38,6.81,5.32,,,,,,,,,,,,,,
1799999996054931336,2027-01-15T07:59:56.054931336Z,0.43,2.55,-0.21,-1.70,0.85,1.70,3.19,2.77,4.68,4.47,5.53,6.17,5.11,5.74,,,,,,,,,,,,,,
1799999996067415731,2027-01-15T07:59:56.067415731Z,1.70,-0.21,-2.55,0.64,0.85,1.70,3.19,3.19,4.04,5.11,4.89,6.38,5.96,7.87,,,,,,,,,,,,,,
1799999996079900125,2027-01-15T07:59:56.079900125Z,0.64,-1.70,-1.91,1.91,1.28,2.34,4.04,2.55,2.98,5.96,5.74,7.23,5.96,8.09,,,,,,,,,,,,,,
1799999996092384520,2027-01-15T07:59:56.092384520Z,0.00,-1.91,-1.49,-1.91,1.28,2.55,5.32,2.34,2.98,5.32,5.74,5.74,5.74,8.09,,,,,,,,,,,,,,
1799999996104868914,2027-01-15T07:59:56.104868914Z,-0.21,-1.06,-0.85,-1.91,1.91,2.55,5.74,1.91,2.98,4.68,5.11,5.11,6.17,7.45,,,,,,,,,,,,,,
1799999996117353309,2027-01-15T07:59:56.117353309Z,-2.55,-0.43,0.43,-0.43,1.70,4.47,4.68,2.13,4.68,4.47,5.32,7.45,5.96,7.66,,,,,,,,,,,,,,
1799999996129837703,2027-01-15T07:59:56.129837703Z,0.21,-0.21,-0.85,0.00,1.28,2.98,4.89,3.83,6.38,4.26,5.74,7.66,6.38,7.45,,,,,,,,,,,,,,
1799999996142322098,2027-01-15T07:59:56.142322098Z,0.21,0.43,-0.43,0.21,1.70,1.28,4.47,4.04,5.11,2.77,4.68,7.02,6.17,8.09,,,,,,,,,,,,,,
1799999996154806492,2027-01-15T07:59:56.154806492Z,-0.64,-1.06,-0.21,0.21,1.06,3.40,2.98,2.34,4.26,3.40,3.62,5.53,5.96,9.36,,,,,,,,,,,,,,
1799999996167290887,2027-01-15T07:59:56.167290887Z,0.43,-2.77,-1.28,1.06,1.70,4.26,3.19,1.28,5.11,3.83,4.47,4.68,5.53,8.30,,,,,,,,,,,,,,
1799999996179775281,2027-01-15T07:59:56.179775281Z,-1.28,-0.43,-0.85,1.06,1.70,2.98,4.26,0.64,7.23,4.26,5.74,6.17,6.60,6.81,,,,,,,,,,,,,,
1799999996192259676,2027-01-15T07:59:56.192259676Z,0.43,0.64,-0.21,0.00,1.28,2.77,2.77,1.70,6.17,4.47,6.38,5.32,7.23,6.38,,,,,,,,,,,,,,
1799999996204744070,2027-01-15T07:59:56.204744070Z,0.00,-1.28,-0.64,-0.21,0.43,2.13,1.91,3.40,5.74,4.68,6.17,4.68,7.23,7.02,,,,,,,,,,,,,,
1799999996217228465,2027-01-15T07:59:56.217228465Z,-1.91,-1.70,-1.06,1.70,0.21,1.28,1.91,2.98,3.83,5.11,5.32,4.68,7.45,8.09,,,,,,,,,,,,,,
1799999996229712859,2027-01-15T07:59:56.229712859Z,-3.83,-1.49,-1.06,2.13,1.49,2.98,2.34,3.40,3.83,5.32,5.96,4.47,7.45,7.66,,,,,,,,,,,,,,
1799999996242197254,2027-01-15T07:59:56.242197254Z,-3.40,-1.28,-0.64,1.28,2.55,3.40,1.70,3.19,5.53,5.11,5.96,5.53,6.17,8.30,,,,,,,,,,,,,,
1799999996254681648,2027-01-15T07:59:56.254681648Z,-0.85,0.21,0.64,1.06,1.06,1.91,0.85,1.91,6.17,3.83,5.11,5.74,5.32,7.02,,,,,,,,,,,,,,
1799999996267166043,2027-01-15T07:59:56.267166043Z,1.06,0.43,-1.06,0.64,0.00,1.49,0.64,1.91,4.26,5.11,5.11,6.17,5.74,5.96,,,,,,,,,,,,,,
1799999996279650437,2027-01-15T07:59:56.279650437Z,-0.21,0.64,-1.70,0.00,1.28,2.98,0.85,3.62,1.28,4.26,5.32,6.81,6.38,6.81,,,,,,,,,,,,,,
1799999996292134832,2027-01-15T07:59:56.292134832Z,-0.43,-0.43,-0.43,0.21,1.70,2.77,1.91,3.62,1.28,4.04,5.11,7.23,6.17,7.02,,,,,,,,,,,,,,
1799999996304619226,2027-01-15T07:59:56.304619226Z,1.70,-0.21,1.70,1.06,1.70,3.40,3.19,2.98,3.19,5.96,4.47,5.96,7.02,5.32,,,,,,,,,,,,,,
1799999996317103621,2027-01-15T07:59:56.317103621Z,0.85,-1.70,2.34,1.06,1.06,1.70,3.19,3.40,3.19,4.89,5.11,5.74,7.45,6.17,,,,,,,,,,,,,,
1799999996329588015,2027-01-15T07:59:56.329588015Z,0.43,-2.34,0.21,-0.21,0.64,0.85,1.91,3.40,3.62,3.83,5.32,5.32,6.81,7.02,,,,,,,,,,,,,,
1799999996342072410,2027-01-15T07:59:56.342072410Z,0.64,-0.43,-1.06,-1.06,0.43,1.06,0.43,2.98,3.40,5.53,5.32,4.04,6.60,8.72,,,,,,,,,,,,,,
1799999996354556804,2027-01-15T07:59:56.354556804Z,-1.70,0.64,0.21,-0.64,1.49,0.64,1.06,2.98,3.40,5.11,5.53,4.47,5.96,8.30,,,,,,,,,,,,,,
1799999996367041199,2027-01-15T07:59:56.367041199Z,0.21,-1.28,1.91,1.06,2.55,1.28,4.89,3.83,4.47,4.68,5.11,6.38,6.17,7.66,,,,,,,,,,,,,,
1799999996379525594,2027-01-15T07:59:56.379525594Z,-1.28,-1.28,1.91,1.06,2.55,2.13,5.53,4.04,4.26,5.53,5.53,7.23,6.60,7.23,,,,,,,,,,,,,,
1799999996392009988,2027-01-15T07:59:56.392009988Z,-0.21,-0.43,0.85,1.06,1.28,1.91,3.62,2.98,4.68,5.96,5.96,6.81,7.02,7.02,,,,,,,,,,,,,,
1799999996404494383,2027-01-15T07:59:56.404494383Z,0.85,0.21,1.28,0.64,0.64,1.28,2.55,3.62,4.26,4.68,5.74,5.96,6.38,7.87,,,,,,,,,,,,,,
1799999996416978777,2027-01-15T07:59:56.416978777Z,0.85,0.85,1.49,0.64,1.28,1.49,3.19,3.83,3.83,4.47,5.96,7.02,6.38,7.87,,,,,,,,,,,,,,
1799999996429463172,2027-01-15T07:59:56.429463172Z,0.00,-0.64,-0.64,0.00,1.49,1.70,4.26,3.40,5.11,5.53,5.96,6.17,7.66,6.38,,,,,,,,,,,,,,
1799999996441947566,2027-01-15T07:59:56.441947566Z,-2.98,-1.70,-0.43,-0.43,2.13,1.91,3.62,2.55,5.96,6.38,5.96,5.96,8.51,6.81,,,,,,,,,,,,,,
1799999996454431961,2027-01-15T07:59:56.454431961Z,-0.21,0.85,-0.21,1.28,3.19,2.13,2.34,2.34,5.11,5.11,6.60,6.17,8.30,8.72,,,,,,,,,,,,,,
1799999996466916355,2027-01-15T07:59:56.466916355Z,0.43,1.70,-0.43,2.13,2.55,1.49,1.91,3.62,3.62,4.47,5.53,6.17,8.94,9.57,,,,,,,,,,,,,,
1799999996479400750,2027-01-15T07:59:56.479400750Z,-0.43,0.64,-0.21,1.49,2.13,1.06,1.28,3.62,2.77,4.68,4.04,6.38,8.09,9.36,,,,,,,,,,,,,,
1799999996491885144,2027-01-15T07:59:56.491885144Z,0.00,-0.43,0.00,0.00,1.28,1.06,2.77,3.83,2.34,3.40,4.26,6.38,6.60,8.09,,,,,,,,,,,,,,
1799999996504369539,2027-01-15T07:59:56.504369539Z,-2.13,-0.85,-0.85,0.64,3.83,1.91,4.04,4.47,2.98,2.55,5.11,6.60,5.53,7.45,,,,,,,,,,,,,,
1799999996516853933,2027-01-15T07:59:56.516853933Z,-3.40,-0.21,-1.70,0.21,0.64,2.77,3.83,3.62,2.77,2.13,5.53,7.66,6.38,6.38,,,,,,,,,,,,,,
1799999996529338328,2027-01-15T07:59:56.529338328Z,-2.77,-0.43,-2.98,-0.21,0.21,3.19,2.34,4.68,4.89,3.40,4.89,8.09,7.23,6.60,,,,,,,,,,,,,,
1799999996541822722,2027-01-15T07:59:56.541822722Z,1.06,-0.85,-2.98,-0.64,2.55,3.40,2.13,3.83,6.17,4.04,4.89,7.87,6.81,7.02,,,,,,,,,,,,,,
1799999996554307117,2027-01-15T07:59:56.554307117Z,-0.85,-1.06,-2.55,-0.64,1.49,3.19,2.34,3.83,5.96,4.89,4.26,6.81,6.38,8.30,,,,,,,,,,,,,,
1799999996566791511,2027-01-15T07:59:56.566791511Z,0.00,-1.91,-1.06,-1.49,0.85,3.83,1.70,4.04,3.40,4.26,4.68,5.96,7.87,6.17,,,,,,,,,,,,,,
1799999996579275906,2027-01-15T07:59:56.579275906Z,1.06,-2.13,0.43,-0.64,0.64,4.47,1.28,2.98,2.77,3.62,5.11,6.17,7.02,4.89,,,,,,,,,,,,,,
1799999996591760300,2027-01-15T07:59:56.591760300Z,-0.43,-1.06,0.85,1.70,1.91,3.83,1.28,2.13,2.98,3.62,5.53,5.11,4.89,7.23,,,,,,,,,,,,,,
1799999996604244695,2027-01-15T07:59:56.604244695Z,0.85,-1.49,0.85,2.34,1.28,2.98,2.34,2.13,4.68,4.26,5.96,3.83,5.74,7.02,,,,,,,,,,,,,,
1799999996616729089,2027-01-15T07:59:56.616729089Z,-1.49,-1.06,0.64,1.70,0.21,1.49,2.34,2.13,5.11,4.68,5.53,5.32,6.17,6.81,,,,,,,,,,,,,,
1799999996629213484,2027-01-15T07:59:56.629213484Z,-0.21,-0.21,1.49,1.28,0.43,1.49,1.91,3.19,4.68,5.32,4.68,6.38,6.60,7.87,,,,,,,,,,,,,,
1799999996641697878,2027-01-15T07:59:56.641697878Z,-1.06,-1.49,1.70,1.06,0.43,-0.21,1.91,4.68,2.98,5.74,4.26,7.66,7.87,8.09,,,,,,,,,,,,,,
1799999996654182273,2027-01-15T07:59:56.654182273Z,-1.06,-4.26,0.21,0.43,0.00,-0.43,2.13,3.83,2.77,5.11,5.53,6.81,8.94,8.72,,,,,,,,,,,,,,
1799999996666666667,2027-01-15T07:59:56.666666667Z,0.43,-4.04,-0.64,-0.21,0.21,0.21,2.13,4.26,2.98,4.68,6.17,6.17,7.45,7.87,,,,,,,,,,,,,,
1799999996679151062,2027-01-15T07:59:56.679151062Z,-2.55,-1.49,0.00,0.21,2.77,1.91,2.34,3.62,3.19,4.47,5.53,5.11,6.38,7.66,,,,,,,,,,,,,,
1799999996691635456,2027-01-15T07:59:56.691635456Z,-0.21,-1.28,-0.43,-0.43,3.83,1.49,2.55,2.77,2.98,4.68,6.17,6.38,6.60,7.87,,,,,,,,,,,,,,
1799999996704119851,2027-01-15T07:59:56.704119851Z,-0.85,0.64,-0.43,-1.06,1.70,4.68,3.19,4.47,2.77,4.68,6.17,6.60,5.96,7.87,,,,,,,,,,,,,,
1799999996716604245,2027-01-15T07:59:56.716604245Z,1.49,0.85,0.64,0.85,0.64,4.26,3.40,3.62,1.91,5.32,5.53,5.11,5.74,7.23,,,,,,,,,,,,,,
1799999996729088640,2027-01-15T07:59:56.729088640Z,-0.21,0.85,1.28,1.28,1.28,1.91,2.55,3.40,1.28,4.89,5.53,4.26,5.74,7.02,,,,,,,,,,,,,,
1799999996741573034,2027-01-15T07:59:56.741573034Z,1.06,3.40,-0.21,0.85,1.06,1.28,2.55,2.55,1.06,4.26,5.74,4.89,5.53,7.87,,,,,,,,,,,,,,
1799999996754057429,2027-01-15T07:59:56.754057429Z,-0.85,3.40,-1.49,0.21,0.85,1.06,2.98,2.34,1.28,4.04,5.74,5.74,5.53,6.81,,,,,,,,,,,,,,
1799999996766541823,2027-01-15T07:59:56.766541823Z,-0.43,-0.21,-2.55,0.85,1.70,3.40,2.77,3.83,3.40,4.68,5.11,5.96,7.23,6.81,,,,,,,,,,,,,,
1799999996779026218,2027-01-15T07:59:56.779026218Z,-0.43,-1.06,-1.70,0.43,1.06,2.55,2.98,4.89,4.26,4.47,3.83,7.02,5.96,7.45,,,,,,,,,,,,,,
1799999996791510612,2027-01-15T07:59:56.791510612Z,0.21,-1.06,0.43,-0.43,-0.21,0.21,2.98,3.62,4.68,3.83,3.40,6.81,5.32,8.09,,,,,,,,,,,,,,
1799999996803995007,2027-01-15T07:59:56.803995007Z,0.00,1.28,1.70,0.64,2.13,2.77,2.77,2.77,5.53,4.47,4.68,5.11,6.81,8.30,,,,,,,,,,,,,,
1799999996816479401,2027-01-15T07:59:56.816479401Z,-2.34,1.06,1.70,1.06,2.34,3.62,2.77,2.55,5.96,4.47,5.32,5.74,7.45,8.30,,,,,,,,,,,,,,
1799999996828963796,2027-01-15T07:59:56.828963796Z,0.00,-0.64,1.91,0.64,0.64,1.70,3.40,4.47,4.47,4.26,5.32,7.02,5.32,8.72,,,,,,,,,,,,,,
1799999996841448190,2027-01-15T07:59:56.841448190Z,-1.28,-0.21,-0.64,0.00,0.85,0.43,3.83,4.89,2.34,4.68,5.11,5.74,4.26,6.81,,,,,,,,,,,,,,
1799999996853932585,2027-01-15T07:59:56.853932585Z,-1.70,-0.43,-1.28,0.00,1.91,0.85,3.40,4.26,1.70,4.89,4.68,5.74,4.89,6.17,,,,,,,,,,,,,,
1799999996866416979,2027-01-15T07:59:56.866416979Z,-3.83,-1.49,-0.85,0.21,1.06,1.91,1.91,3.83,2.77,4.04,6.81,7.66,5.53,6.60,,,,,,,,,,,,,,
1799999996878901374,2027-01-15T07:59:56.878901374Z,-2.13,-1.49,-0.85,0.64,1.28,2.98,1.91,3.62,3.40,4.04,7.45,8.30,8.30,5.96,,,,,,,,,,,,,,
1799999996891385768,2027-01-15T07:59:56.891385768Z,,0.00,-0.85,0.64,1.28,1.06,2.77,4.47,3.83,5.11,5.74,6.81,8.51,5.53,,,,,,,,,,,,,,
1799999996903870163,2027-01-15T07:59:56.903870163Z,-0.21,-2.13,-0.21,0.85,2.77,2.77,2.77,4.04,4.26,5.11,5.74,6.60,7.23,6.81,,,,,,,,,,,,,,
1799999996916354557,2027-01-15T07:59:56.916354557Z,-0.21,-2.98,-0.85,0.64,3.40,4.47,2.13,4.04,3.83,5.74,5.96,6.17,3.83,7.45,,,,,,,,,,,,,,
1799999996928838952,2027-01-15T07:59:56.928838952Z,-2.13,-1.91,-0.43,0.00,0.64,3.62,3.19,5.11,4.47,6.38,4.26,6.17,4.89,7.66,,,,,,,,,,,,,,
1799999996941323346,2027-01-15T07:59:56.941323346Z,2.55,-2.13,-0.21,-0.64,0.43,1.70,4.47,3.83,4.47,5.74,4.68,6.17,6.38,6.60,,,,,,,,,,,,,,
1799999996953807741,2027-01-15T07:59:56.953807741Z,-1.28,0.21,-2.13,0.85,0.85,1.91,2.77,2.34,3.19,5.32,5.96,5.96,8.51,6.60,,,,,,,,,,,,,,
1799999996966292135,2027-01-15T07:59:56.966292135Z,-2.34,-0.21,-1.49,0.43,1.28,2.77,2.34,3.19,2.98,4.89,4.89,6.60,7.23,5.96,,,,,,,,,,,,,,
1799999996978776530,2027-01-15T07:59:56.978776530Z,0.43,-1.49,0.85,-0.43,1.49,3.19,1.91,2.34,3.19,4.89,4.68,7.23,5.32,6.17,,,,,,,,,,,,,,
1799999996991260924,2027-01-15T07:59:56.991260924Z,-0.43,-1.28,1.06,0.43,-0.21,2.13,1.70,3.19,4.04,4.68,5.32,6.17,6.17,7.87,,,,,,,,,,,,,,
1799999997003745319,2027-01-15T07:59:57.003745319Z,-0.43,-0.43,1.70,2.34,0.43,1.28,2.55,4.26,4.26,4.68,5.11,5.96,6.81,7.45,,,,,,,,,,,,,,
1799999997016229713,2027-01-15T07:59:57.016229713Z,-0.85,0.43,1.49,3.40,0.43,1.91,3.19,2.55,4.04,5.11,5.53,6.38,7.23,7.45,,,,,,,,,,,,,,
1799999997028714108,2027-01-15T07:59:57.028714108Z,-1.91,1.49,0.21,1.70,0.00,2.77,2.55,1.91,4.47,5.96,5.74,5.74,6.60,8.30,,,,,,,,,,,,,,
1799999997041198502,2027-01-15T07:59:57.041198502Z,-1.91,1.49,0.85,0.43,0.43,4.26,2.98,2.55,4.68,6.60,6.17,5.53,5.32,7.66,,,,,,,,,,,,,,
1799999997053682897,2027-01-15T07:59:57.053682897Z,-0.64,-1.49,2.77,0.64,1.06,3.40,1.91,1.28,5.11,5.32,6.60,5.53,6.38,5.32,,,,,,,,,,,,,,
1799999997066167291,2027-01-15T07:59:57.066167291Z,0.43,-1.49,1.70,0.64,1.49,2.98,0.64,1.06,5.53,5.11,6.60,5.74,6.81,4.68,,,,,,,,,,,,,,
1799999997078651686,2027-01-15T07:59:57.078651686Z,0.43,-1.06,0.00,2.34,1.06,2.34,1.70,0.85,5.32,4.68,8.09,4.89,6.17,7.66,,,,,,,,,,,,,,
1799999997091136080,2027-01-15T07:59:57.091136080Z,-1.06,-1.06,-0.85,2.13,0.21,1.06,1.70,0.85,4.68,4.68,7.02,5.53,5.74,7.23,,,,,,,,,,,,,,
1799999997103620475,2027-01-15T07:59:57.103620475Z,-0.64,-1.28,-1.49,0.85,0.00,0.21,2.34,1.06,2.77,4.26,5.74,6.60,6.38,7.45,,,,,,,,,,,,,,
1799999997116104869,2027-01-15T07:59:57.116104869Z,0.21,-0.43,-2.34,-0.85,1.91,2.34,2.77,1.70,3.62,5.74,5.53,5.96,7.02,8.30,,,,,,,,,,,,,,
1799999997128589264,2027-01-15T07:59:57.128589264Z,1.06,0.64,-2.55,-0.85,2.13,2.77,1.70,2.34,3.83,5.74,5.32,6.17,7.45,7.45,,,,,,,,,,,,,,
1799999997141073658,2027-01-15T07:59:57.141073658Z,-0.43,0.85,-1.91,0.85,2.13,3.19,2.55,2.98,1.70,4.68,4.26,6.60,7.02,6.38,,,,,,,,,,,,,,
1799999997153558053,2027-01-15T07:59:57.153558053Z,-1.70,-0.43,-0.43,0.43,0.64,3.19,3.62,4.04,2.77,3.62,4.04,7.23,6.38,5.96,,,,,,,,,,,,,,
1799999997166042447,2027-01-15T07:59:57.166042447Z,-2.55,-1.49,0.64,-0.43,0.21,2.55,4.68,4.26,3.40,2.98,3.83,7.45,5.74,5.53,,,,,,,,,,,,,,
1799999997178526842,2027-01-15T07:59:57.178526842Z,-0.85,-1.06,0.21,-1.06,0.43,0.85,5.53,3.19,3.83,2.98,5.11,6.60,5.11,5.96,,,,,,,,,,,,,,
1799999997191011236,2027-01-15T07:59:57.191011236Z,-1.91,-2.77,-0.64,-0.21,0.43,0.85,5.53,2.55,4.68,4.04,5.96,6.17,5.32,6.17,,,,,,,,,,,,,,
1799999997203495631,2027-01-15T07:59:57.203495631Z,1.28,-2.98,-1.06,0.21,0.85,1.49,4.68,1.91,4.89,5.32,6.17,6.17,5.74,6.81,,,,,,,,,,,,,,
1799999997215980025,2027-01-15T07:59:57.215980025Z,0.00,-1.28,0.43,0.64,0.85,2.13,4.26,1.91,4.04,3.40,5.32,5.53,7.87,7.02,,,,,,,,,,,,,,
1799999997228464420,2027-01-15T07:59:57.228464420Z,-2.55,-0.43,-0.43,1.06,-0.43,1.70,4.89,2.13,2.77,2.77,4.26,5.74,8.51,6.38,,,,,,,,,,,,,,
1799999997240948814,2027-01-15T07:59:57.240948814Z,0.21,-1.49,-1.06,2.13,1.28,0.43,4.47,2.34,3.19,4.68,5.11,5.11,8.09,6.38,,,,,,,,,,,,,,
1799999997253433209,2027-01-15T07:59:57.253433209Z,-0.43,-1.70,-0.85,0.64,1.91,0.85,4.47,3.83,4.47,6.17,4.89,6.17,7.87,7.23,,,,,,,,,,,,,,
1799999997265917603,2027-01-15T07:59:57.265917603Z,-1.06,0.85,-1.28,-1.06,2.55,0.64,3.62,3.40,5.11,4.89,5.74,5.32,7.66,7.87,,,,,,,,,,,,,,
1799999997278401998,2027-01-15T07:59:57.278401998Z,1.06,1.28,-0.43,0.43,-0.43,-0.64,2.55,2.98,3.83,4.47,5.96,5.11,6.60,7.87,,,,,,,,,,,,,,
1799999997290886393,2027-01-15T07:59:57.290886393Z,-1.28,0.43,-0.85,2.34,-0.64,0.43,2.55,3.62,4.47,4.26,5.53,5.74,5.32,8.30,,,,,,,,,,,,,,
1799999997303370787,2027-01-15T07:59:57.303370787Z,-1.06,0.85,-1.91,2.13,1.06,2.55,3.83,3.40,6.38,4.68,6.38,5.74,5.74,6.60,,,,,,,,,,,,,,
1799999997315855182,2027-01-15T07:59:57.315855182Z,1.06,1.28,-0.85,1.91,1.49,2.98,4.04,2.77,5.11,4.89,5.53,5.32,5.74,6.17,,,,,,,,,,,,,,
1799999997328339576,2027-01-15T07:59:57.328339576Z,1.28,0.85,0.43,0.00,1.70,1.70,4.68,4.04,3.83,4.89,3.83,6.17,6.38,7.45,,,,,,,,,,,,,,
1799999997340823971,2027-01-15T07:59:57.340823971Z,-0.21,0.21,-0.85,-1.28,1.28,0.64,4.47,2.98,4.47,4.04,3.62,6.38,6.60,7.87,,,,,,,,,,,,,,
1799999997353308365,2027-01-15T07:59:57.353308365Z,0.00,0.21,0.00,-1.28,0.64,0.21,4.47,3.40,3.83,4.04,3.40,6.60,6.38,7.23,,,,,,,,,,,,,,
1799999997365792760,2027-01-15T07:59:57.365792760Z,-0.85,1.49,0.00,0.43,1.49,2.55,2.77,4.68,5.74,3.83,4.68,7.02,6.60,6.60,,,,,,,,,,,,,,
1799999997378277154,2027-01-15T07:59:57.378277154Z,2.34,2.98,1.28,1.49,1.28,3.83,2.34,2.98,5.74,4.26,5.32,6.38,6.60,7.02,,,,,,,,,,,,,,
1799999997390761549,2027-01-15T07:59:57.390761549Z,-3.19,2.13,0.85,1.91,2.34,4.68,2.77,1.49,5.32,4.68,5.74,5.53,7.23,8.51,,,,,,,,,,,,,,
1799999997403245943,2027-01-15T07:59:57.403245943Z,-2.13,0.00,-0.43,1.70,1.91,1.70,1.91,2.55,4.89,4.68,4.26,5.74,7.23,7.23,,,,,,,,,,,,,,
1799999997415730338,2027-01-15T07:59:57.415730338Z,0.21,-0.64,-1.06,1.49,0.43,-1.06,1.49,2.98,4.26,4.89,4.26,5.53,9.57,7.02,,,,,,,,,,,,,,
1799999997428214732,2027-01-15T07:59:57.428214732Z,1.70,-2.77,0.00,0.21,-0.64,1.28,1.28,2.55,2.77,4.89,6.17,4.89,12.34,7.66,,,,,,,,,,,,,,
1799999997440699127,2027-01-15T07:59:57.440699127Z,0.64,-1.28,1.70,0.21,-1.28,2.55,0.85,2.55,2.77,4.68,6.17,5.53,9.15,9.36,,,,,,,,,,,,,,
1799999997453183521,2027-01-15T07:59:57.453183521Z,-2.34,-2.77,0.21,-0.21,-0.21,3.83,2.34,3.40,4.04,4.89,4.68,6.60,4.47,9.79,,,,,,,,,,,,,,
1799999997465667916,2027-01-15T07:59:57.465667916Z,-2.34,-4.89,-0.64,0.85,1.49,3.62,2.55,3.83,4.89,5.32,4.89,5.53,5.32,9.57,,,,,,,,,,,,,,
1799999997478152310,2027-01-15T07:59:57.478152310Z,-2.34,-6.17,-1.06,0.64,0.64,1.70,2.55,5.32,2.98,5.53,5.32,5.32,7.02,8.51,,,,,,,,,,,,,,
1799999997490636705,2027-01-15T07:59:57.490636705Z,-5.53,-3.19,-1.91,-1.28,2.13,-0.43,1.28,4.04,2.34,4.26,5.53,6.81,7.02,7.45,,,,,,,,,,,,,,
1799999997503121099,2027-01-15T07:59:57.503121099Z,-4.04,-1.91,-1.91,-1.28,2.77,0.43,1.49,4.04,2.55,3.83,4.26,7.23,6.38,7.02,,,,,,,,,,,,,,
1799999997515605494,2027-01-15T07:59:57.515605494Z,-4.26,-2.34,-2.13,-1.06,1.28,0.85,1.06,7.02,3.19,4.04,5.11,6.60,6.60,7.23,,,,,,,,,,,,,,
1799999997528089888,2027-01-15T07:59:57.528089888Z,-5.53,-3.40,-1.49,-0.85,0.85,2.13,2.34,5.96,3.40,4.68,6.17,6.38,6.60,7.66,,,,,,,,,,,,,,
1799999997540574283,2027-01-15T07:59:57.540574283Z,-3.83,-2.98,-1.28,-0.85,1.49,4.04,3.83,2.13,5.11,5.96,6.81,6.60,4.89,7.87,,,,,,,,,,,,,,
1799999997553058677,2027-01-15T07:59:57.553058677Z,0.43,0.21,-0.85,-1.49,2.98,3.40,2.77,4.04,4.47,6.38,4.89,7.23,6.60,8.09,,,,,,,,,,,,,,
1799999997565543072,2027-01-15T07:59:57.565543072Z,-2.34,0.43,-0.85,0.00,3.62,3.62,1.91,4.47,4.68,6.38,5.32,6.17,7.23,7.02,,,,,,,,,,,,,,
1799999997578027466,2027-01-15T07:59:57.578027466Z,-1.06,-1.06,-0.21,1.28,2.13,1.28,1.91,3.62,4.04,7.23,6.81,5.32,6.38,7.02,,,,,,,,,,,,,,
1799999997590511861,2027-01-15T07:59:57.590511861Z,1.91,0.85,-1.06,1.49,2.34,-0.43,2.34,3.62,3.62,5.74,6.38,5.96,6.17,8.30,,,,,,,,,,,,,,
1799999997602996255,2027-01-15T07:59:57.602996255Z,1.70,4.26,-2.13,1.91,2.77,-0.85,2.55,2.98,4.04,3.40,6.60,7.87,5.96,8.09,,,,,,,,,,,,,,
1799999997615480650,2027-01-15T07:59:57.615480650Z,2.34,3.62,1.28,1.91,1.06,1.06,1.70,2.98,3.19,3.19,6.60,6.81,5.74,8.30,,,,,,,,,,,,,,
1799999997627965044,2027-01-15T07:59:57.627965044Z,1.70,3.62,2.55,1.28,1.49,2.34,1.49,3.83,3.62,3.83,5.74,6.17,5.32,7.66,,,,,,,,,,,,,,
1799999997640449439,2027-01-15T07:59:57.640449439Z,,1.06,1.28,0.00,2.98,2.98,2.77,2.77,3.19,4.26,5.11,7.66,5.32,7.87,,,,,,,,,,,,,,
1799999997652933833,2027-01-15T07:59:57.652933833Z,0.64,0.00,0.43,2.13,1.91,1.49,2.98,2.34,3.40,3.83,5.11,6.60,5.53,6.17,,,,,,,,,,,,,,
1799999997665418228,2027-01-15T07:59:57.665418228Z,-3.19,-2.13,0.00,2.55,0.43,1.28,3.40,2.34,2.77,3.62,5.53,5.53,6.38,4.68,,,,,,,,,,,,,,
1799999997677902622,2027-01-15T07:59:57.677902622Z,0.43,-1.06,0.43,1.28,0.21,2.55,5.32,2.55,2.13,3.40,5.32,7.23,6.38,6.60,,,,,,,,,,,,,,
1799999997690387017,2027-01-15T07:59:57.690387017Z,-0.85,-0.21,0.64,1.49,0.21,1.49,4.04,3.62,2.77,3.62,4.68,7.45,5.53,7.45,,,,,,,,,,,,,,
1799999997702871411,2027-01-15T07:59:57.702871411Z,-0.21,-0.85,1.91,1.06,1.91,2.77,2.34,3.83,4.04,4.26,4.68,5.96,5.74,7.02,,,,,,,,,,,,,,
1799999997715355806,2027-01-15T07:59:57.715355806Z,0.00,-0.21,2.55,1.28,3.19,3.62,1.49,2.98,3.40,4.89,5.74,5.96,6.38,7.23,,,,,,,,,,,,,,
1799999997727840200,2027-01-15T07:59:57.727840200Z,1.28,1.06,2.34,1.91,2.98,4.68,1.49,2.55,2.77,4.89,6.81,6.81,6.38,8.30,,,,,,,,,,,,,,
1799999997740324595,2027-01-15T07:59:57.740324595Z,-0.43,1.49,0.64,0.85,2.77,1.28,2.34,3.19,3.40,4.89,7.66,5.32,7.23,6.38,,,,,,,,,,,,,,
1799999997752808989,2027-01-15T07:59:57.752808989Z,1.91,1.49,0.64,1.28,3.40,0.43,1.49,1.28,3.19,5.32,6.81,4.47,8.09,5.96,,,,,,,,,,,,,,
1799999997765293384,2027-01-15T07:59:57.765293384Z,2.98,2.13,-0.64,2.55,3.19,2.13,2.77,0.85,3.83,3.83,4.68,5.74,6.81,8.72,,,,,,,,,,,,,,
1799999997777777778,2027-01-15T07:59:57.777777778Z,3.40,4.26,-0.43,2.34,2.77,1.28,3.19,1.06,3.40,3.19,5.96,6.17,6.60,8.09,,,,,,,,,,,,,,
1799999997790262173,2027-01-15T07:59:57.790262173Z,5.96,4.47,-0.64,3.19,2.13,0.85,3.83,1.06,4.04,3.83,5.74,5.11,7.23,5.96,,,,,,,,,,,,,,
1799999997802746567,2027-01-15T07:59:57.802746567Z,1.49,-0.43,-1.91,3.83,1.49,1.06,2.98,0.64,5.11,4.26,5.74,5.11,8.30,6.38,,,,,,,,,,,,,,
1799999997815230962,2027-01-15T07:59:57.815230962Z,0.00,-0.43,0.00,3.40,1.49,1.28,1.91,1.91,4.26,4.26,6.38,5.96,8.51,6.81,,,,,,,,,,,,,,
1799999997827715356,2027-01-15T07:59:57.827715356Z,-1.28,0.00,-0.85,1.28,0.64,1.28,1.06,3.83,3.62,3.62,6.38,7.02,7.23,7.87,,,,,,,,,,,,,,
1799999997840199751,2027-01-15T07:59:57.840199751Z,-0.43,-0.21,-1.28,1.28,0.00,3.62,1.91,3.19,4.04,4.68,6.60,6.81,5.96,5.74,,,,,,,,,,,,,,
1799999997852684145,2027-01-15T07:59:57.852684145Z,-0.85,-1.28,0.43,1.28,0.21,4.26,2.55,2.34,3.40,5.32,7.02,5.32,5.11,4.89,,,,,,,,,,,,,,
1799999997865168540,2027-01-15T07:59:57.865168540Z,-2.13,-2.13,-1.70,1.70,0.00,1.28,2.34,4.47,4.26,4.04,4.89,6.60,5.32,7.66,,,,,,,,,,,,,,
1799999997877652934,2027-01-15T07:59:57.877652934Z,-3.40,-2.55,-2.34,0.64,0.85,1.28,2.34,4.89,5.53,4.04,4.04,7.23,5.74,7.45,,,,,,,,,,,,,,
1799999997890137329,2027-01-15T07:59:57.890137329Z,-3.83,-3.19,-0.21,0.43,1.49,0.64,2.13,4.04,3.83,4.47,4.04,6.38,5.74,5.74,,,,,,,,,,,,,,
1799999997902621723,2027-01-15T07:59:57.902621723Z,-5.11,-6.81,0.43,-1.70,1.06,1.06,2.55,4.47,5.32,4.47,4.68,6.17,7.45,7.45,,,,,,,,,,,,,,
1799999997915106118,2027-01-15T07:59:57.915106118Z,-5.74,-6.17,0.00,-2.98,1.06,2.55,3.83,3.83,6.38,4.26,4.89,6.38,8.30,7.66,,,,,,,,,,,,,,
1799999997927590512,2027-01-15T07:59:57.927590512Z,-4.89,-4.04,-1.28,-2.13,3.83,3.83,4.68,2.98,5.11,4.68,4.26,5.32,7.45,6.60,,,,,,,,,,,,,,
1799999997940074907,2027-01-15T07:59:57.940074907Z,-8.72,-4.04,-1.06,-2.34,3.19,4.89,5.74,3.83,3.62,4.68,4.47,4.47,6.38,6.60,,,,,,,,,,,,,,
1799999997952559301,2027-01-15T07:59:57.952559301Z,-6.38,-3.62,-0.85,-4.04,0.00,4.47,4.26,4.68,3.19,4.47,4.68,3.19,5.11,5.96,,,,,,,,,,,,,,
1799999997965043696,2027-01-15T07:59:57.965043696Z,-5.53,-4.89,-1.70,-2.77,0.85,4.04,2.98,6.17,4.68,5.53,5.11,3.83,5.32,5.96,,,,,,,,,,,,,,
1799999997977528090,2027-01-15T07:59:57.977528090Z,,-3.62,-1.49,-1.49,1.06,3.19,2.98,7.02,5.74,6.17,3.83,5.96,6.38,6.81,,,,,,,,,,,,,,
1799999997990012485,2027-01-15T07:59:57.990012485Z,,-1.06,-0.85,-0.64,1.49,2.55,4.26,4.68,5.32,5.74,2.77,6.17,7.23,6.81,,,,,,,,,,,,,,
1799999998002496879,2027-01-15T07:59:58.002496879Z,,-0.21,0.21,-0.21,1.70,1.70,3.83,2.98,4.26,4.89,3.40,6.60,7.66,7.23,,,,,,,,,,,,,,
1799999998014981274,2027-01-15T07:59:58.014981274Z,,-0.85,0.43,0.21,0.85,1.28,2.98,4.04,2.77,4.89,6.17,8.30,8.09,7.23,,,,,,,,,,,,,,
1799999998027465668,2027-01-15T07:59:58.027465668Z,,-2.13,0.64,0.00,0.43,0.85,2.55,3.40,5.32,5.53,6.38,7.23,8.09,7.66,,,,,,,,,,,,,,
1799999998039950063,2027-01-15T07:59:58.039950063Z,,-1.70,1.49,0.00,1.28,1.49,2.13,1.70,6.17,5.53,7.45,6.38,8.51,7.45,,,,,,,,,,,,,,
1799999998052434457,2027-01-15T07:59:58.052434457Z,,-3.19,1.49,0.00,1.49,4.04,1.70,2.77,4.68,5.11,6.38,6.38,7.87,7.87,,,,,,,,,,,,,,
1799999998064918852,2027-01-15T07:59:58.064918852Z,,-1.91,0.64,-0.43,0.64,1.49,1.49,2.55,4.04,5.11,6.38,7.45,7.66,8.51,,,,,,,,,,,,,,
1799999998077403246,2027-01-15T07:59:58.077403246Z,,2.13,1.06,0.85,0.21,-1.91,1.06,3.40,4.47,4.04,6.38,6.81,5.74,8.30,,,,,,,,,,,,,,
1799999998089887641,2027-01-15T07:59:58.089887641Z,,2.98,1.49,1.28,0.64,-1.28,2.77,3.62,3.83,4.47,5.96,7.23,5.96,7.66,,,,,,,,,,,,,,
1799999998102372035,2027-01-15T07:59:58.102372035Z,,3.19,1.06,1.70,-0.21,1.06,4.26,2.77,2.13,5.11,6.17,6.38,6.60,8.30,,,,,,,,,,,,,,
1799999998114856430,2027-01-15T07:59:58.114856430Z,,3.83,1.91,2.13,-0.85,5.32,1.91,1.49,3.62,4.47,5.11,4.47,6.17,8.09,,,,,,,,,,,,,,
1799999998127340824,2027-01-15T07:59:58.127340824Z,,3.62,1.70,1.28,0.00,4.47,3.62,0.21,4.47,3.40,5.53,3.83,6.38,7.45,,,,,,,,,,,,,,
1799999998139825219,2027-01-15T07:59:58.139825219Z,,4.47,0.85,2.34,1.70,1.91,4.89,-0.64,5.96,2.98,6.81,6.38,6.38,7.02,,,,,,,,,,,,,,
1799999998152309613,2027-01-15T07:59:58.152309613Z,,3.83,1.06,2.98,1.28,2.13,4.26,-0.43,2.98,3.62,5.53,8.09,6.17,6.81,,,,,,,,,,,,,,
1799999998164794008,2027-01-15T07:59:58.164794008Z,,2.34,1.06,1.49,1.06,3.40,1.06,0.43,1.70,4.26,5.11,7.66,7.02,6.38,,,,,,,,,,,,,,
1799999998177278402,2027-01-15T07:59:58.177278402Z,,0.43,0.64,2.13,1.91,2.98,1.49,2.55,2.77,4.68,6.38,7.02,6.17,5.32,,,,,,,,,,,,,,
1799999998189762797,2027-01-15T07:59:58.189762797Z,,0.21,0.00,2.77,2.55,1.91,1.70,2.77,5.11,5.11,5.74,5.74,4.89,5.11,,,,,,,,,,,,,,
1799999998202247192,2027-01-15T07:59:58.202247192Z,,1.28,-0.43,1.28,1.70,1.70,1.91,3.19,3.19,6.17,4.68,5.74,5.32,7.23,,,,,,,,,,,,,,
1799999998214731586,2027-01-15T07:59:58.214731586Z,,0.21,-0.85,0.85,2.34,1.49,1.91,2.55,3.19,4.89,5.96,6.38,5.96,8.30,,,,,,,,,,,,,,
1799999998227215981,2027-01-15T07:59:58.227215981Z,,-1.49,-1.28,0.64,2.98,1.91,1.70,1.91,3.19,4.47,7.45,6.17,6.38,8.30,,,,,,,,,,,,,,
1799999998239700375,2027-01-15T07:59:58.239700375Z,,0.64,-1.70,1.06,1.91,2.34,1.28,1.06,5.74,3.83,6.17,5.96,5.53,8.30,,,,,,,,,,,,,,
1799999998252184770,2027-01-15T07:59:58.252184770Z,,0.64,-2.55,1.28,1.70,2.13,2.13,1.70,5.53,3.83,5.32,5.74,5.53,8.94,,,,,,,,,,,,,,
1799999998264669164,2027-01-15T07:59:58.264669164Z,,0.21,-1.70,-1.28,0.85,0.64,3.62,4.04,3.19,4.89,5.32,5.74,6.81,7.66,,,,,,,,,,,,,,
1799999998277153559,2027-01-15T07:59:58.277153559Z,,-0.21,-1.91,-0.43,1.06,0.64,3.83,5.11,4.68,4.68,4.68,7.23,6.17,6.81,,,,,,,,,,,,,,
1799999998289637953,2027-01-15T07:59:58.289637953Z,,-2.55,-2.13,0.43,0.21,2.55,4.47,5.74,6.17,4.04,4.89,7.45,4.68,6.17,,,,,,,,,,,,,,
1799999998302122348,2027-01-15T07:59:58.302122348Z,-10.21,-2.98,0.00,-0.43,-0.43,5.74,4.04,5.53,5.53,3.62,5.32,7.23,4.89,5.53,,,,,,,,,,,,,,
1799999998314606742,2027-01-15T07:59:58.314606742Z,-10.21,-2.55,0.64,-0.85,0.00,4.89,2.77,6.17,4.47,3.19,4.68,6.38,5.53,6.81,,,,,,,,,,,,,,
1799999998327091137,2027-01-15T07:59:58.327091137Z,,-1.28,-0.21,-2.13,2.55,1.06,1.49,4.68,2.77,3.19,5.11,6.38,7.23,8.09,,,,,,,,,,,,,,
1799999998339575531,2027-01-15T07:59:58.339575531Z,,-4.04,-0.64,-1.49,1.28,0.43,2.77,3.19,3.19,4.89,4.89,6.81,7.45,7.23,,,,,,,,,,,,,,
1799999998352059926,2027-01-15T07:59:58.352059926Z,,-2.98,-1.06,-0.21,-0.21,0.64,3.40,3.19,3.40,6.17,5.32,6.38,7.02,6.60,,,,,,,,,,,,,,
1799999998364544320,2027-01-15T07:59:58.364544320Z,,-0.21,-1.28,-0.85,0.85,2.98,4.04,4.89,3.40,6.38,6.17,5.32,7.02,6.60,,,,,,,,,,,,,,
1799999998377028715,2027-01-15T07:59:58.377028715Z,,-0.64,-1.49,-0.64,0.64,1.70,3.62,5.11,4.26,6.17,5.74,5.96,6.38,7.23,,,,,,,,,,,,,,
1799999998389513109,2027-01-15T07:59:58.389513109Z,-9.79,-3.83,-1.06,0.64,0.64,3.19,2.34,4.26,2.77,4.47,4.68,5.74,5.53,8.51,,,,,,,,,,,,,,
1799999998401997504,2027-01-15T07:59:58.401997504Z,-9.79,-3.19,-1.06,0.43,1.06,2.34,2.98,4.26,1.91,4.89,5.11,5.11,6.17,8.30,,,,,,,,,,,,,,
1799999998414481898,2027-01-15T07:59:58.414481898Z,,-2.55,0.00,-0.21,1.06,0.85,3.62,4.47,1.06,5.53,4.89,5.96,6.81,8.09,,,,,,,,,,,,,,
1799999998426966293,2027-01-15T07:59:58.426966293Z,-9.79,-4.04,-0.85,0.00,0.64,-0.21,3.83,2.77,1.70,4.89,4.89,6.81,5.74,8.09,,,,,,,,,,,,,,
1799999998439450687,2027-01-15T07:59:58.439450687Z,-9.79,-4.04,-1.28,-0.21,1.49,0.00,4.26,2.98,3.62,4.68,4.89,7.02,5.96,8.09,,,,,,,,,,,,,,
1799999998451935082,2027-01-15T07:59:58.451935082Z,,-3.19,-0.64,-0.43,4.04,2.13,3.40,4.89,5.32,5.74,4.04,5.32,5.32,7.45,,,,,,,,,,,,,,
1799999998464419476,2027-01-15T07:59:58.464419476Z,,-3.19,-0.21,-0.85,3.40,2.34,3.83,4.68,5.32,4.68,4.04,5.74,5.53,7.23,,,,,,,,,,,,,,
1799999998476903871,2027-01-15T07:59:58.476903871Z,,-3.83,0.64,-1.49,2.13,2.98,4.04,3.19,5.53,3.83,4.47,6.81,7.02,7.45,,,,,,,,,,,,,,
1799999998489388265,2027-01-15T07:59:58.489388265Z,,-2.98,-0.64,-3.19,2.77,3.19,4.89,2.55,3.62,4.26,5.74,6.81,7.23,7.23,,,,,,,,,,,,,,
1799999998501872660,2027-01-15T07:59:58.501872660Z,,-2.77,-1.70,-1.06,3.40,1.91,6.17,2.98,3.83,4.26,5.96,6.17,7.02,8.09,,,,,,,,,,,,,,
1799999998514357054,2027-01-15T07:59:58.514357054Z,,-0.64,-1.49,1.49,2.77,3.83,5.96,3.40,4.47,3.83,4.89,6.38,7.87,8.72,,,,,,,,,,,,,,
1799999998526841449,2027-01-15T07:59:58.526841449Z,,0.43,0.43,1.06,1.28,4.68,4.47,3.19,4.04,4.47,5.74,7.02,7.45,7.87,,,,,,,,,,,,,,
1799999998539325843,2027-01-15T07:59:58.539325843Z,,0.64,0.64,0.00,1.49,4.04,3.19,2.77,3.62,5.53,6.17,6.81,7.45,8.51,,,,,,,,,,,,,,
1799999998551810238,2027-01-15T07:59:58.551810238Z,,1.70,1.70,1.70,2.13,1.28,1.49,2.13,3.19,4.47,5.53,5.32,7.23,8.09,,,,,,,,,,,,,,
1799999998564294632,2027-01-15T07:59:58.564294632Z,,1.91,2.34,2.55,1.91,0.00,0.85,1.91,2.98,5.11,5.32,4.68,6.38,6.81,,,,,,,,,,,,,,
1799999998576779027,2027-01-15T07:59:58.576779027Z,,2.77,2.77,2.77,1.28,-0.64,1.06,1.91,2.98,4.68,4.47,5.53,7.23,6.60,,,,,,,,,,,,,,
1799999998589263421,2027-01-15T07:59:58.589263421Z,,3.83,1.49,2.77,1.06,0.64,0.00,2.34,2.13,4.47,5.11,5.32,7.23,7.87,,,,,,,,,,,,,,
1799999998601747816,2027-01-15T07:59:58.601747816Z,,4.47,0.64,2.77,2.13,2.55,-0.21,1.70,1.49,4.68,5.11,5.53,6.38,7.87,,,,,,,,,,,,,,
1799999998614232210,2027-01-15T07:59:58.614232210Z,,6.17,1.49,4.04,2.34,3.40,1.28,-0.85,1.91,5.11,3.62,6.60,6.17,7.45,,,,,,,,,,,,,,
1799999998626716605,2027-01-15T07:59:58.626716605Z,,5.96,0.64,4.26,1.28,3.40,2.34,-0.85,3.62,4.47,3.62,6.38,7.02,7.66,,,,,,,,,,,,,,
1799999998639200999,2027-01-15T07:59:58.639200999Z,,3.83,0.85,3.19,1.06,2.98,2.77,0.85,4.04,4.68,4.04,7.02,7.02,7.45,,,,,,,,,,,,,,
1799999998651685394,2027-01-15T07:59:58.651685394Z,,1.70,-1.06,1.49,1.06,3.19,3.19,1.49,4.89,4.47,4.89,7.02,7.45,6.60,,,,,,,,,,,,,,
1799999998664169788,2027-01-15T07:59:58.664169788Z,,-0.21,-2.77,0.85,1.70,2.98,2.98,0.85,6.81,4.68,5.53,6.38,7.45,6.60,,,,,,,,,,,,,,
1799999998676654183,2027-01-15T07:59:58.676654183Z,,0.85,-0.64,1.70,2.13,2.98,2.13,1.91,5.11,3.19,7.02,6.17,6.38,8.51,,,,,,,,,,,,,,
1799999998689138577,2027-01-15T07:59:58.689138577Z,,-0.21,-0.85,1.28,1.49,2.98,2.34,2.55,4.26,2.55,6.60,6.38,5.74,8.09,,,,,,,,,,,,,,
1799999998701622972,2027-01-15T07:59:58.701622972Z,,-2.13,-1.28,0.85,0.00,3.40,2.34,1.70,3.62,4.04,7.45,6.60,7.45,6.38,,,,,,,,,,,,,,
1799999998714107366,2027-01-15T07:59:58.714107366Z,,-1.91,-0.21,2.13,-0.85,3.62,3.83,1.06,2.98,5.32,5.74,6.38,7.02,5.96,,,,,,,,,,,,,,
1799999998726591761,2027-01-15T07:59:58.726591761Z,,-1.49,-0.21,0.64,-0.64,3.40,4.26,1.06,2.98,5.96,4.89,5.74,5.53,6.38,,,,,,,,,,,,,,
1799999998739076155,2027-01-15T07:59:58.739076155Z,,-2.55,-0.64,-1.28,-1.06,1.06,3.40,1.91,4.47,6.81,5.11,4.89,7.45,6.60,,,,,,,,,,,,,,
1799999998751560550,2027-01-15T07:59:58.751560550Z,,-2.98,-0.43,-1.28,-0.85,1.28,3.40,3.40,4.47,5.96,4.47,4.68,8.30,6.17,,,,,,,,,,,,,,
1799999998764044944,2027-01-15T07:59:58.764044944Z,,-0.64,-0.85,0.21,-0.21,2.13,1.49,5.74,3.40,4.89,4.89,5.74,7.02,7.23,,,,,,,,,,,,,,
1799999998776529339,2027-01-15T07:59:58.776529339Z,,-0.43,-1.28,0.64,0.43,1.49,2.34,3.83,3.83,4.68,5.74,5.53,5.32,5.96,,,,,,,,,,,,,,
1799999998789013733,2027-01-15T07:59:58.789013733Z,,-1.91,-1.49,0.64,-0.43,1.28,4.47,3.19,4.68,5.11,5.96,5.11,5.32,5.53,,,,,,,,,,,,,,
1799999998801498128,2027-01-15T07:59:58.801498128Z,,-2.55,-0.85,1.70,-1.91,1.49,4.04,5.96,4.68,4.68,5.74,5.74,4.47,5.32,,,,,,,,,,,,,,
1799999998813982522,2027-01-15T07:59:58.813982522Z,,-1.91,-0.64,0.43,-0.85,2.13,4.47,7.23,4.26,3.83,5.74,5.32,4.68,7.02,,,,,,,,,,,,,,
1799999998826466917,2027-01-15T07:59:58.826466917Z,,-2.98,-0.64,-1.06,1.28,1.49,3.40,6.38,4.26,5.96,5.96,5.96,5.32,8.51,,,,,,,,,,,,,,
1799999998838951311,2027-01-15T07:59:58.838951311Z,,-3.62,0.21,-0.43,0.85,1.49,3.19,5.11,3.19,6.17,6.17,6.81,5.53,7.23,,,,,,,,,,,,,,
1799999998851435706,2027-01-15T07:59:58.851435706Z,,-3.40,0.43,-0.43,0.64,1.70,3.40,4.68,3.40,5.53,6.60,6.60,5.74,6.81,,,,,,,,,,,,,,
1799999998863920100,2027-01-15T07:59:58.863920100Z,,-3.19,0.21,-1.91,0.64,-0.43,3.62,6.17,4.26,5.96,5.53,7.02,6.38,7.66,,,,,,,,,,,,,,
1799999998876404495,2027-01-15T07:59:58.876404495Z,,-2.34,-1.49,-2.77,1.49,1.49,3.83,5.96,3.62,6.60,4.89,6.38,6.17,7.23,,,,,,,,,,,,,,
1799999998888888889,2027-01-15T07:59:58.888888889Z,,-1.91,-1.49,-2.13,2.13,3.40,4.26,4.26,3.40,6.60,5.74,5.32,6.17,5.96,,,,,,,,,,,,,,
1799999998901373284,2027-01-15T07:59:58.901373284Z,,-2.55,-0.85,-1.70,2.55,2.34,2.34,4.04,5.32,5.96,5.96,6.17,5.96,7.02,,,,,,,,,,,,,,
1799999998913857678,2027-01-15T07:59:58.913857678Z,,-1.49,-0.64,-1.28,2.13,0.85,2.13,3.62,5.96,5.11,5.96,6.17,5.96,7.66,,,,,,,,,,,,,,
1799999998926342073,2027-01-15T07:59:58.926342073Z,,-2.13,-0.85,0.21,1.06,0.85,3.62,4.04,4.68,3.83,5.32,5.96,7.02,7.66,,,,,,,,,,,,,,
1799999998938826467,2027-01-15T07:59:58.938826467Z,,-2.34,0.21,0.43,0.64,1.28,2.98,3.62,2.98,3.83,6.17,5.96,6.60,7.45,,,,,,,,,,,,,,
1799999998951310862,2027-01-15T07:59:58.951310862Z,,-0.64,1.70,0.64,1.28,3.40,1.70,2.77,2.77,3.83,6.38,6.60,5.53,6.17,,,,,,,,,,,,,,
1799999998963795256,2027-01-15T07:59:58.963795256Z,,-0.21,0.64,1.06,1.49,2.34,1.28,3.40,5.11,5.74,6.17,5.53,6.38,5.96,,,,,,,,,,,,,,
1799999998976279651,2027-01-15T07:59:58.976279651Z,,1.28,0.43,1.49,2.98,1.70,1.49,3.40,6.38,6.60,4.68,5.32,7.45,6.60,,,,,,,,,,,,,,
1799999998988764045,2027-01-15T07:59:58.988764045Z,,1.91,0.85,2.77,5.32,1.70,3.40,1.28,4.26,4.89,3.40,6.81,8.30,6.17,,,,,,,,,,,,,,
1799999999001248440,2027-01-15T07:59:59.001248440Z,,1.91,1.06,3.62,4.89,3.19,2.34,0.64,4.04,4.26,4.26,7.02,8.09,6.81,,,,,,,,,,,,,,
1799999999013732834,2027-01-15T07:59:59.013732834Z,,4.04,0.21,2.77,3.19,2.77,0.64,1.70,2.98,5.32,5.11,6.38,7.87,9.57,,,,,,,,,,,,,,
1799999999026217229,2027-01-15T07:59:59.026217229Z,,3.83,-0.43,1.06,2.77,2.34,0.00,2.77,3.62,4.47,6.17,7.02,7.23,10.64,,,,,,,,,,,,,,
1799999999038701623,2027-01-15T07:59:59.038701623Z,,2.98,-1.06,1.49,1.49,0.85,0.00,3.83,4.26,3.83,6.81,6.60,7.02,11.70,,,,,,,,,,,,,,
1799999999051186018,2027-01-15T07:59:59.051186018Z,,2.55,0.85,3.19,0.21,1.49,1.70,3.40,4.26,5.74,5.96,5.74,6.17,8.94,,,,,,,,,,,,,,
1799999999063670412,2027-01-15T07:59:59.063670412Z,,2.77,1.28,2.98,0.64,2.77,2.98,2.77,4.89,5.11,5.96,6.17,5.53,7.02,,,,,,,,,,,,,,
1799999999076154807,2027-01-15T07:59:59.076154807Z,,1.28,0.00,-1.06,2.34,3.40,4.89,0.85,4.04,3.40,5.96,7.02,5.74,6.17,,,,,,,,,,,,,,
1799999999088639201,2027-01-15T07:59:59.088639201Z,,0.21,-1.28,-0.64,1.91,1.70,4.68,2.13,3.19,3.40,5.96,5.74,8.94,6.60,,,,,,,,,,,,,,
1799999999101123596,2027-01-15T07:59:59.101123596Z,,-0.21,-1.70,0.85,1.70,-0.21,3.19,4.04,4.47,3.62,5.74,4.89,9.79,7.66,,,,,,,,,,,,,,
1799999999113607991,2027-01-15T07:59:59.113607991Z,,0.85,-0.43,1.49,1.06,1.70,1.91,3.62,3.19,3.62,5.11,4.89,10.85,7.66,,,,,,,,,,,,,,
1799999999126092385,2027-01-15T07:59:59.126092385Z,,-0.43,-0.43,1.28,0.85,2.77,2.77,3.62,3.40,5.11,4.68,5.11,10.21,7.45,,,,,,,,,,,,,,
1799999999138576780,2027-01-15T07:59:59.138576780Z,,-1.06,-0.64,-0.21,1.70,2.98,3.83,4.68,6.60,6.38,5.53,6.17,6.60,8.09,,,,,,,,,,,,,,
1799999999151061174,2027-01-15T07:59:59.151061174Z,,-1.28,-1.49,0.00,0.85,1.70,4.26,3.83,6.38,6.17,5.53,7.02,3.83,7.45,,,,,,,,,,,,,,
1799999999163545569,2027-01-15T07:59:59.163545569Z,,-2.34,-3.19,1.06,-1.06,0.21,3.83,2.55,5.53,5.96,5.74,6.81,6.17,6.60,,,,,,,,,,,,,,
1799999999176029963,2027-01-15T07:59:59.176029963Z,,-2.34,-1.70,1.70,0.85,0.21,2.77,2.34,4.68,4.89,4.26,6.17,5.96,6.81,,,,,,,,,,,,,,
1799999999188514358,2027-01-15T07:59:59.188514358Z,,-1.49,0.00,0.85,1.06,1.70,2.98,2.77,3.19,4.89,5.32,6.81,5.96,7.87,,,,,,,,,,,,,,
1799999999200998752,2027-01-15T07:59:59.200998752Z,,-2.55,0.21,0.00,1.70,1.91,3.83,4.89,3.83,3.40,6.17,7.45,5.74,7.02,,,,,,,,,,,,,,
1799999999213483147,2027-01-15T07:59:59.213483147Z,,-1.06,0.85,0.00,2.34,2.13,2.77,4.26,1.70,2.77,5.11,6.81,5.96,6.17,,,,,,,,,,,,,,
1799999999225967541,2027-01-15T07:59:59.225967541Z,,-0.21,0.43,0.64,3.40,2.77,1.91,3.19,0.85,3.40,5.11,4.26,5.32,5.32,,,,,,,,,,,,,,
1799999999238451936,2027-01-15T07:59:59.238451936Z,,-0.21,-1.91,0.43,1.70,2.77,2.98,3.62,3.62,4.26,4.68,5.32,5.32,6.81,,,,,,,,,,,,,,
1799999999250936330,2027-01-15T07:59:59.250936330Z,,0.64,-1.91,-0.21,1.06,2.77,2.77,2.77,3.62,4.68,6.38,5.96,5.53,7.23,,,,,,,,,,,,,,
1799999999263420725,2027-01-15T07:59:59.263420725Z,,-1.49,-1.28,-0.21,0.64,2.34,3.62,2.77,4.26,3.19,7.02,6.38,5.96,8.09,,,,,,,,,,,,,,
1799999999275905119,2027-01-15T07:59:59.275905119Z,,-1.49,1.70,0.00,0.00,3.19,4.26,3.40,3.19,3.62,7.02,5.32,4.89,7.02,,,,,,,,,,,,,,
1799999999288389514,2027-01-15T07:59:59.288389514Z,,-1.28,3.19,-0.43,-0.21,3.19,3.83,3.40,4.26,4.89,5.53,4.89,4.68,7.02,,,,,,,,,,,,,,
1799999999300873908,2027-01-15T07:59:59.300873908Z,,-2.77,0.64,0.43,1.28,2.77,1.91,2.55,5.53,6.38,5.11,4.89,6.60,7.66,,,,,,,,,,,,,,
1799999999313358303,2027-01-15T07:59:59.313358303Z,,-2.98,0.21,0.21,1.28,1.91,1.91,3.19,4.68,5.53,5.32,5.96,7.02,7.66,,,,,,,,,,,,,,
1799999999325842697,2027-01-15T07:59:59.325842697Z,,-2.13,-0.64,0.21,0.43,1.28,2.13,3.62,4.89,4.04,5.96,7.23,6.17,8.72,,,,,,,,,,,,,,
1799999999338327092,2027-01-15T07:59:59.338327092Z,,-1.91,0.43,0.21,0.85,1.91,2.55,4.04,4.47,4.47,5.32,7.02,6.17,8.51,,,,,,,,,,,,,,
1799999999350811486,2027-01-15T07:59:59.350811486Z,,-0.85,2.13,-0.64,1.06,0.85,1.91,3.40,2.98,5.32,5.96,6.60,6.38,6.81,,,,,,,,,,,,,,
1799999999363295881,2027-01-15T07:59:59.363295881Z,,-0.85,0.43,0.21,0.64,0.43,1.28,3.62,5.96,4.47,7.02,7.23,5.32,6.38,,,,,,,,,,,,,,
1799999999375780275,2027-01-15T07:59:59.375780275Z,,-1.28,0.21,0.43,0.64,0.00,1.06,5.32,6.60,4.04,6.60,7.23,6.17,6.81,,,,,,,,,,,,,,
1799999999388264670,2027-01-15T07:59:59.388264670Z,,1.06,-1.06,-0.43,0.00,2.55,2.34,5.32,3.83,4.26,5.74,6.81,7.02,6.60,,,,,,,,,,,,,,
1799999999400749064,2027-01-15T07:59:59.400749064Z,,1.91,-0.43,0.43,1.49,2.34,2.55,3.40,2.34,4.04,5.11,6.81,6.81,5.32,,,,,,,,,,,,,,
1799999999413233459,2027-01-15T07:59:59.413233459Z,,2.55,0.21,0.85,3.19,1.06,2.77,1.91,1.28,2.98,4.47,6.81,7.23,5.53,,,,,,,,,,,,,,
1799999999425717853,2027-01-15T07:59:59.425717853Z,,0.85,0.85,-1.06,1.70,0.43,3.62,2.55,2.34,3.19,4.26,6.17,6.60,7.23,,,,,,,,,,,,,,
1799999999438202248,2027-01-15T07:59:59.438202248Z,,1.06,0.85,0.00,0.43,0.85,3.83,2.77,3.83,4.04,4.47,6.38,6.60,7.87,,,,,,,,,,,,,,
1799999999450686642,2027-01-15T07:59:59.450686642Z,,0.64,0.21,1.28,1.28,2.13,4.47,2.55,3.19,4.89,3.83,6.81,6.60,8.09,,,,,,,,,,,,,,
1799999999463171037,2027-01-15T07:59:59.463171037Z,,0.21,-1.06,0.85,2.13,2.55,4.26,2.98,4.68,4.26,4.26,7.66,7.66,8.09,,,,,,,,,,,,,,
1799999999475655431,2027-01-15T07:59:59.475655431Z,,-0.43,-1.91,-0.21,3.62,1.28,3.19,2.98,5.96,5.74,5.11,7.87,8.09,8.30,,,,,,,,,,,,,,
1799999999488139826,2027-01-15T07:59:59.488139826Z,,-2.13,0.00,-1.28,2.98,1.06,2.77,2.34,4.68,5.53,4.68,5.53,7.02,8.51,,,,,,,,,,,,,,
1799999999500624220,2027-01-15T07:59:59.500624220Z,,-2.34,0.00,-1.06,2.34,1.06,1.91,2.34,4.89,4.47,4.04,5.11,7.02,8.94,,,,,,,,,,,,,,
1799999999513108615,2027-01-15T07:59:59.513108615Z,,-2.55,-2.34,1.70,0.21,1.49,2.77,3.40,5.11,5.32,4.47,6.17,7.23,8.30,,,,,,,,,,,,,,
1799999999525593009,2027-01-15T07:59:59.525593009Z,,-2.13,-2.34,1.91,0.00,0.43,3.83,4.26,4.26,5.32,5.53,6.60,7.23,7.02,,,,,,,,,,,,,,
1799999999538077404,2027-01-15T07:59:59.538077404Z,,0.21,-2.55,0.64,0.21,-0.43,4.26,4.04,3.62,5.53,6.17,6.81,6.81,7.02,,,,,,,,,,,,,,
1799999999550561798,2027-01-15T07:59:59.550561798Z,,0.00,0.21,0.21,0.85,1.06,1.70,1.91,2.55,3.19,6.17,5.96,4.89,5.96,,,,,,,,,,,,,,
1799999999563046193,2027-01-15T07:59:59.563046193Z,,-1.28,0.43,0.21,0.21,1.06,1.49,4.04,3.40,2.13,5.96,5.74,4.47,6.17,,,,,,,,,,,,,,
1799999999575530587,2027-01-15T07:59:59.575530587Z,,-0.85,-2.13,0.43,0.85,2.77,2.55,2.55,3.83,3.62,5.53,6.60,5.32,6.60,,,,,,,,,,,,,,
1799999999588014982,2027-01-15T07:59:59.588014982Z,,0.21,-3.19,0.43,0.85,3.62,2.13,1.70,4.68,4.04,4.89,7.02,6.17,6.81,,,,,,,,,,,,,,
1799999999600499376,2027-01-15T07:59:59.600499376Z,,-1.49,-2.77,1.06,2.98,1.91,1.91,1.06,4.89,3.19,4.89,5.96,6.81,7.23,,,,,,,,,,,,,,
1799999999612983771,2027-01-15T07:59:59.612983771Z,,-0.64,0.00,2.13,2.55,0.85,1.91,3.19,2.13,3.83,4.68,6.17,8.09,7.02,,,,,,,,,,,,,,
1799999999625468165,2027-01-15T07:59:59.625468165Z,,0.00,0.00,2.34,0.85,2.13,1.70,2.98,1.49,3.62,5.32,7.02,7.23,7.23,,,,,,,,,,,,,,
1799999999637952560,2027-01-15T07:59:59.637952560Z,,-0.21,0.00,1.49,0.64,2.55,2.13,2.98,3.40,3.40,5.96,7.87,10.21,7.02,,,,,,,,,,,,,,
1799999999650436954,2027-01-15T07:59:59.650436954Z,,-0.21,0.64,1.06,0.64,3.19,2.34,2.34,3.83,3.83,5.74,7.45,9.36,5.74,,,,,,,,,,,,,,
1799999999662921349,2027-01-15T07:59:59.662921349Z,,-0.21,0.43,1.06,1.28,4.89,1.70,1.91,4.26,4.26,4.04,6.38,7.23,5.74,,,,,,,,,,,,,,
1799999999675405743,2027-01-15T07:59:59.675405743Z,,-1.49,-0.43,1.91,2.55,1.28,1.28,2.55,4.47,3.83,4.89,4.68,6.38,7.87,,,,,,,,,,,,,,
1799999999687890138,2027-01-15T07:59:59.687890138Z,,-2.13,0.43,1.91,1.91,0.43,1.06,3.19,4.68,4.47,5.32,4.89,6.60,8.09,,,,,,,,,,,,,,
1799999999700374532,2027-01-15T07:59:59.700374532Z,,-0.64,0.21,0.43,2.13,2.34,2.13,3.40,3.83,5.96,6.81,5.53,7.23,8.51,,,,,,,,,,,,,,
1799999999712858927,2027-01-15T07:59:59.712858927Z,,-1.06,1.06,1.91,1.49,3.40,2.55,4.26,4.04,5.32,5.32,5.74,6.60,8.09,,,,,,,,,,,,,,
1799999999725343321,2027-01-15T07:59:59.725343321Z,,-1.70,1.49,2.77,0.21,3.83,3.83,4.47,3.40,4.89,4.68,5.96,6.38,6.81,,,,,,,,,,,,,,
1799999999737827716,2027-01-15T07:59:59.737827716Z,,0.64,2.55,1.28,1.06,2.98,3.83,2.13,3.62,5.11,5.32,6.17,5.74,6.81,,,,,,,,,,,,,,
1799999999750312110,2027-01-15T07:59:59.750312110Z,,0.00,1.28,0.43,1.49,1.49,4.04,2.55,3.62,4.47,5.74,5.96,6.17,7.45,,,,,,,,,,,,,,
1799999999762796505,2027-01-15T07:59:59.762796505Z,,-0.85,0.43,0.64,1.91,1.28,4.26,3.40,2.55,4.04,4.89,4.89,5.96,8.09,,,,,,,,,,,,,,
1799999999775280899,2027-01-15T07:59:59.775280899Z,,-2.55,0.85,0.64,1.70,2.55,3.83,2.34,2.55,3.62,4.47,5.32,6.81,7.87,,,,,,,,,,,,,,
1799999999787765294,2027-01-15T07:59:59.787765294Z,,-2.98,0.43,0.21,0.85,1.91,4.04,2.55,2.77,3.83,4.26,7.02,7.02,7.66,,,,,,,,,,,,,,
1799999999800249688,2027-01-15T07:59:59.800249688Z,,0.00,0.64,0.00,1.49,1.91,4.04,3.62,2.77,4.68,5.32,6.60,4.68,7.45,,,,,,,,,,,,,,
1799999999812734083,2027-01-15T07:59:59.812734083Z,,0.00,-0.21,-0.64,1.91,2.77,4.04,2.98,4.26,5.32,6.38,5.96,4.89,7.87,,,,,,,,,,,,,,
1799999999825218477,2027-01-15T07:59:59.825218477Z,,-0.85,-0.85,0.85,3.19,3.83,3.19,2.13,6.81,6.38,5.96,5.11,5.32,7.66,,,,,,,,,,,,,,
1799999999837702872,2027-01-15T07:59:59.837702872Z,,-1.49,0.00,1.28,1.70,2.98,2.77,2.34,4.47,5.74,5.74,4.89,6.38,7.23,,,,,,,,,,,,,,
1799999999850187266,2027-01-15T07:59:59.850187266Z,,-1.49,0.21,0.85,0.43,2.13,2.77,4.04,3.19,5.53,6.60,5.11,7.23,7.23,,,,,,,,,,,,,,
1799999999862671661,2027-01-15T07:59:59.862671661Z,,-0.21,0.00,0.21,0.43,2.34,3.19,3.40,3.19,4.89,6.38,6.17,5.74,7.02,,,,,,,,,,,,,,
1799999999875156055,2027-01-15T07:59:59.875156055Z,,-0.43,0.85,0.21,1.06,2.77,2.55,2.77,3.40,4.89,6.60,6.60,5.11,6.81,,,,,,,,,,,,,,
1799999999887640450,2027-01-15T07:59:59.887640450Z,,-1.06,0.43,1.28,1.28,1.70,2.55,3.40,4.04,5.74,5.53,5.96,3.83,8.09,,,,,,,,,,,,,,
1799999999900124844,2027-01-15T07:59:59.900124844Z,,0.00,-0.64,1.06,0.21,0.85,1.91,3.83,4.04,5.96,5.74,5.53,4.04,8.30,,,,,,,,,,,,,,
1799999999912609239,2027-01-15T07:59:59.912609239Z,,0.43,-0.43,-0.21,0.21,0.85,1.49,2.98,2.98,4.89,5.96,5.96,5.11,8.51,,,,,,,,,,,,,,
1799999999925093633,2027-01-15T07:59:59.925093633Z,,-1.06,-2.13,1.49,1.06,2.98,2.34,2.13,4.68,4.26,5.11,5.74,4.89,6.60,,,,,,,,,,,,,,
1799999999937578028,2027-01-15T07:59:59.937578028Z,,-0.43,-3.19,1.49,1.70,3.62,2.55,1.91,5.96,4.89,4.89,5.74,5.74,5.96,,,,,,,,,,,,,,
1799999999950062422,2027-01-15T07:59:59.950062422Z,,-0.43,-0.85,-0.21,0.43,1.28,1.91,3.40,4.89,4.47,5.53,5.32,7.02,5.74,,,,,,,,,,,,,,
1799999999962546817,2027-01-15T07:59:59.962546817Z,,-1.28,-1.28,-1.49,0.43,-0.64,1.91,2.55,4.47,4.04,5.32,4.89,7.23,6.81,,,,,,,,,,,,,,
1799999999975031211,2027-01-15T07:59:59.975031211Z,,0.00,-0.43,-0.43,1.70,1.06,1.70,2.13,4.89,5.11,5.53,4.47,7.45,8.09,,,,,,,,,,,,,,
1799999999987515606,2027-01-15T07:59:59.987515606Z,,-1.49,-0.43,0.00,3.83,2.98,1.91,4.04,3.83,6.17,4.26,5.74,6.81,7.02,,,,,,,,,,,,,,
