# spacing_uv=20.0
timestamp_ns,timestamp_iso,AF3,F7,F3,FC5,T7,P7,O1,O2,P8,T8,FC6,F4,F8,AF4,AF3_q,F7_q,F3_q,FC5_q,T7_q,P7_q,O1_q,O2_q,P8_q,T8_q,FC6_q,F4_q,F8_q,AF4_q
1799999990000000000,2027-01-15T07:59:50.000000000Z,,,,,,,,,,,,,,,,,,,,,,,,,,,,
1799999990011750882,2027-01-15T07:59:50.011750882Z,-1.38,1.38,1.38,1.90,-2.93,-0.34,0.69,2.59,,5.00,2.76,,5.86,4.14,,,,,,,,,,,,,,
1799999990023501763,2027-01-15T07:59:50.023501763Z,-1.38,0.34,1.38,2.24,0.00,0.52,1.90,3.97,1.90,4.31,2.59,5.69,5.69,4.66,,,,,,,,,,,,,,
1799999990035252644,2027-01-15T07:59:50.035252644Z,0.17,-1.03,1.38,2.59,2.07,1.72,1.90,4.66,2.24,2.76,2.93,5.34,5.34,7.41,,,,,,,,,,,,,,
1799999990047003526,2027-01-15T07:59:50.047003526Z,0.00,-0.52,1.21,1.21,0.86,1.55,1.72,3.10,2.76,3.45,1.90,5.00,4.83,8.10,,,,,,,,,,,,,,
1799999990058754407,2027-01-15T07:59:50.058754407Z,-0.52,0.17,1.90,-1.03,-1.72,1.55,1.72,1.21,3.79,3.45,1.72,4.14,4.66,8.28,,,,,,,,,,,,,,
1799999990070505288,2027-01-15T07:59:50.070505288Z,0.17,0.00,2.24,-0.86,-2.07,0.86,1.21,1.90,4.66,2.76,2.07,3.45,5.17,7.93,,,,,,,,,,,,,,
1799999990082256170,2027-01-15T07:59:50.082256170Z,0.00,0.86,1.03,1.55,0.69,1.21,1.21,-0.34,4.66,3.79,2.41,3.28,5.69,5.69,,,,,,,,,,,,,,
1799999990094007051,2027-01-15T07:59:50.094007051Z,-1.03,1.38,-1.03,1.72,3.10,2.41,2.41,-1.38,3.97,3.28,3.10,3.79,6.21,5.00,,,,,,,,,,,,,,
1799999990105757932,2027-01-15T07:59:50.105757932Z,-1.55,-1.21,-2.24,1.03,2.76,1.90,1.72,0.86,2.41,2.59,5.69,3.62,5.69,4.48,,,,,,,,,,,,,,
1799999990117508814,2027-01-15T07:59:50.117508814Z,-0.52,-1.03,-2.24,-0.86,2.07,2.41,1.90,2.24,3.79,2.59,5.86,3.62,5.34,5.69,,,,,,,,,,,,,,
1799999990129259695,2027-01-15T07:59:50.129259695Z,-0.52,0.17,-1.21,1.21,2.24,3.45,1.90,4.14,4.48,1.90,8.10,4.31,5.34,5.69,,,,,,,,,,,,,,
1799999990141010576,2027-01-15T07:59:50.141010576Z,0.52,0.17,-0.17,2.41,2.24,3.10,1.90,4.66,3.97,3.28,7.93,4.48,5.00,5.00,,,,,,,,,,,,,,
1799999990152761458,2027-01-15T07:59:50.152761458Z,-1.03,-1.21,-0.52,2.93,1.90,2.24,1.21,4.48,3.45,5.69,3.97,4.31,5.00,5.52,,,,,,,,,,,,,,
1799999990164512339,2027-01-15T07:59:50.164512339Z,0.69,-1.21,-1.72,2.07,1.03,1.72,0.52,3.10,3.28,5.34,3.10,4.31,5.69,5.34,,,,,,,,,,,,,,
1799999990176263220,2027-01-15T07:59:50.176263220Z,-0.86,-1.90,-1.90,-0.52,-0.17,0.34,0.69,3.79,4.48,4.66,6.03,4.31,6.55,4.48,,,,,,,,,,,,,,
1799999990188014102,2027-01-15T07:59:50.188014102Z,-0.52,-1.38,-0.52,-0.34,0.34,0.34,0.00,4.48,3.10,4.66,6.90,4.48,6.55,6.38,,,,,,,,,,,,,,
1799999990199764983,2027-01-15T07:59:50.199764983Z,-0.17,-0.17,1.90,1.03,3.10,1.55,-0.17,4.83,1.72,3.97,5.86,6.38,5.17,8.10,,,,,,,,,,,,,,
1799999990211515864,2027-01-15T07:59:50.211515864Z,-0.86,-0.69,2.93,0.69,2.93,1.03,0.52,4.14,1.55,3.79,5.69,6.03,5.34,7.59,,,,,,,,,,,,,,
1799999990223266746,2027-01-15T07:59:50.223266746Z,0.86,-2.07,1.21,-1.55,0.17,0.86,2.59,1.03,2.41,4.66,5.52,4.66,5.00,5.34,,,,,,,,,,,,,,
1799999990235017627,2027-01-15T07:59:50.235017627Z,-0.17,-1.72,-0.34,-0.69,-1.03,1.38,3.97,1.72,4.14,5.00,5.34,4.83,4.66,5.86,,,,,,,,,,,,,,
1799999990246768508,2027-01-15T07:59:50.246768508Z,-1.21,0.52,-2.07,0.00,0.00,3.10,4.14,3.79,3.79,4.66,4.48,4.83,4.31,5.52,,,,,,,,,,,,,,
1799999990258519389,2027-01-15T07:59:50.258519389Z,-0.52,1.03,-2.76,-0.69,0.52,3.79,3.28,3.28,2.76,5.00,3.97,4.66,3.79,5.86,,,,,,,,,,,,,,
1799999990270270271,2027-01-15T07:59:50.270270271Z,-0.69,0.17,0.17,0.34,-0.34,2.59,1.72,2.59,2.59,4.31,3.79,3.62,3.45,5.52,,,,,,,,,,,,,,
1799999990282021152,2027-01-15T07:59:50.282021152Z,0.00,0.17,-0.34,0.34,-0.17,1.21,1.03,1.72,2.93,4.14,4.48,3.28,4.48,5.34,,,,,,,,,,,,,,
1799999990293772033,2027-01-15T07:59:50.293772033Z,-0.69,0.52,-1.38,-0.34,2.24,2.41,-0.52,1.21,2.24,4.83,5.17,4.48,6.21,6.90,,,,,,,,,,,,,,
1799999990305522915,2027-01-15T07:59:50.305522915Z,-0.34,1.03,-0.52,0.00,1.38,2.41,-0.69,2.41,2.07,5.17,4.66,5.34,6.55,8.28,,,,,,,,,,,,,,
1799999990317273796,2027-01-15T07:59:50.317273796Z,-2.93,0.86,0.34,-0.52,-0.86,2.76,-0.69,3.79,2.07,4.66,4.14,6.90,5.00,6.72,,,,,,,,,,,,,,
1799999990329024677,2027-01-15T07:59:50.329024677Z,0.69,0.17,-0.52,0.00,-1.03,1.55,1.38,3.28,1.55,4.31,4.48,6.03,4.83,5.52,,,,,,,,,,,,,,
1799999990340775559,2027-01-15T07:59:50.340775559Z,0.52,-1.21,-1.72,0.00,0.34,-0.69,1.21,2.41,2.93,3.79,3.79,5.34,5.86,5.17,,,,,,,,,,,,,,
1799999990352526440,2027-01-15T07:59:50.352526440Z,-1.38,-2.59,-1.72,0.00,-0.34,-0.69,-0.34,2.24,3.45,3.79,2.59,5.52,4.48,6.55,,,,,,,,,,,,,,
1799999990364277321,2027-01-15T07:59:50.364277321Z,1.03,-0.69,0.69,2.93,0.00,0.86,1.38,3.28,2.24,3.45,2.59,5.69,4.31,4.66,,,,,,,,,,,,,,
1799999990376028203,2027-01-15T07:59:50.376028203Z,-1.55,-0.69,-0.52,2.59,0.86,1.90,2.93,3.97,1.03,3.28,3.10,5.34,5.34,2.76,,,,,,,,,,,,,,
1799999990387779084,2027-01-15T07:59:50.387779084Z,-1.03,0.52,-2.07,1.55,-1.21,2.41,4.83,4.66,2.24,3.45,2.76,6.38,5.52,6.38,,,,,,,,,,,,,,
1799999990399529965,2027-01-15T07:59:50.399529965Z,0.00,1.21,-1.38,0.86,-0.69,2.07,4.83,4.66,3.28,2.59,2.76,6.55,5.86,6.72,,,,,,,,,,,,,,
1799999990411280847,2027-01-15T07:59:50.411280847Z,-2.93,0.86,-0.69,1.03,0.52,1.72,2.07,2.59,4.14,2.59,4.14,6.03,5.34,5.52,,,,,,,,,,,,,,
1799999990423031728,2027-01-15T07:59:50.423031728Z,-0.86,0.00,0.86,1.21,2.41,2.76,0.52,2.59,3.62,3.79,4.66,5.86,5.86,6.38,,,,,,,,,,,,,,
1799999990434782609,2027-01-15T07:59:50.434782609Z,-2.93,-1.72,0.17,0.69,1.38,2.59,0.69,3.79,2.07,4.14,4.14,5.52,6.38,6.03,,,,,,,,,,,,,,
1799999990446533491,2027-01-15T07:59:50.446533491Z,-1.72,-0.69,-0.17,1.21,0.69,2.24,1.03,2.07,2.07,4.48,3.97,4.66,5.69,5.86,,,,,,,,,,,,,,
1799999990458284372,2027-01-15T07:59:50.458284372Z,-0.52,-0.86,-0.69,2.07,-0.69,2.59,2.59,1.55,5.00,4.83,5.17,5.17,4.83,4.83,,,,,,,,,,,,,,
1799999990470035253,2027-01-15T07:59:50.470035253Z,0.34,-2.41,0.34,0.86,0.86,2.93,3.10,2.41,4.66,3.62,5.69,6.21,4.83,5.34,,,,,,,,,,,,,,
1799999990481786134,2027-01-15T07:59:50.481786134Z,0.17,-1.38,-0.69,0.69,-1.21,0.69,3.62,4.14,3.45,2.76,4.14,6.72,5.17,6.55,,,,,,,,,,,,,,
1799999990493537016,2027-01-15T07:59:50.493537016Z,-0.86,-1.38,-0.17,0.69,-1.38,0.34,2.24,3.79,2.59,3.28,4.48,6.03,5.52,5.86,,,,,,,,,,,,,,
1799999990505287897,2027-01-15T07:59:50.505287897Z,-1.72,-1.03,1.21,-0.17,1.72,2.07,3.28,1.90,2.59,4.14,4.83,4.66,6.21,5.69,,,,,,,,,,,,,,
1799999990517038778,2027-01-15T07:59:50.517038778Z,-2.24,-0.86,1.03,-0.69,3.45,3.79,3.28,1.72,3.10,4.14,4.14,5.34,5.86,6.55,,,,,,,,,,,,,,
1799999990528789660,2027-01-15T07:59:50.528789660Z,0.69,0.34,0.17,1.21,2.76,2.59,1.38,2.07,2.07,4.48,4.48,4.83,5.00,6.72,,,,,,,,,,,,,,
1799999990540540541,2027-01-15T07:59:50.540540541Z,0.34,0.17,-0.69,0.86,1.72,1.03,0.00,1.55,3.28,4.83,4.14,3.62,5.00,5.52,,,,,,,,,,,,,,
1799999990552291422,2027-01-15T07:59:50.552291422Z,-0.69,-0.34,-1.72,1.03,-0.52,1.21,-0.34,0.00,2.76,4.66,5.34,1.72,4.83,5.52,,,,,,,,,,,,,,
1799999990564042304,2027-01-15T07:59:50.564042304Z,-1.72,-0.52,0.86,1.72,-0.17,2.24,0.17,0.17,1.38,3.45,4.48,4.14,5.34,6.21,,,,,,,,,,,,,,
1799999990575793185,2027-01-15T07:59:50.575793185Z,-3.28,-1.21,2.24,-0.17,-0.17,2.41,0.86,0.52,1.72,3.28,3.62,5.69,5.34,5.52,,,,,,,,,,,,,,
1799999990587544066,2027-01-15T07:59:50.587544066Z,-3.79,0.00,3.45,-1.03,-0.52,2.24,2.07,1.72,4.66,3.97,2.41,5.00,4.48,6.03,,,,,,,,,,,,,,
1799999990599294948,2027-01-15T07:59:50.599294948Z,-2.07,0.17,2.93,-1.38,0.17,2.07,1.21,2.76,4.66,5.00,2.24,5.00,4.48,6.55,,,,,,,,,,,,,,
1799999990611045829,2027-01-15T07:59:50.611045829Z,1.03,-0.34,0.17,-0.34,0.69,0.86,1.38,2.07,2.07,4.14,2.76,5.86,4.14,6.21,,,,,,,,,,,,,,
1799999990622796710,2027-01-15T07:59:50.622796710Z,0.86,-0.69,0.17,0.17,1.03,0.34,2.07,1.21,2.07,3.79,3.45,5.86,4.31,6.21,,,,,,,,,,,,,,
1799999990634547592,2027-01-15T07:59:50.634547592Z,0.00,-1.38,2.41,0.34,1.38,0.00,3.10,3.10,3.10,3.79,3.97,4.14,5.34,6.03,,,,,,,,,,,,,,
1799999990646298473,2027-01-15T07:59:50.646298473Z,0.17,-0.69,1.55,0.00,1.21,0.52,2.76,3.79,3.10,3.97,3.62,2.41,5.86,5.52,,,,,,,,,,,,,,
1799999990658049354,2027-01-15T07:59:50.658049354Z,-1.55,0.17,0.34,2.07,4.48,1.72,4.66,2.41,4.31,4.66,3.79,4.31,5.34,6.72,,,,,,,,,,,,,,
1799999990669800236,2027-01-15T07:59:50.669800236Z,-2.76,0.17,1.21,1.03,5.86,2.76,5.34,2.59,3.79,4.48,3.62,5.34,5.52,5.52,,,,,,,,,,,,,,
1799999990681551117,2027-01-15T07:59:50.681551117Z,-0.69,1.38,2.24,-0.17,1.21,0.86,3.97,2.07,3.10,4.14,3.62,5.17,7.24,5.17,,,,,,,,,,,,,,
1799999990693301998,2027-01-15T07:59:50.693301998Z,-1.03,1.55,2.41,-0.17,-1.21,-0.34,2.93,2.24,2.93,3.97,4.66,5.00,6.21,5.69,,,,,,,,,,,,,,
1799999990705052879,2027-01-15T07:59:50.705052879Z,-0.17,0.34,0.52,-1.03,3.10,1.38,3.45,4.48,3.62,3.10,6.38,4.66,3.97,5.17,,,,,,,,,,,,,,
1799999990716803761,2027-01-15T07:59:50.716803761Z,0.86,-1.38,-1.21,0.34,4.14,2.07,3.10,4.83,4.14,4.14,6.55,4.83,4.31,5.34,,,,,,,,,,,,,,
1799999990728554642,2027-01-15T07:59:50.728554642Z,0.17,-0.86,-2.59,0.34,1.90,1.38,1.21,2.59,2.24,5.34,4.31,5.34,5.69,6.72,,,,,,,,,,,,,,
1799999990740305523,2027-01-15T07:59:50.740305523Z,2.41,-1.03,-1.90,-0.34,1.72,1.55,1.90,2.24,1.90,4.14,3.62,4.31,5.86,6.90,,,,,,,,,,,,,,
1799999990752056405,2027-01-15T07:59:50.752056405Z,-2.24,-1.55,-1.03,0.69,2.07,0.00,4.14,3.97,5.17,1.55,6.72,2.93,5.52,6.72,,,,,,,,,,,,,,
1799999990763807286,2027-01-15T07:59:50.763807286Z,-0.17,-0.69,-0.34,0.69,3.45,2.07,3.79,3.97,4.83,2.41,5.86,3.79,5.17,6.90,,,,,,,,,,,,,,
1799999990775558167,2027-01-15T07:59:50.775558167Z,-0.52,-0.69,-1.38,1.72,0.52,3.79,2.59,2.76,2.93,3.10,2.76,4.48,5.34,6.72,,,,,,,,,,,,,,
1799999990787309049,2027-01-15T07:59:50.787309049Z,-0.52,1.03,-1.38,2.24,0.00,3.79,2.41,2.76,2.93,2.93,2.59,4.83,4.66,6.55,,,,,,,,,,,,,,
1799999990799059930,2027-01-15T07:59:50.799059930Z,1.38,2.59,0.00,1.90,1.21,4.31,2.93,1.72,4.66,3.28,3.28,6.55,4.83,6.55,,,,,,,,,,,,,,
1799999990810810811,2027-01-15T07:59:50.810810811Z,-1.90,1.38,-0.86,0.34,1.72,3.79,2.41,0.69,4.83,3.28,4.66,6.03,5.52,7.24,,,,,,,,,,,,,,
1799999990822561693,2027-01-15T07:59:50.822561693Z,0.17,1.90,1.03,0.17,0.34,2.76,1.38,3.97,4.31,3.97,4.83,4.48,5.52,7.76,,,,,,,,,,,,,,
1799999990834312574,2027-01-15T07:59:50.834312574Z,-1.21,1.38,2.93,1.38,1.03,1.72,1.72,5.69,3.45,4.48,3.79,5.34,4.83,7.41,,,,,,,,,,,,,,
1799999990846063455,2027-01-15T07:59:50.846063455Z,-0.69,-0.52,1.72,0.34,2.59,0.17,1.90,3.10,3.28,5.69,3.45,4.83,4.83,7.24,,,,,,,,,,,,,,
1799999990857814337,2027-01-15T07:59:50.857814337Z,-3.45,0.00,-0.52,-0.86,2.07,0.34,2.41,2.59,2.59,5.17,4.83,4.31,5.69,6.55,,,,,,,,,,,,,,
1799999990869565218,2027-01-15T07:59:50.869565218Z,-3.45,-0.34,-2.41,0.00,0.34,2.07,3.97,1.72,2.93,3.45,5.00,5.17,6.21,6.90,,,,,,,,,,,,,,
1799999990881316099,2027-01-15T07:59:50.881316099Z,1.90,-0.52,-1.38,-0.17,-0.69,2.76,3.45,2.24,3.10,3.97,4.31,6.03,6.03,7.41,,,,,,,,,,,,,,
1799999990893066981,2027-01-15T07:59:50.893066981Z,-3.79,-2.93,-1.90,-0.52,0.52,-0.52,1.72,2.76,5.17,4.14,5.00,3.62,5.86,7.07,,,,,,,,,,,,,,
1799999990904817862,2027-01-15T07:59:50.904817862Z,-4.31,-0.86,-2.24,0.52,1.90,-0.86,0.34,3.10,5.52,5.00,5.52,3.62,5.69,6.38,,,,,,,,,,,,,,
1799999990916568743,2027-01-15T07:59:50.916568743Z,-0.17,-1.72,-1.55,0.34,2.76,-0.34,-0.34,2.41,3.97,3.10,4.66,3.79,4.48,5.34,,,,,,,,,,,,,,
1799999990928319624,2027-01-15T07:59:50.928319624Z,0.00,-2.59,-1.72,0.34,2.24,-0.86,-0.34,1.90,3.97,2.41,3.79,3.79,4.14,6.21,,,,,,,,,,,,,,
1799999990940070506,2027-01-15T07:59:50.940070506Z,1.90,-1.38,-1.03,-0.86,2.24,0.17,1.72,1.03,4.14,2.59,3.10,5.17,5.17,7.24,,,,,,,,,,,,,,
1799999990951821387,2027-01-15T07:59:50.951821387Z,0.34,-1.38,-0.52,-0.34,2.93,1.21,2.59,1.03,2.41,2.76,2.76,5.00,5.34,5.86,,,,,,,,,,,,,,
1799999990963572268,2027-01-15T07:59:50.963572268Z,0.00,-1.21,-1.38,1.72,2.93,2.59,1.72,3.62,1.90,3.28,2.41,5.00,5.52,3.97,,,,,,,,,,,,,,
1799999990975323150,2027-01-15T07:59:50.975323150Z,1.03,-1.55,-1.90,2.07,1.72,2.41,1.72,3.28,2.41,2.93,2.93,5.69,6.03,4.31,,,,,,,,,,,,,,
1799999990987074031,2027-01-15T07:59:50.987074031Z,-1.55,-3.28,-2.93,1.38,0.17,2.93,0.00,2.59,4.31,2.07,5.00,4.66,5.86,6.38,,,,,,,,,,,,,,
1799999990998824912,2027-01-15T07:59:50.998824912Z,-1.03,-2.07,-2.24,0.17,-3.62,2.59,-0.69,3.28,3.79,2.93,4.83,4.14,4.83,6.72,,,,,,,,,,,,,,
1799999991010575794,2027-01-15T07:59:51.010575794Z,1.03,1.03,-1.38,0.00,-5.52,2.59,2.24,3.28,1.38,3.28,4.83,4.83,5.52,5.52,,,,,,,,,,,,,,
1799999991022326675,2027-01-15T07:59:51.022326675Z,-0.17,0.00,-1.38,1.55,-3.97,2.41,2.07,2.24,2.93,2.93,4.66,5.86,5.52,4.83,,,,,,,,,,,,,,
1799999991034077556,2027-01-15T07:59:51.034077556Z,0.52,-2.93,1.21,1.38,0.86,0.52,0.34,1.90,1.38,3.45,5.17,5.69,4.14,3.97,,,,,,,,,,,,,,
1799999991045828438,2027-01-15T07:59:51.045828438Z,0.17,-1.55,0.86,0.69,2.24,1.38,1.03,1.38,-0.69,3.97,4.31,4.48,3.79,4.83,,,,,,,,,,,,,,
1799999991057579319,2027-01-15T07:59:51.057579319Z,0.34,0.00,-0.69,1.38,2.41,2.24,0.86,2.24,3.28,3.79,2.07,3.97,3.79,5.34,,,,,,,,,,,,,,
1799999991069330200,2027-01-15T07:59:51.069330200Z,-0.17,1.90,0.00,2.24,0.52,1.38,0.86,3.97,3.10,2.76,3.28,5.00,4.14,6.90,,,,,,,,,,,,,,
1799999991081081082,2027-01-15T07:59:51.081081082Z,-0.17,1.21,-0.86,2.24,0.86,2.59,2.24,4.48,3.10,1.90,5.52,4.48,4.66,7.93,,,,,,,,,,,,,,
1799999991092831963,2027-01-15T07:59:51.092831963Z,-0.34,-0.17,-1.72,0.86,0.69,2.24,3.79,4.66,4.66,3.10,4.83,4.66,5.34,7.24,,,,,,,,,,,,,,
1799999991104582844,2027-01-15T07:59:51.104582844Z,1.55,-0.69,-1.55,1.21,0.86,0.34,5.17,3.10,3.10,3.97,4.48,4.48,4.83,6.21,,,,,,,,,,,,,,
1799999991116333726,2027-01-15T07:59:51.116333726Z,0.00,1.03,-0.69,1.03,0.69,0.34,4.48,3.79,2.24,4.31,5.17,4.66,5.34,6.03,,,,,,,,,,,,,,
1799999991128084607,2027-01-15T07:59:51.128084607Z,-0.17,0.86,-0.52,-0.17,2.59,1.72,1.55,3.97,2.59,4.48,3.97,5.86,6.55,5.52,,,,,,,,,,,,,,
1799999991139835488,2027-01-15T07:59:51.139835488Z,0.17,1.21,-0.34,0.00,2.93,2.07,1.38,2.93,2.59,4.31,3.10,5.69,5.86,5.17,,,,,,,,,,,,,,
1799999991151586369,2027-01-15T07:59:51.151586369Z,0.00,-1.55,-0.52,1.21,1.55,1.72,1.38,3.79,3.45,3.62,2.41,5.86,5.17,5.52,,,,,,,,,,,,,,
1799999991163337251,2027-01-15T07:59:51.163337251Z,-1.03,-1.72,-0.52,0.34,1.55,2.59,2.76,3.45,2.93,4.48,2.41,5.69,6.03,5.69,,,,,,,,,,,,,,
1799999991175088132,2027-01-15T07:59:51.175088132Z,-0.86,-2.07,-0.17,0.00,-0.69,2.93,5.00,2.07,2.07,4.14,3.97,5.86,6.21,5.69,,,,,,,,,,,,,,
1799999991186839013,2027-01-15T07:59:51.186839013Z,-0.34,-0.86,0.17,1.03,-2.24,1.55,3.79,1.72,2.41,5.17,3.97,5.00,5.69,6.03,,,,,,,,,,,,,,
1799999991198589895,2027-01-15T07:59:51.198589895Z,-1.03,-0.34,0.69,0.17,0.34,0.69,1.55,1.72,2.41,4.48,5.17,3.97,5.52,6.38,,,,,,,,,,,,,,
1799999991210340776,2027-01-15T07:59:51.210340776Z,-1.72,-0.52,0.17,-0.34,2.24,1.55,2.24,2.59,2.41,4.31,5.69,4.66,5.69,6.55,,,,,,,,,,,,,,
1799999991222091657,2027-01-15T07:59:51.222091657Z,0.34,-1.72,0.69,-2.41,0.34,1.55,2.76,4.83,1.55,4.48,4.14,6.38,5.34,6.55,,,,,,,,,,,,,,
1799999991233842539,2027-01-15T07:59:51.233842539Z,0.00,-0.34,1.55,-1.55,-1.38,1.55,2.41,4.83,2.41,4.66,4.31,6.03,5.34,6.03,,,,,,,,,,,,,,
1799999991245593420,2027-01-15T07:59:51.245593420Z,-1.55,2.41,4.31,-0.52,-0.52,1.55,1.03,5.69,4.66,4.14,3.79,4.31,6.38,5.00,,,,,,,,,,,,,,
1799999991257344301,2027-01-15T07:59:51.257344301Z,-3.79,2.24,3.62,-0.52,0.00,2.24,2.24,4.66,4.48,4.31,4.83,3.62,6.38,5.00,,,,,,,,,,,,,,
1799999991269095183,2027-01-15T07:59:51.269095183Z,-3.10,-1.03,3.97,1.55,0.69,2.59,2.93,1.72,3.28,4.48,5.00,5.34,5.69,6.03,,,,,,,,,,,,,,
1799999991280846064,2027-01-15T07:59:51.280846064Z,-0.17,-2.41,3.97,1.90,0.69,2.24,2.41,1.55,3.45,3.79,4.48,6.38,4.66,6.03,,,,,,,,,,,,,,
1799999991292596945,2027-01-15T07:59:51.292596945Z,-1.21,-2.76,3.28,0.34,0.00,2.07,2.76,2.07,4.14,3.97,4.66,5.17,5.00,6.21,,,,,,,,,,,,,,
1799999991304347827,2027-01-15T07:59:51.304347827Z,0.17,-2.24,3.10,0.52,-0.17,2.76,2.59,2.41,4.48,4.14,4.14,5.00,5.52,5.86,,,,,,,,,,,,,,
1799999991316098708,2027-01-15T07:59:51.316098708Z,-1.90,0.17,1.55,1.90,1.38,1.21,2.76,2.76,4.31,3.97,2.07,4.66,6.21,6.72,,,,,,,,,,,,,,
1799999991327849589,2027-01-15T07:59:51.327849589Z,-2.59,0.17,0.69,1.72,0.86,0.86,2.59,2.24,4.14,4.48,2.24,4.14,6.38,7.24,,,,,,,,,,,,,,
1799999991339600471,2027-01-15T07:59:51.339600471Z,-0.52,-2.07,-0.17,0.86,-0.52,1.72,1.90,3.79,4.14,3.62,3.97,5.17,4.83,5.69,,,,,,,,,,,,,,
1799999991351351352,2027-01-15T07:59:51.351351352Z,-1.38,-1.90,-1.03,1.03,-0.34,4.48,2.59,4.14,3.79,2.93,5.34,4.66,3.79,6.03,,,,,,,,,,,,,,
1799999991363102233,2027-01-15T07:59:51.363102233Z,1.72,0.52,-1.38,1.21,1.38,5.86,2.59,3.28,3.28,3.79,4.83,4.31,5.34,6.90,,,,,,,,,,,,,,
1799999991374853114,2027-01-15T07:59:51.374853114Z,-1.21,0.52,-1.90,1.21,2.07,4.14,2.24,3.62,4.31,3.45,4.31,4.66,5.52,6.38,,,,,,,,,,,,,,
1799999991386603996,2027-01-15T07:59:51.386603996Z,0.00,-1.21,-2.07,1.21,0.17,2.41,1.55,2.59,1.90,3.62,4.83,4.48,5.34,6.55,,,,,,,,,,,,,,
1799999991398354877,2027-01-15T07:59:51.398354877Z,-0.17,-0.86,-2.07,0.86,0.52,2.76,2.41,0.86,1.21,4.83,5.52,4.31,5.52,6.03,,,,,,,,,,,,,,
1799999991410105758,2027-01-15T07:59:51.410105758Z,-0.52,1.21,-0.52,0.52,2.76,2.24,1.90,2.24,4.48,3.62,5.34,3.79,4.83,5.69,,,,,,,,,,,,,,
1799999991421856640,2027-01-15T07:59:51.421856640Z,1.72,2.07,0.52,1.03,2.76,2.59,0.52,2.41,4.31,2.93,4.83,3.79,3.97,6.55,,,,,,,,,,,,,,
1799999991433607521,2027-01-15T07:59:51.433607521Z,-1.03,-1.38,0.17,2.76,2.93,3.79,1.72,1.72,2.93,3.62,2.76,4.14,4.83,7.93,,,,,,,,,,,,,,
1799999991445358402,2027-01-15T07:59:51.445358402Z,-1.72,-1.90,0.34,1.55,1.55,4.66,3.28,0.69,3.45,3.79,3.28,5.00,5.00,7.76,,,,,,,,,,,,,,
1799999991457109284,2027-01-15T07:59:51.457109284Z,-1.03,-3.10,-0.86,-2.59,-1.03,3.45,3.79,1.03,4.14,3.45,4.66,6.55,3.97,6.55,,,,,,,,,,,,,,
1799999991468860165,2027-01-15T07:59:51.468860165Z,0.86,-1.72,-1.21,-3.62,-1.38,2.07,2.76,1.55,3.79,3.45,4.66,6.90,3.97,5.69,,,,,,,,,,,,,,
1799999991480611046,2027-01-15T07:59:51.480611046Z,0.00,0.52,-0.52,-0.69,0.00,1.38,1.38,2.59,2.93,1.90,4.31,5.69,5.86,5.17,,,,,,,,,,,,,,
1799999991492361928,2027-01-15T07:59:51.492361928Z,-0.17,0.86,-0.34,1.21,1.03,1.21,1.21,2.76,3.28,2.41,4.66,5.69,6.03,5.17,,,,,,,,,,,,,,
1799999991504112809,2027-01-15T07:59:51.504112809Z,-0.52,-1.21,-1.03,1.90,0.00,1.03,1.38,1.90,2.07,3.62,4.14,6.38,4.48,5.00,,,,,,,,,,,,,,
1799999991515863690,2027-01-15T07:59:51.515863690Z,1.55,-1.90,-1.03,1.55,0.34,1.72,0.86,1.55,1.72,4.66,3.62,6.38,4.48,4.31,,,,,,,,,,,,,,
1799999991527614572,2027-01-15T07:59:51.527614572Z,0.00,1.03,-1.03,0.00,0.34,2.24,1.03,1.21,3.10,5.00,5.69,6.21,5.00,4.66,,,,,,,,,,,,,,
1799999991539365453,2027-01-15T07:59:51.539365453Z,-0.34,0.69,-1.21,0.00,-1.38,2.41,1.72,1.38,4.14,4.48,5.86,5.86,5.17,5.34,,,,,,,,,,,,,,
1799999991551116334,2027-01-15T07:59:51.551116334Z,-1.72,-1.03,-1.55,0.69,-2.76,0.00,0.00,3.28,3.97,3.10,4.31,4.66,6.03,6.38,,,,,,,,,,,,,,
1799999991562867216,2027-01-15T07:59:51.562867216Z,0.17,-0.52,-1.03,1.21,-0.34,-0.34,0.52,3.79,3.79,3.28,4.66,4.48,5.86,6.03,,,,,,,,,,,,,,
1799999991574618097,2027-01-15T07:59:51.574618097Z,-1.72,-2.07,0.17,1.38,1.72,-1.72,2.59,3.45,2.41,5.34,5.86,5.00,6.21,5.17,,,,,,,,,,,,,,
1799999991586368978,2027-01-15T07:59:51.586368978Z,-0.86,-3.79,0.34,1.55,1.03,-1.38,2.76,3.10,2.24,5.17,5.34,5.69,6.38,5.52,,,,,,,,,,,,,,
1799999991598119859,2027-01-15T07:59:51.598119859Z,-0.86,0.69,-0.17,-0.34,0.69,0.52,4.83,5.52,2.07,4.31,4.48,5.86,5.52,6.21,,,,,,,,,,,,,,
1799999991609870741,2027-01-15T07:59:51.609870741Z,1.03,2.41,0.69,0.34,0.52,-0.86,5.52,5.00,1.55,3.62,3.62,5.52,5.00,7.07,,,,,,,,,,,,,,
1799999991621621622,2027-01-15T07:59:51.621621622Z,0.52,0.34,2.07,0.86,4.31,0.86,3.10,3.45,1.90,2.07,2.07,5.86,5.52,8.10,,,,,,,,,,,,,,
1799999991633372503,2027-01-15T07:59:51.633372503Z,-3.62,-0.69,1.90,0.34,3.28,2.07,1.90,3.62,2.07,2.41,2.24,5.00,4.83,7.59,,,,,,,,,,,,,,
1799999991645123385,2027-01-15T07:59:51.645123385Z,0.00,0.00,0.52,-0.52,3.45,1.38,1.03,4.31,1.90,4.83,3.45,3.62,5.34,5.52,,,,,,,,,,,,,,
1799999991656874266,2027-01-15T07:59:51.656874266Z,1.38,-0.52,0.52,0.86,5.34,1.03,1.55,4.14,3.45,5.17,3.28,4.31,5.69,4.66,,,,,,,,,,,,,,
1799999991668625147,2027-01-15T07:59:51.668625147Z,0.00,-0.52,-0.52,1.21,1.72,1.03,2.24,3.62,4.66,5.34,3.45,5.52,4.48,3.97,,,,,,,,,,,,,,
1799999991680376029,2027-01-15T07:59:51.680376029Z,-1.03,1.03,-1.21,0.17,2.93,0.86,2.41,3.10,3.97,4.14,3.45,5.34,5.17,5.52,,,,,,,,,,,,,,
1799999991692126910,2027-01-15T07:59:51.692126910Z,0.00,0.86,-0.34,0.17,4.31,0.86,2.93,3.28,2.93,4.14,1.72,5.34,6.03,6.03,,,,,,,,,,,,,,
1799999991703877791,2027-01-15T07:59:51.703877791Z,-0.34,-0.86,-1.21,1.03,3.62,0.00,2.59,1.38,2.07,3.45,4.14,5.52,5.17,9.31,,,,,,,,,,,,,,
1799999991715628673,2027-01-15T07:59:51.715628673Z,-0.69,-0.86,-1.38,1.03,3.97,1.03,2.41,0.69,1.72,2.93,5.17,5.34,5.34,9.48,,,,,,,,,,,,,,
1799999991727379554,2027-01-15T07:59:51.727379554Z,-3.97,-0.52,-1.55,1.55,1.38,-0.17,3.62,2.24,3.28,2.41,4.66,4.31,5.69,8.62,,,,,,,,,,,,,,
1799999991739130435,2027-01-15T07:59:51.739130435Z,-2.76,0.00,-1.55,1.72,-0.86,-1.21,3.28,2.76,2.59,3.45,4.66,4.31,5.86,7.24,,,,,,,,,,,,,,
1799999991750881317,2027-01-15T07:59:51.750881317Z,-2.07,-1.21,-1.72,0.86,1.55,-2.07,1.72,1.03,1.72,5.00,5.00,5.00,5.69,6.55,,,,,,,,,,,,,,
1799999991762632198,2027-01-15T07:59:51.762632198Z,-1.55,-2.07,-2.07,0.17,2.41,-1.38,1.72,2.07,2.59,4.66,4.48,5.69,5.86,5.52,,,,,,,,,,,,,,
1799999991774383079,2027-01-15T07:59:51.774383079Z,-0.69,-0.17,-2.07,-0.34,1.72,0.00,1.03,2.24,1.55,3.62,4.83,5.86,6.03,4.48,,,,,,,,,,,,,,
1799999991786133961,2027-01-15T07:59:51.786133961Z,-1.21,-0.17,-0.69,0.34,0.34,0.86,0.69,1.72,3.10,3.62,3.97,4.83,5.52,4.66,,,,,,,,,,,,,,
1799999991797884842,2027-01-15T07:59:51.797884842Z,-2.24,-0.34,-1.38,2.41,3.62,0.17,0.69,1.21,3.62,3.97,2.93,3.10,4.48,5.00,,,,,,,,,,,,,,
1799999991809635723,2027-01-15T07:59:51.809635723Z,-1.72,0.00,-1.38,1.90,3.97,0.00,1.38,1.90,3.45,4.48,3.97,3.10,4.31,4.48,,,,,,,,,,,,,,
1799999991821386604,2027-01-15T07:59:51.821386604Z,-0.52,-0.17,-1.21,-0.86,1.90,1.72,3.10,0.52,6.03,4.83,4.14,4.83,5.52,6.55,,,,,,,,,,,,,,
1799999991833137486,2027-01-15T07:59:51.833137486Z,-2.07,-0.69,0.34,0.52,2.07,0.86,3.79,1.03,4.48,4.48,3.45,5.52,6.38,7.59,,,,,,,,,,,,,,
1799999991844888367,2027-01-15T07:59:51.844888367Z,-1.03,0.17,-0.34,2.93,2.76,1.21,3.28,3.45,1.03,4.48,4.14,4.48,5.86,6.72,,,,,,,,,,,,,,
1799999991856639248,2027-01-15T07:59:51.856639248Z,-2.76,1.55,-1.03,2.24,2.93,2.41,3.28,4.14,2.41,3.97,4.31,3.97,5.86,6.38,,,,,,,,,,,,,,
1799999991868390130,2027-01-15T07:59:51.868390130Z,-2.76,1.38,1.55,1.03,1.90,2.24,0.69,3.45,5.34,3.10,5.17,3.97,5.69,5.69,,,,,,,,,,,,,,
1799999991880141011,2027-01-15T07:59:51.880141011Z,-0.69,1.38,1.21,0.86,0.00,2.24,-0.86,2.24,3.79,3.97,5.34,4.48,5.52,5.86,,,,,,,,,,,,,,
1799999991891891892,2027-01-15T07:59:51.891891892Z,-0.52,-0.86,-0.34,-0.34,0.52,1.21,0.69,3.10,1.55,3.62,3.45,4.66,6.03,7.24,,,,,,,,,,,,,,
1799999991903642774,2027-01-15T07:59:51.903642774Z,-1.55,-2.07,-0.34,-0.86,1.90,1.90,1.55,2.93,2.76,3.79,3.79,4.31,6.03,6.90,,,,,,,,,,,,,,
1799999991915393655,2027-01-15T07:59:51.915393655Z,-0.17,0.17,-1.72,-1.55,1.21,1.90,1.03,3.28,5.34,4.14,3.45,3.62,4.83,5.34,,,,,,,,,,,,,,
1799999991927144536,2027-01-15T07:59:51.927144536Z,0.00,0.17,-1.03,-1.03,0.34,1.55,1.03,3.62,3.79,3.28,2.76,5.17,5.17,5.69,,,,,,,,,,,,,,
1799999991938895418,2027-01-15T07:59:51.938895418Z,0.69,0.34,0.52,1.72,-1.03,2.93,2.76,3.45,2.76,4.14,3.97,6.72,5.52,5.86,,,,,,,,,,,,,,
1799999991950646299,2027-01-15T07:59:51.950646299Z,0.52,-1.38,0.00,1.90,-1.21,1.90,1.72,3.62,3.79,4.66,5.00,5.69,5.52,5.34,,,,,,,,,,,,,,
1799999991962397180,2027-01-15T07:59:51.962397180Z,-0.86,-0.17,0.69,1.21,-1.38,0.69,1.21,2.07,3.97,3.79,3.97,2.93,5.69,6.03,,,,,,,,,,,,,,
1799999991974148062,2027-01-15T07:59:51.974148062Z,1.90,1.21,0.86,1.21,0.34,1.03,1.72,1.55,2.59,4.31,3.45,3.10,5.34,6.90,,,,,,,,,,,,,,
1799999991985898943,2027-01-15T07:59:51.985898943Z,-0.17,-2.59,0.69,0.52,0.69,4.14,1.55,2.24,3.45,4.31,4.31,4.31,4.66,6.21,,,,,,,,,,,,,,
1799999991997649824,2027-01-15T07:59:51.997649824Z,0.00,-2.41,1.55,-0.17,1.90,5.52,2.41,2.93,3.79,3.97,4.14,4.66,4.48,6.21,,,,,,,,,,,,,,
1799999992009400706,2027-01-15T07:59:52.009400706Z,-0.69,-1.21,1.21,0.17,0.86,3.62,1.90,4.66,3.62,4.48,4.48,4.14,3.97,4.66,,,,,,,,,,,,,,
1799999992021151587,2027-01-15T07:59:52.021151587Z,-0.52,-1.21,0.69,0.86,0.86,1.72,0.69,4.14,3.79,4.31,5.00,3.62,4.14,3.79,,,,,,,,,,,,,,
1799999992032902468,2027-01-15T07:59:52.032902468Z,-2.41,-2.07,0.86,1.21,-0.69,2.76,0.86,3.45,6.38,3.79,2.59,4.83,6.21,5.17,,,,,,,,,,,,,,
1799999992044653350,2027-01-15T07:59:52.044653350Z,0.17,-2.07,0.69,0.69,-1.21,2.76,1.72,3.62,5.34,3.10,3.28,5.52,6.72,6.21,,,,,,,,,,,,,,
1799999992056404231,2027-01-15T07:59:52.056404231Z,0.52,-1.21,2.07,0.86,-0.17,3.45,1.90,3.10,2.93,1.72,6.03,4.31,5.17,6.72,,,,,,,,,,,,,,
1799999992068155112,2027-01-15T07:59:52.068155112Z,-0.52,-0.52,3.10,1.38,1.21,2.07,1.90,3.28,2.59,3.10,4.83,3.45,5.34,6.21,,,,,,,,,,,,,,
1799999992079905993,2027-01-15T07:59:52.079905993Z,0.17,-0.34,2.24,2.59,0.86,1.03,2.07,4.31,2.24,4.31,2.76,5.34,5.17,5.52,,,,,,,,,,,,,,
1799999992091656875,2027-01-15T07:59:52.091656875Z,-1.55,-1.55,0.52,2.59,0.69,1.38,1.72,4.83,2.41,3.79,3.45,6.21,4.48,5.52,,,,,,,,,,,,,,
1799999992103407756,2027-01-15T07:59:52.103407756Z,-0.34,-0.52,-2.24,1.21,-0.86,2.24,0.52,3.97,2.24,4.48,5.52,5.34,4.31,5.17,,,,,,,,,,,,,,
1799999992115158637,2027-01-15T07:59:52.115158637Z,0.52,0.34,-0.86,0.34,-0.34,2.24,0.17,4.14,2.07,4.31,5.69,5.00,4.48,5.34,,,,,,,,,,,,,,
1799999992126909519,2027-01-15T07:59:52.126909519Z,-0.34,-1.21,0.17,-1.03,0.34,1.90,2.41,1.90,2.24,4.14,6.38,6.03,4.83,5.34,,,,,,,,,,,,,,
1799999992138660400,2027-01-15T07:59:52.138660400Z,0.00,-1.03,0.17,0.34,0.52,1.55,3.10,0.52,2.41,4.31,4.83,5.52,5.34,5.52,,,,,,,,,,,,,,
1799999992150411281,2027-01-15T07:59:52.150411281Z,-1.38,-1.38,0.17,2.07,3.28,1.38,3.62,1.72,2.59,3.28,3.10,4.66,5.17,6.55,,,,,,,,,,,,,,
1799999992162162163,2027-01-15T07:59:52.162162163Z,-2.07,-1.21,0.69,1.55,3.10,1.03,3.62,2.41,2.93,2.93,4.14,5.00,4.31,6.72,,,,,,,,,,,,,,
1799999992173913044,2027-01-15T07:59:52.173913044Z,1.03,0.86,-0.17,0.69,1.55,1.90,2.59,2.07,4.66,3.97,7.24,5.52,6.03,5.86,,,,,,,,,,,,,,
1799999992185663925,2027-01-15T07:59:52.185663925Z,0.00,1.21,-0.34,0.86,0.86,2.59,1.90,2.24,3.79,4.31,6.55,5.34,6.55,5.86,,,,,,,,,,,,,,
1799999992197414807,2027-01-15T07:59:52.197414807Z,-1.38,1.72,-0.52,0.69,0.17,3.62,1.38,3.28,1.72,3.79,4.66,5.52,5.00,5.00,,,,,,,,,,,,,,
1799999992209165688,2027-01-15T07:59:52.209165688Z,-0.17,0.00,-0.34,-0.34,0.52,3.45,0.69,2.76,1.55,3.79,4.66,5.00,4.83,5.00,,,,,,,,,,,,,,
1799999992220916569,2027-01-15T07:59:52.220916569Z,-0.34,-2.59,-1.38,-0.17,-0.69,1.21,1.21,2.59,1.55,4.48,4.14,4.48,4.66,6.03,,,,,,,,,,,,,,
1799999992232667451,2027-01-15T07:59:52.232667451Z,-1.38,-2.59,-0.52,0.34,-0.69,-0.34,1.72,2.93,2.93,3.45,3.28,4.48,5.52,6.38,,,,,,,,,,,,,,
1799999992244418332,2027-01-15T07:59:52.244418332Z,-1.55,-2.24,0.86,2.41,0.86,1.38,3.10,1.90,4.48,2.24,4.83,5.34,5.86,4.66,,,,,,,,,,,,,,
1799999992256169213,2027-01-15T07:59:52.256169213Z,-2.24,-1.55,0.52,2.07,1.72,2.76,3.79,1.72,4.48,2.93,5.52,4.66,5.17,4.48,,,,,,,,,,,,,,
1799999992267920095,2027-01-15T07:59:52.267920095Z,-0.52,1.03,0.17,1.72,0.34,1.03,1.72,2.07,4.48,4.31,4.66,4.31,5.17,4.14,,,,,,,,,,,,,,
1799999992279670976,2027-01-15T07:59:52.279670976Z,1.55,0.69,-0.17,0.34,0.69,2.07,1.90,1.72,3.28,4.14,4.83,4.48,5.69,4.14,,,,,,,,,,,,,,
1799999992291421857,2027-01-15T07:59:52.291421857Z,0.52,0.17,0.34,-0.34,1.38,3.62,2.24,2.24,2.24,3.45,4.66,5.34,5.34,7.07,,,,,,,,,,,,,,
1799999992303172738,2027-01-15T07:59:52.303172738Z,0.17,-0.52,0.69,-0.52,0.86,2.59,2.76,2.24,3.45,3.62,3.45,5.34,4.66,8.10,,,,,,,,,,,,,,
1799999992314923620,2027-01-15T07:59:52.314923620Z,0.00,-1.03,-0.34,-1.03,-1.03,1.38,2.41,2.59,3.10,4.83,3.45,5.86,5.00,7.07,,,,,,,,,,,,,,
1799999992326674501,2027-01-15T07:59:52.326674501Z,-2.93,-0.34,-0.34,-0.17,-1.55,1.38,2.07,2.93,2.59,4.66,3.97,5.34,5.17,6.90,,,,,,,,,,,,,,
1799999992338425382,2027-01-15T07:59:52.338425382Z,0.17,-0.34,0.52,0.52,0.86,1.55,4.31,1.55,3.45,4.83,4.31,4.83,5.69,5.17,,,,,,,,,,,,,,
1799999992350176264,2027-01-15T07:59:52.350176264Z,-0.34,-0.86,0.52,-0.69,1.38,1.72,3.62,2.41,3.79,4.83,3.97,4.31,6.21,4.48,,,,,,,,,,,,,,
1799999992361927145,2027-01-15T07:59:52.361927145Z,0.86,-0.86,-0.17,0.52,0.69,2.59,2.41,5.00,1.38,4.48,3.45,4.31,6.38,5.86,,,,,,,,,,,,,,
1799999992373678026,2027-01-15T07:59:52.373678026Z,-1.72,-1.38,-1.38,1.72,0.86,1.21,2.24,5.69,1.90,4.14,3.97,4.83,5.52,6.72,,,,,,,,,,,,,,
1799999992385428908,2027-01-15T07:59:52.385428908Z,0.69,0.34,-1.38,1.55,-1.38,0.17,2.59,5.69,5.00,4.31,4.48,4.31,6.21,7.24,,,,,,,,,,,,,,
1799999992397179789,2027-01-15T07:59:52.397179789Z,0.17,0.69,-1.38,1.55,-0.52,1.03,3.62,5.17,5.17,3.62,4.14,3.79,6.38,6.90,,,,,,,,,,,,,,
1799999992408930670,2027-01-15T07:59:52.408930670Z,-2.76,0.52,-1.55,0.17,2.41,2.07,2.59,3.10,2.59,2.93,2.76,4.14,5.86,6.72,,,,,,,,,,,,,,
1799999992420681552,2027-01-15T07:59:52.420681552Z,-2.07,0.69,0.00,-0.52,2.41,0.86,2.59,1.90,2.24,2.76,3.10,5.00,4.48,6.90,,,,,,,,,,,,,,
1799999992432432433,2027-01-15T07:59:52.432432433Z,2.59,-0.69,-0.17,0.17,2.07,-0.69,1.72,1.55,3.97,3.97,3.28,5.34,4.66,5.86,,,,,,,,,,,,,,
1799999992444183314,2027-01-15T07:59:52.444183314Z,0.69,-0.69,-0.86,0.52,2.59,0.69,2.24,1.72,3.62,4.48,3.10,5.69,4.66,5.86,,,,,,,,,,,,,,
1799999992455934196,2027-01-15T07:59:52.455934196Z,0.86,-0.69,2.07,-0.34,2.07,2.93,4.31,1.55,4.14,4.14,3.97,6.03,4.31,5.52,,,,,,,,,,,,,,
1799999992467685077,2027-01-15T07:59:52.467685077Z,1.38,-0.69,1.90,0.69,1.72,2.76,4.31,1.72,3.28,4.83,3.45,5.86,4.48,5.86,,,,,,,,,,,,,,
1799999992479435958,2027-01-15T07:59:52.479435958Z,-0.34,0.52,-0.17,1.72,1.90,2.41,2.41,1.72,1.38,4.66,1.55,6.38,5.17,5.86,,,,,,,,,,,,,,
1799999992491186840,2027-01-15T07:59:52.491186840Z,-0.69,0.17,-0.34,1.38,1.72,3.28,1.72,2.07,1.38,3.62,3.10,6.21,5.17,5.52,,,,,,,,,,,,,,
1799999992502937721,2027-01-15T07:59:52.502937721Z,-2.07,-1.55,-2.07,0.17,2.24,2.59,2.07,2.24,1.55,2.59,4.66,5.69,3.97,6.38,,,,,,,,,,,,,,
1799999992514688602,2027-01-15T07:59:52.514688602Z,-2.59,-1.90,-1.21,0.69,3.10,1.90,2.41,1.72,1.21,3.28,3.62,4.14,4.48,6.38,,,,,,,,,,,,,,
1799999992526439483,2027-01-15T07:59:52.526439483Z,1.21,-1.21,0.52,0.52,1.38,0.69,2.59,2.59,2.93,4.66,5.34,2.24,5.34,5.69,,,,,,,,,,,,,,
1799999992538190365,2027-01-15T07:59:52.538190365Z,-0.17,-0.34,-0.69,0.34,0.17,0.86,2.59,3.10,3.45,4.31,5.17,3.45,5.17,5.00,,,,,,,,,,,,,,
1799999992549941246,2027-01-15T07:59:52.549941246Z,-1.55,-0.69,-2.24,0.69,2.24,0.86,1.03,3.28,4.14,3.28,5.52,4.66,5.00,5.52,,,,,,,,,,,,,,
1799999992561692127,2027-01-15T07:59:52.561692127Z,-0.34,-1.55,-0.52,1.55,2.59,0.34,0.69,2.76,3.45,4.48,5.52,4.31,5.52,6.21,,,,,,,,,,,,,,
1799999992573443009,2027-01-15T07:59:52.573443009Z,1.03,-2.07,0.17,0.86,2.24,1.55,2.07,1.72,2.07,5.00,3.97,4.66,6.72,5.86,,,,,,,,,,,,,,
1799999992585193890,2027-01-15T07:59:52.585193890Z,0.69,-0.86,0.34,0.00,2.24,2.41,2.59,2.24,1.72,4.83,3.97,5.69,6.90,6.03,,,,,,,,,,,,,,
1799999992596944771,2027-01-15T07:59:52.596944771Z,-0.17,1.55,0.69,0.52,0.52,4.14,1.90,3.97,3.45,5.34,5.52,5.00,5.34,6.21,,,,,,,,,,,,,,
1799999992608695653,2027-01-15T07:59:52.608695653Z,-0.17,1.38,1.21,1.90,0.17,3.10,1.55,3.79,3.62,5.17,4.83,4.83,5.34,5.17,,,,,,,,,,,,,,
1799999992620446534,2027-01-15T07:59:52.620446534Z,-0.17,-1.21,0.00,1.38,0.86,1.72,2.41,2.59,2.93,4.31,4.14,6.03,6.38,5.52,,,,,,,,,,,,,,
1799999992632197415,2027-01-15T07:59:52.632197415Z,1.72,-1.21,-0.69,-0.34,1.90,1.38,2.76,2.41,3.28,3.62,2.93,5.69,6.38,6.21,,,,,,,,,,,,,,
1799999992643948297,2027-01-15T07:59:52.643948297Z,-0.52,1.55,-0.52,0.34,1.21,0.52,1.38,2.07,3.45,3.28,2.93,4.66,5.17,5.34,,,,,,,,,,,,,,
1799999992655699178,2027-01-15T07:59:52.655699178Z,-0.86,1.21,-0.52,1.03,0.52,-0.52,1.03,3.10,2.24,3.62,3.45,4.83,4.83,5.34,,,,,,,,,,,,,,
1799999992667450059,2027-01-15T07:59:52.667450059Z,0.00,1.72,0.52,-0.69,0.34,2.07,1.72,3.10,3.97,3.10,5.00,3.28,4.83,6.38,,,,,,,,,,,,,,
1799999992679200941,2027-01-15T07:59:52.679200941Z,-1.38,0.69,-0.17,-1.72,0.52,3.28,1.90,2.41,5.52,2.59,5.52,2.41,5.17,6.55,,,,,,,,,,,,,,
1799999992690951822,2027-01-15T07:59:52.690951822Z,0.17,-1.90,-1.38,-0.34,0.69,1.90,0.69,2.24,7.76,3.79,5.86,5.34,6.72,6.38,,,,,,,,,,,,,,
1799999992702702703,2027-01-15T07:59:52.702702703Z,-1.03,-1.72,-0.52,0.86,-0.17,1.90,0.86,2.24,6.21,4.66,6.21,6.72,6.38,6.90,,,,,,,,,,,,,,
1799999992714453585,2027-01-15T07:59:52.714453585Z,-1.72,-1.38,0.52,0.69,0.69,3.45,2.93,1.90,4.14,4.48,5.17,5.52,4.31,5.86,,,,,,,,,,,,,,
1799999992726204466,2027-01-15T07:59:52.726204466Z,0.34,-1.55,0.17,1.21,0.00,2.41,3.28,1.38,3.62,3.62,4.31,4.66,4.31,5.00,,,,,,,,,,,,,,
1799999992737955347,2027-01-15T07:59:52.737955347Z,0.52,-1.38,0.69,1.03,-0.69,0.34,2.41,3.28,1.55,3.79,4.83,5.17,4.14,6.72,,,,,,,,,,,,,,
1799999992749706228,2027-01-15T07:59:52.749706228Z,-0.52,-1.21,1.55,0.00,-0.34,-0.52,1.72,3.79,2.93,4.66,4.66,5.52,4.31,7.07,,,,,,,,,,,,,,
1799999992761457110,2027-01-15T07:59:52.761457110Z,0.86,-2.07,0.00,-1.38,0.34,1.55,1.21,3.10,5.86,5.69,2.93,5.52,4.83,7.93,,,,,,,,,,,,,,
1799999992773207991,2027-01-15T07:59:52.773207991Z,-1.72,-2.24,-0.86,0.52,0.34,2.07,2.07,2.76,5.52,3.97,2.76,5.17,5.00,7.07,,,,,,,,,,,,,,
1799999992784958872,2027-01-15T07:59:52.784958872Z,-0.86,-1.72,-0.69,1.38,1.38,1.03,2.24,3.62,3.45,3.10,3.28,4.48,5.17,5.86,,,,,,,,,,,,,,
1799999992796709754,2027-01-15T07:59:52.796709754Z,-0.69,0.52,-0.34,1.72,0.00,2.76,2.59,2.41,3.79,2.59,4.31,4.48,4.83,6.03,,,,,,,,,,,,,,
1799999992808460635,2027-01-15T07:59:52.808460635Z,-1.90,1.21,-0.86,1.72,-1.21,2.59,3.28,2.76,3.28,2.24,5.34,4.48,4.83,5.69,,,,,,,,,,,,,,
1799999992820211516,2027-01-15T07:59:52.820211516Z,-0.86,-0.69,-0.86,2.41,0.00,2.93,1.55,3.45,4.48,3.10,5.00,3.28,4.31,4.14,,,,,,,,,,,,,,
1799999992831962398,2027-01-15T07:59:52.831962398Z,0.00,0.00,-0.17,2.24,0.86,3.45,1.21,4.83,4.83,3.97,4.31,3.79,4.48,4.14,,,,,,,,,,,,,,
1799999992843713279,2027-01-15T07:59:52.843713279Z,1.03,0.86,1.21,1.72,3.10,2.41,0.86,3.28,2.07,3.97,3.62,5.52,5.00,5.86,,,,,,,,,,,,,,
1799999992855464160,2027-01-15T07:59:52.855464160Z,-0.86,0.17,0.52,1.38,2.41,2.07,1.03,1.03,1.90,2.93,4.14,5.34,5.52,6.38,,,,,,,,,,,,,,
1799999992867215042,2027-01-15T07:59:52.867215042Z,-1.72,1.38,-1.21,-0.17,0.69,0.69,0.86,1.21,1.55,3.45,4.66,5.34,6.03,7.07,,,,,,,,,,,,,,
1799999992878965923,2027-01-15T07:59:52.878965923Z,1.03,1.38,-0.52,-0.52,0.52,-0.34,0.34,1.21,0.34,3.62,4.83,5.52,5.69,6.72,,,,,,,,,,,,,,
1799999992890716804,2027-01-15T07:59:52.890716804Z,1.38,0.52,1.21,0.00,0.34,0.86,3.28,3.62,2.76,3.28,3.97,5.34,5.00,6.72,,,,,,,,,,,,,,
1799999992902467686,2027-01-15T07:59:52.902467686Z,-0.52,0.34,0.34,0.00,0.69,1.55,4.83,4.66,2.76,3.28,3.45,5.52,4.66,7.41,,,,,,,,,,,,,,
1799999992914218567,2027-01-15T07:59:52.914218567Z,-2.41,-0.86,0.69,0.17,1.21,1.21,1.72,4.31,1.55,3.79,2.93,5.34,5.17,7.76,,,,,,,,,,,,,,
1799999992925969448,2027-01-15T07:59:52.925969448Z,0.69,-1.21,0.86,0.00,1.03,1.21,1.38,3.79,1.90,4.31,3.97,4.83,5.00,7.41,,,,,,,,,,,,,,
1799999992937720330,2027-01-15T07:59:52.937720330Z,-1.55,0.00,1.38,0.00,1.72,3.28,0.52,3.10,2.41,3.97,4.66,5.69,5.52,6.38,,,,,,,,,,,,,,
1799999992949471211,2027-01-15T07:59:52.949471211Z,0.52,-0.34,1.90,0.17,1.55,2.76,0.17,3.10,2.24,3.28,4.14,5.69,5.52,5.52,,,,,,,,,,,,,,
1799999992961222092,2027-01-15T07:59:52.961222092Z,0.34,-1.03,1.55,0.86,0.86,1.03,-0.69,2.07,1.21,4.83,4.66,5.52,5.86,4.31,,,,,,,,,,,,,,
1799999992972972973,2027-01-15T07:59:52.972972973Z,0.86,-0.86,-0.52,0.34,0.34,1.21,-1.03,2.93,1.55,4.31,5.34,5.86,5.86,4.31,,,,,,,,,,,,,,
1799999992984723855,2027-01-15T07:59:52.984723855Z,-1.72,0.00,0.34,0.17,0.34,2.41,1.72,3.97,2.59,3.45,3.97,5.17,4.83,4.66,,,,,,,,,,,,,,
1799999992996474736,2027-01-15T07:59:52.996474736Z,1.03,-0.17,2.07,0.00,0.86,1.55,3.79,3.45,3.10,4.48,3.97,4.66,5.00,6.38,,,,,,,,,,,,,,
1799999993008225617,2027-01-15T07:59:53.008225617Z,1.03,-2.07,1.21,0.69,1.90,2.24,2.41,2.93,2.41,4.31,5.34,3.79,5.69,7.41,,,,,,,,,,,,,,
1799999993019976499,2027-01-15T07:59:53.019976499Z,0.52,-1.03,0.17,0.00,2.41,3.10,1.55,2.41,1.38,3.10,5.17,3.97,5.86,6.90,,,,,,,,,,,,,,
1799999993031727380,2027-01-15T07:59:53.031727380Z,0.17,0.00,-2.24,-0.52,-0.69,1.21,2.07,1.72,3.10,3.62,4.48,5.86,5.34,7.76,,,,,,,,,,,,,,
1799999993043478261,2027-01-15T07:59:53.043478261Z,-2.59,-0.34,-0.86,0.69,-2.41,1.38,2.41,1.38,3.28,3.97,4.14,6.03,5.86,7.93,,,,,,,,,,,,,,
1799999993055229143,2027-01-15T07:59:53.055229143Z,-3.10,-1.21,0.34,1.72,-1.72,1.55,3.10,1.21,4.14,3.62,4.14,3.28,5.17,6.21,,,,,,,,,,,,,,
1799999993066980024,2027-01-15T07:59:53.066980024Z,-2.41,-0.34,-0.69,1.72,0.34,1.03,3.62,2.07,5.00,4.31,4.14,3.45,4.31,6.55,,,,,,,,,,,,,,
1799999993078730905,2027-01-15T07:59:53.078730905Z,-1.55,1.21,-0.69,-0.17,0.00,2.07,3.28,3.28,3.45,4.31,4.14,5.17,4.83,7.76,,,,,,,,,,,,,,
1799999993090481787,2027-01-15T07:59:53.090481787Z,-0.86,0.00,-0.17,-1.90,0.69,3.10,2.76,2.24,2.93,2.93,4.14,5.52,5.17,6.55,,,,,,,,,,,,,,
1799999993102232668,2027-01-15T07:59:53.102232668Z,-2.59,-1.21,0.00,-0.17,0.52,3.28,1.72,0.86,2.41,2.41,2.41,5.34,5.17,5.17,,,,,,,,,,,,,,
1799999993113983549,2027-01-15T07:59:53.113983549Z,-3.28,-1.21,-0.52,1.03,1.21,3.28,2.76,1.21,1.72,1.90,2.41,4.31,5.00,5.69,,,,,,,,,,,,,,
1799999993125734431,2027-01-15T07:59:53.125734431Z,-3.45,-2.59,0.86,0.86,2.76,2.59,2.76,1.90,2.59,3.10,2.24,4.83,6.90,7.24,,,,,,,,,,,,,,
1799999993137485312,2027-01-15T07:59:53.137485312Z,-2.59,-2.59,0.17,1.55,2.24,2.41,3.28,2.07,3.79,4.48,2.76,5.00,7.76,7.41,,,,,,,,,,,,,,
1799999993149236193,2027-01-15T07:59:53.149236193Z,0.17,-1.03,-1.38,1.38,1.21,1.21,2.76,1.55,4.14,4.31,5.00,3.97,6.38,6.03,,,,,,,,,,,,,,
1799999993160987075,2027-01-15T07:59:53.160987075Z,-0.34,0.00,-0.34,1.03,1.72,0.34,2.07,1.38,2.41,4.48,5.00,4.14,6.38,5.52,,,,,,,,,,,,,,
1799999993172737956,2027-01-15T07:59:53.172737956Z,-0.52,-0.86,0.34,0.34,-1.38,-0.34,0.86,1.90,1.72,4.83,4.48,5.34,5.17,4.83,,,,,,,,,,,,,,
1799999993184488837,2027-01-15T07:59:53.184488837Z,0.17,-1.38,0.00,0.17,-2.24,-0.17,0.34,1.21,3.10,4.31,4.31,4.83,5.00,5.52,,,,,,,,,,,,,,
1799999993196239718,2027-01-15T07:59:53.196239718Z,0.00,0.34,-1.03,0.17,-1.03,1.21,1.03,2.76,4.48,5.17,3.97,3.28,4.66,5.52,,,,,,,,,,,,,,
1799999993207990600,2027-01-15T07:59:53.207990600Z,-1.21,0.52,-1.38,0.00,1.21,2.41,1.55,3.97,3.97,4.66,3.97,3.62,6.90,5.34,,,,,,,,,,,,,,
1799999993219741481,2027-01-15T07:59:53.219741481Z,-0.34,-0.34,-0.86,1.55,-0.52,1.72,1.03,3.79,2.24,4.14,5.00,5.52,7.41,5.52,,,,,,,,,,,,,,
1799999993231492362,2027-01-15T07:59:53.231492362Z,-1.72,-0.34,-1.38,1.72,0.00,0.34,1.72,4.48,2.24,4.31,5.34,5.17,6.55,5.86,,,,,,,,,,,,,,
1799999993243243244,2027-01-15T07:59:53.243243244Z,0.34,0.17,-1.21,1.38,-0.52,-0.17,2.59,2.93,4.66,3.79,4.31,3.79,5.17,6.72,,,,,,,,,,,,,,
1799999993254994125,2027-01-15T07:59:53.254994125Z,0.00,0.69,-0.69,1.21,-0.52,-0.17,2.07,2.59,5.69,2.76,3.79,3.62,6.38,6.21,,,,,,,,,,,,,,
1799999993266745006,2027-01-15T07:59:53.266745006Z,-0.52,1.03,-0.17,1.21,3.28,-0.17,0.52,3.45,3.10,3.10,3.28,4.66,5.00,6.21,,,,,,,,,,,,,,
1799999993278495888,2027-01-15T07:59:53.278495888Z,0.00,0.52,0.52,1.72,0.86,0.52,0.34,3.10,1.38,3.79,3.79,5.69,4.48,6.72,,,,,,,,,,,,,,
1799999993290246769,2027-01-15T07:59:53.290246769Z,1.38,0.00,0.34,1.90,-0.86,2.41,2.24,4.14,2.41,2.93,3.45,5.86,5.34,5.52,,,,,,,,,,,,,,
1799999993301997650,2027-01-15T07:59:53.301997650Z,-0.17,0.00,1.03,1.38,1.21,2.93,2.41,5.17,3.10,3.10,2.41,5.86,5.17,4.66,,,,,,,,,,,,,,
1799999993313748532,2027-01-15T07:59:53.313748532Z,0.00,-1.55,0.86,0.86,1.38,1.38,1.55,3.45,3.97,4.14,3.45,4.66,4.66,5.00,,,,,,,,,,,,,,
1799999993325499413,2027-01-15T07:59:53.325499413Z,-0.52,-0.34,0.69,0.86,1.55,1.90,1.55,3.45,3.62,3.97,3.79,4.31,4.48,5.52,,,,,,,,,,,,,,
1799999993337250294,2027-01-15T07:59:53.337250294Z,1.38,0.86,0.34,0.52,4.31,1.90,1.90,4.48,2.59,5.34,2.93,5.17,4.83,6.21,,,,,,,,,,,,,,
1799999993349001176,2027-01-15T07:59:53.349001176Z,1.21,-0.52,-0.34,0.34,4.31,1.72,1.72,2.93,3.10,5.52,3.62,5.17,4.83,5.17,,,,,,,,,,,,,,
1799999993360752057,2027-01-15T07:59:53.360752057Z,-0.34,0.52,-1.03,1.03,2.07,2.93,1.90,2.76,3.45,3.28,5.00,4.14,3.97,6.03,,,,,,,,,,,,,,
1799999993372502938,2027-01-15T07:59:53.372502938Z,-0.86,0.69,-0.86,0.69,2.07,3.10,1.72,3.45,2.41,2.41,4.83,3.97,4.14,6.72,,,,,,,,,,,,,,
1799999993384253820,2027-01-15T07:59:53.384253820Z,0.34,0.34,-1.03,-0.34,2.93,1.72,1.72,2.41,2.93,2.93,6.38,5.00,4.48,5.69,,,,,,,,,,,,,,
1799999993396004701,2027-01-15T07:59:53.396004701Z,-0.17,-0.69,-0.86,-0.52,3.45,1.90,0.34,1.55,3.28,2.24,6.38,5.86,4.48,5.00,,,,,,,,,,,,,,
1799999993407755582,2027-01-15T07:59:53.407755582Z,0.86,0.00,1.21,0.34,2.07,1.72,0.52,2.59,4.48,3.62,4.31,5.52,4.31,6.03,,,,,,,,,,,,,,
1799999993419506463,2027-01-15T07:59:53.419506463Z,0.52,0.69,1.55,0.52,1.55,2.41,1.03,3.45,5.52,4.31,5.52,5.86,4.83,6.55,,,,,,,,,,,,,,
1799999993431257345,2027-01-15T07:59:53.431257345Z,0.17,-0.69,0.17,2.07,0.69,1.72,2.07,4.83,7.24,4.66,6.72,5.34,5.52,5.34,,,,,,,,,,,,,,
1799999993443008226,2027-01-15T07:59:53.443008226Z,-0.69,-1.03,1.21,2.76,0.17,0.69,2.41,3.45,5.00,3.45,6.03,5.17,5.17,4.66,,,,,,,,,,,,,,
1799999993454759107,2027-01-15T07:59:53.454759107Z,-2.07,-1.38,1.03,0.69,-2.41,2.24,2.93,1.38,2.07,3.79,3.28,6.21,4.48,6.55,,,,,,,,,,,,,,
1799999993466509989,2027-01-15T07:59:53.466509989Z,0.34,-2.41,0.86,0.17,-2.93,2.07,2.07,1.90,2.93,3.62,3.45,6.55,4.83,7.41,,,,,,,,,,,,,,
1799999993478260870,2027-01-15T07:59:53.478260870Z,1.03,0.34,0.17,0.52,0.00,0.52,3.62,2.07,6.03,3.97,4.14,3.97,4.48,6.90,,,,,,,,,,,,,,
1799999993490011751,2027-01-15T07:59:53.490011751Z,0.86,0.86,-0.17,0.17,2.93,0.34,4.83,1.55,5.86,3.79,3.97,2.59,4.31,5.69,,,,,,,,,,,,,,
1799999993501762633,2027-01-15T07:59:53.501762633Z,-0.86,0.00,-1.03,-0.69,2.59,0.52,2.59,2.24,2.93,2.41,4.66,3.97,4.83,5.34,,,,,,,,,,,,,,
1799999993513513514,2027-01-15T07:59:53.513513514Z,-2.07,-0.17,-1.21,-0.34,1.72,1.03,1.72,2.07,1.38,2.41,4.31,4.66,4.48,5.86,,,,,,,,,,,,,,
1799999993525264395,2027-01-15T07:59:53.525264395Z,-2.24,-0.86,-0.52,1.38,-1.90,1.55,2.93,1.03,1.72,4.14,3.10,6.21,4.48,6.21,,,,,,,,,,,,,,
1799999993537015277,2027-01-15T07:59:53.537015277Z,-1.72,-0.34,-0.86,0.52,1.38,1.72,2.93,0.69,2.07,4.48,3.97,5.17,4.14,6.55,,,,,,,,,,,,,,
1799999993548766158,2027-01-15T07:59:53.548766158Z,2.07,-0.17,-1.90,-0.69,5.00,0.86,1.90,1.55,4.48,4.14,3.97,4.66,6.21,7.41,,,,,,,,,,,,,,
1799999993560517039,2027-01-15T07:59:53.560517039Z,0.34,-0.52,-2.07,0.17,3.45,1.38,1.38,1.72,4.31,3.79,3.79,4.66,7.41,6.90,,,,,,,,,,,,,,
1799999993572267921,2027-01-15T07:59:53.572267921Z,-1.03,-2.93,-1.38,-0.69,0.52,1.72,3.10,2.59,3.45,3.45,4.83,4.83,6.21,6.55,,,,,,,,,,,,,,
1799999993584018802,2027-01-15T07:59:53.584018802Z,-1.03,-2.93,-0.69,-1.38,1.21,2.76,2.07,2.76,3.45,3.62,4.83,5.17,5.69,6.55,,,,,,,,,,,,,,
1799999993595769683,2027-01-15T07:59:53.595769683Z,0.17,-2.24,-0.86,0.86,1.90,5.34,1.55,3.79,3.97,3.62,4.31,6.38,5.34,5.34,,,,,,,,,,,,,,
1799999993607520565,2027-01-15T07:59:53.607520565Z,0.00,-0.86,-1.90,1.90,1.21,5.00,2.07,2.93,2.93,4.31,4.48,5.86,5.00,5.34,,,,,,,,,,,,,,
1799999993619271446,2027-01-15T07:59:53.619271446Z,-1.55,-1.03,-1.03,0.34,0.17,3.10,3.28,0.69,1.90,4.48,4.14,4.14,4.83,4.66,,,,,,,,,,,,,,
1799999993631022327,2027-01-15T07:59:53.631022327Z,-2.59,-2.93,0.17,-0.34,0.52,3.10,2.41,0.00,0.52,4.31,4.14,3.79,4.66,5.17,,,,,,,,,,,,,,
1799999993642773208,2027-01-15T07:59:53.642773208Z,0.86,-0.86,0.34,0.17,2.07,3.28,2.07,1.55,0.69,3.62,3.79,4.83,5.00,6.21,,,,,,,,,,,,,,
1799999993654524090,2027-01-15T07:59:53.654524090Z,0.00,0.00,-0.17,0.17,1.90,3.28,1.72,2.24,1.72,3.28,4.48,4.48,5.00,5.69,,,,,,,,,,,,,,
1799999993666274971,2027-01-15T07:59:53.666274971Z,-1.55,0.52,0.34,0.34,2.59,0.86,1.90,3.10,3.62,2.59,5.52,4.66,5.86,6.55,,,,,,,,,,,,,,
1799999993678025852,2027-01-15T07:59:53.678025852Z,-3.62,-0.17,-0.17,0.52,2.59,1.72,2.24,4.31,3.45,2.76,5.86,5.00,6.38,6.55,,,,,,,,,,,,,,
1799999993689776734,2027-01-15T07:59:53.689776734Z,-1.72,-1.55,-1.38,0.34,1.90,1.90,2.59,3.28,2.41,3.62,3.45,2.41,6.55,5.17,,,,,,,,,,,,,,
1799999993701527615,2027-01-15T07:59:53.701527615Z,-1.38,-0.69,-0.52,1.21,1.72,2.41,2.59,1.72,1.72,4.14,2.24,1.55,6.55,5.00,,,,,,,,,,,,,,
1799999993713278496,2027-01-15T07:59:53.713278496Z,-1.72,0.52,0.69,1.38,1.03,2.07,2.41,1.90,2.07,2.93,4.48,4.14,5.34,5.52,,,,,,,,,,,,,,
1799999993725029378,2027-01-15T07:59:53.725029378Z,-1.03,0.52,0.17,0.52,0.00,0.86,2.24,2.93,3.62,2.76,5.52,5.86,4.83,5.34,,,,,,,,,,,,,,
1799999993736780259,2027-01-15T07:59:53.736780259Z,0.69,0.86,-1.55,-0.34,-1.55,1.55,1.90,2.76,3.62,4.48,4.83,6.55,6.03,6.21,,,,,,,,,,,,,,
1799999993748531140,2027-01-15T07:59:53.748531140Z,0.52,1.03,-0.69,-0.17,-0.52,1.38,1.21,2.07,2.76,5.00,5.52,6.55,6.03,5.52,,,,,,,,,,,,,,
1799999993760282022,2027-01-15T07:59:53.760282022Z,1.55,-0.52,1.72,-1.03,0.34,0.86,1.21,2.59,2.07,3.79,5.00,6.03,4.83,5.69,,,,,,,,,,,,,,
1799999993772032903,2027-01-15T07:59:53.772032903Z,-1.90,0.17,0.86,0.00,1.38,1.72,2.24,3.97,2.41,3.62,4.48,4.83,4.83,5.69,,,,,,,,,,,,,,
1799999993783783784,2027-01-15T07:59:53.783783784Z,-1.03,1.03,1.21,2.07,0.17,1.90,1.55,3.97,3.97,4.14,3.62,2.24,5.86,6.03,,,,,,,,,,,,,,
1799999993795534666,2027-01-15T07:59:53.795534666Z,-3.10,0.34,1.38,1.72,-0.69,1.90,1.72,2.59,3.10,3.97,4.31,2.59,5.52,6.21,,,,,,,,,,,,,,
1799999993807285547,2027-01-15T07:59:53.807285547Z,-4.14,1.90,-0.17,0.86,-0.52,1.38,1.21,1.03,2.59,3.97,5.17,3.62,5.00,4.14,,,,,,,,,,,,,,
1799999993819036428,2027-01-15T07:59:53.819036428Z,-2.41,2.07,-1.38,-0.34,1.03,1.72,3.10,2.41,4.14,4.31,4.66,4.48,5.00,5.52,,,,,,,,,,,,,,
1799999993830787310,2027-01-15T07:59:53.830787310Z,-1.03,1.38,0.86,-2.59,2.24,1.21,3.28,4.66,5.86,4.66,4.48,5.17,4.83,5.00,,,,,,,,,,,,,,
1799999993842538191,2027-01-15T07:59:53.842538191Z,-1.72,1.38,1.55,0.17,1.90,1.03,1.72,3.79,5.17,4.66,4.83,4.66,5.34,4.31,,,,,,,,,,,,,,
1799999993854289072,2027-01-15T07:59:53.854289072Z,-1.90,-0.86,0.17,1.38,0.52,1.55,3.10,3.45,2.59,2.24,3.97,4.83,5.00,8.45,,,,,,,,,,,,,,
1799999993866039953,2027-01-15T07:59:53.866039953Z,1.38,-1.21,-0.34,1.38,0.17,2.07,3.28,3.97,1.90,3.28,3.10,5.34,5.00,8.10,,,,,,,,,,,,,,
1799999993877790835,2027-01-15T07:59:53.877790835Z,-0.52,-2.24,-0.34,1.21,1.55,2.76,1.38,2.93,2.24,4.31,2.59,4.48,6.72,6.72,,,,,,,,,,,,,,
1799999993889541716,2027-01-15T07:59:53.889541716Z,-0.69,-2.07,-0.17,1.55,2.07,1.38,2.76,3.97,3.79,4.14,4.14,5.00,5.86,6.38,,,,,,,,,,,,,,
1799999993901292597,2027-01-15T07:59:53.901292597Z,-1.72,-0.52,0.69,0.17,1.90,1.38,3.28,4.48,4.48,4.31,5.00,6.38,5.34,6.21,,,,,,,,,,,,,,
1799999993913043479,2027-01-15T07:59:53.913043479Z,-0.86,-0.52,-0.17,-0.17,-0.69,1.21,1.55,2.93,2.41,4.31,3.97,7.07,6.03,7.59,,,,,,,,,,,,,,
1799999993924794360,2027-01-15T07:59:53.924794360Z,-1.38,-1.21,0.34,0.34,-2.07,0.00,-0.17,2.59,0.69,4.31,3.97,6.38,5.69,7.59,,,,,,,,,,,,,,
1799999993936545241,2027-01-15T07:59:53.936545241Z,0.69,-1.55,1.03,0.69,-0.34,1.03,0.69,2.76,1.72,4.31,2.41,5.86,5.86,6.55,,,,,,,,,,,,,,
1799999993948296123,2027-01-15T07:59:53.948296123Z,-1.90,-1.03,1.38,-0.34,1.90,1.38,1.72,3.10,2.59,4.31,2.93,6.03,5.34,6.38,,,,,,,,,,,,,,
1799999993960047004,2027-01-15T07:59:53.960047004Z,0.34,0.17,1.38,1.21,3.45,-0.52,2.24,3.10,6.38,5.00,3.97,6.55,4.31,5.52,,,,,,,,,,,,,,
1799999993971797885,2027-01-15T07:59:53.971797885Z,0.69,-0.69,1.21,2.41,4.48,0.86,0.86,4.31,6.21,4.48,4.31,6.03,5.00,5.69,,,,,,,,,,,,,,
1799999993983548767,2027-01-15T07:59:53.983548767Z,0.34,-1.03,1.55,2.76,3.45,3.28,1.38,4.31,3.97,5.00,3.62,4.14,5.34,6.21,,,,,,,,,,,,,,
1799999993995299648,2027-01-15T07:59:53.995299648Z,-0.69,0.00,1.38,2.24,2.41,3.62,1.72,3.28,3.10,4.31,3.10,4.31,5.17,5.17,,,,,,,,,,,,,,
1799999994007050529,2027-01-15T07:59:54.007050529Z,1.03,-0.69,-0.34,1.03,2.59,1.21,2.24,1.55,2.41,2.59,4.48,5.00,5.34,3.97,,,,,,,,,,,,,,
1799999994018801411,2027-01-15T07:59:54.018801411Z,0.34,-0.86,1.38,2.24,2.76,0.00,2.07,2.76,1.72,3.28,4.83,5.17,5.00,5.00,,,,,,,,,,,,,,
1799999994030552292,2027-01-15T07:59:54.030552292Z,-0.86,-1.72,1.55,2.24,1.55,1.03,1.55,4.48,3.10,4.31,3.79,4.31,4.83,6.38,,,,,,,,,,,,,,
1799999994042303173,2027-01-15T07:59:54.042303173Z,0.52,-0.34,-0.17,1.90,0.69,2.41,1.55,3.79,3.62,3.97,4.14,4.66,4.83,7.07,,,,,,,,,,,,,,
1799999994054054055,2027-01-15T07:59:54.054054055Z,-0.69,-0.86,-3.28,-0.17,1.90,2.07,1.55,2.93,3.10,3.62,5.17,5.34,5.17,6.72,,,,,,,,,,,,,,
1799999994065804936,2027-01-15T07:59:54.065804936Z,-1.55,-1.55,-3.10,-0.52,2.59,1.72,1.03,3.62,2.93,3.45,5.17,5.17,5.34,6.21,,,,,,,,,,,,,,
1799999994077555817,2027-01-15T07:59:54.077555817Z,-1.03,-0.17,-2.24,1.72,1.21,2.24,2.41,4.66,2.76,3.45,5.86,4.14,6.03,6.55,,,,,,,,,,,,,,
1799999994089306699,2027-01-15T07:59:54.089306699Z,-0.86,-1.03,-1.72,1.90,0.69,2.59,3.10,4.48,2.07,3.62,5.69,4.48,5.86,6.72,,,,,,,,,,,,,,
1799999994101057580,2027-01-15T07:59:54.101057580Z,-1.21,-0.69,-0.52,0.69,-0.34,1.38,1.38,2.41,0.69,3.97,3.62,5.69,7.76,5.52,,,,,,,,,,,,,,
1799999994112808461,2027-01-15T07:59:54.112808461Z,0.34,-0.86,0.34,0.86,1.03,0.86,-0.17,2.93,2.07,4.14,3.79,6.03,8.28,5.34,,,,,,,,,,,,,,
1799999994124559342,2027-01-15T07:59:54.124559342Z,-2.41,-0.69,0.00,0.17,1.38,0.17,1.90,4.14,5.00,2.93,4.14,4.66,6.90,5.52,,,,,,,,,,,,,,
1799999994136310224,2027-01-15T07:59:54.136310224Z,-2.41,0.17,-0.52,0.17,0.00,0.17,3.45,3.28,4.83,2.24,4.66,4.14,6.90,5.34,,,,,,,,,,,,,,
1799999994148061105,2027-01-15T07:59:54.148061105Z,0.00,-1.21,-0.17,1.21,-0.69,2.07,2.24,3.10,2.07,3.28,4.66,5.34,4.83,6.55,,,,,,,,,,,,,,
1799999994159811986,2027-01-15T07:59:54.159811986Z,0.69,-0.86,-0.17,2.59,0.34,3.62,2.59,2.59,2.59,3.97,4.14,5.34,3.28,7.59,,,,,,,,,,,,,,
1799999994171562868,2027-01-15T07:59:54.171562868Z,1.55,-2.07,2.07,0.17,-0.34,2.07,2.24,1.38,2.41,4.66,3.79,4.66,4.14,6.55,,,,,,,,,,,,,,
1799999994183313749,2027-01-15T07:59:54.183313749Z,-0.34,-2.07,0.69,0.00,-1.21,2.93,1.72,1.90,1.72,4.14,3.62,4.66,4.83,6.03,,,,,,,,,,,,,,
1799999994195064630,2027-01-15T07:59:54.195064630Z,-0.34,0.69,0.17,0.86,-2.93,3.28,3.97,2.07,1.38,3.28,3.79,5.86,5.00,4.14,,,,,,,,,,,,,,
1799999994206815512,2027-01-15T07:59:54.206815512Z,0.17,0.00,1.03,1.38,-2.93,1.90,3.79,2.41,0.86,3.62,3.79,6.21,5.86,4.14,,,,,,,,,,,,,,
1799999994218566393,2027-01-15T07:59:54.218566393Z,0.00,-0.34,-1.03,-0.34,0.17,1.55,1.72,3.28,3.62,3.97,5.00,4.83,6.55,5.86,,,,,,,,,,,,,,
1799999994230317274,2027-01-15T07:59:54.230317274Z,-2.07,-1.90,-1.38,-0.52,1.38,3.28,2.24,2.76,3.45,4.48,4.83,4.83,6.38,6.21,,,,,,,,,,,,,,
1799999994242068156,2027-01-15T07:59:54.242068156Z,-0.34,-2.41,0.69,1.03,-0.52,1.90,3.10,2.24,3.28,4.14,2.93,4.66,5.69,6.55,,,,,,,,,,,,,,
1799999994253819037,2027-01-15T07:59:54.253819037Z,-0.52,-1.21,-0.34,1.03,-0.52,1.90,3.79,1.03,2.93,3.62,3.45,4.14,6.03,6.72,,,,,,,,,,,,,,
1799999994265569918,2027-01-15T07:59:54.265569918Z,-1.38,-2.93,-0.34,0.86,1.21,3.45,4.66,2.59,2.41,2.76,4.83,4.31,4.83,7.24,,,,,,,,,,,,,,
1799999994277320800,2027-01-15T07:59:54.277320800Z,-2.07,-1.90,0.69,0.34,2.41,3.79,3.28,3.79,2.41,3.28,4.48,4.48,4.31,7.07,,,,,,,,,,,,,,
1799999994289071681,2027-01-15T07:59:54.289071681Z,-0.86,0.34,-1.21,-0.34,2.07,1.72,2.24,2.41,1.90,3.45,4.66,3.97,4.31,5.69,,,,,,,,,,,,,,
1799999994300822562,2027-01-15T07:59:54.300822562Z,0.17,0.69,-2.24,0.86,3.10,1.21,2.76,1.72,2.24,3.79,5.17,3.97,5.00,6.03,,,,,,,,,,,,,,
1799999994312573444,2027-01-15T07:59:54.312573444Z,0.34,0.34,-0.69,0.69,1.55,1.72,2.59,2.41,5.17,4.66,4.66,5.00,5.00,7.41,,,,,,,,,,,,,,
1799999994324324325,2027-01-15T07:59:54.324324325Z,-2.76,-0.34,-0.69,0.52,0.00,2.41,2.59,3.45,5.69,4.66,4.48,5.17,4.83,6.90,,,,,,,,,,,,,,
1799999994336075206,2027-01-15T07:59:54.336075206Z,-2.24,-0.17,-1.55,0.69,-1.03,3.10,0.17,2.93,2.93,3.79,4.48,6.03,4.31,5.52,,,,,,,,,,,,,,
1799999994347826087,2027-01-15T07:59:54.347826087Z,-0.69,-0.17,-1.38,1.03,-1.21,2.24,-0.52,2.07,3.97,4.31,4.66,6.03,5.52,5.34,,,,,,,,,,,,,,
1799999994359576969,2027-01-15T07:59:54.359576969Z,-1.21,0.52,-1.55,1.72,1.38,1.21,1.21,2.07,4.14,4.48,3.45,6.03,4.48,5.00,,,,,,,,,,,,,,
1799999994371327850,2027-01-15T07:59:54.371327850Z,1.21,0.34,-1.38,0.69,2.24,1.90,1.21,3.45,2.76,4.14,3.28,5.52,4.14,5.86,,,,,,,,,,,,,,
1799999994383078731,2027-01-15T07:59:54.383078731Z,0.69,-0.17,-0.17,-0.17,1.38,3.10,2.07,3.10,2.59,3.45,4.14,4.14,4.48,7.24,,,,,,,,,,,,,,
1799999994394829613,2027-01-15T07:59:54.394829613Z,-1.38,-0.34,-0.34,-0.17,1.55,2.07,2.59,3.62,2.24,3.10,5.00,4.14,5.17,6.90,,,,,,,,,,,,,,
1799999994406580494,2027-01-15T07:59:54.406580494Z,-0.52,0.34,0.86,-0.17,0.17,0.69,1.03,2.93,0.52,2.76,5.17,5.34,5.00,6.03,,,,,,,,,,,,,,
1799999994418331375,2027-01-15T07:59:54.418331375Z,-0.69,0.69,-0.34,0.52,-2.07,0.69,1.21,0.86,1.55,3.97,4.66,6.55,4.66,5.52,,,,,,,,,,,,,,
1799999994430082257,2027-01-15T07:59:54.430082257Z,-1.21,-0.86,-0.69,0.34,-3.10,-1.55,3.10,-0.17,3.97,5.00,4.31,4.83,6.38,5.86,,,,,,,,,,,,,,
1799999994441833138,2027-01-15T07:59:54.441833138Z,-2.76,-0.52,0.00,0.52,-1.03,-1.38,2.59,0.34,4.48,4.83,5.17,4.14,7.41,6.90,,,,,,,,,,,,,,
1799999994453584019,2027-01-15T07:59:54.453584019Z,0.17,-0.34,0.69,2.24,1.72,-1.38,1.55,2.93,2.76,5.52,4.66,5.86,5.00,6.38,,,,,,,,,,,,,,
1799999994465334901,2027-01-15T07:59:54.465334901Z,0.34,-0.17,0.86,2.76,1.21,-2.07,1.72,2.76,2.24,5.34,4.31,6.38,4.66,5.17,,,,,,,,,,,,,,
1799999994477085782,2027-01-15T07:59:54.477085782Z,0.69,2.24,-1.03,1.21,2.24,-0.17,0.00,1.21,2.59,4.14,4.66,4.48,4.48,5.52,,,,,,,,,,,,,,
1799999994488836663,2027-01-15T07:59:54.488836663Z,0.17,2.93,-1.03,0.34,1.72,1.03,-0.17,0.86,3.28,3.97,4.66,4.83,4.14,6.21,,,,,,,,,,,,,,
1799999994500587545,2027-01-15T07:59:54.500587545Z,-1.38,3.45,0.17,0.52,0.69,1.90,1.21,3.28,3.79,3.45,3.62,5.17,5.17,6.55,,,,,,,,,,,,,,
1799999994512338426,2027-01-15T07:59:54.512338426Z,0.52,1.38,0.34,0.00,1.90,2.41,1.03,4.48,4.48,3.79,3.79,4.48,5.17,5.86,,,,,,,,,,,,,,
1799999994524089307,2027-01-15T07:59:54.524089307Z,0.34,0.17,0.86,-0.52,2.07,1.72,1.55,4.66,3.79,3.79,4.31,3.62,5.17,5.86,,,,,,,,,,,,,,
1799999994535840189,2027-01-15T07:59:54.535840189Z,-0.17,-0.34,-0.17,0.34,2.24,1.72,2.07,3.45,3.10,3.10,3.45,3.97,5.00,5.00,,,,,,,,,,,,,,
1799999994547591070,2027-01-15T07:59:54.547591070Z,0.00,-0.69,0.34,-1.55,1.72,-0.17,2.41,5.34,1.55,3.45,3.45,5.17,5.69,4.31,,,,,,,,,,,,,,
1799999994559341951,2027-01-15T07:59:54.559341951Z,-0.52,-0.52,1.03,-1.90,1.21,0.17,1.21,5.17,1.21,3.10,3.79,5.69,6.03,5.00,,,,,,,,,,,,,,
1799999994571092832,2027-01-15T07:59:54.571092832Z,-0.69,-1.72,1.55,1.55,0.86,2.41,1.72,3.79,1.38,3.79,4.14,5.34,5.52,5.52,,,,,,,,,,,,,,
1799999994582843714,2027-01-15T07:59:54.582843714Z,0.17,-2.41,1.55,2.41,0.52,2.07,2.41,2.41,2.41,4.66,3.62,5.52,6.38,5.34,,,,,,,,,,,,,,
1799999994594594595,2027-01-15T07:59:54.594594595Z,-0.86,-1.38,2.41,1.21,0.69,1.03,3.28,1.21,3.79,4.83,3.10,5.69,6.38,4.66,,,,,,,,,,,,,,
1799999994606345476,2027-01-15T07:59:54.606345476Z,1.03,0.17,2.41,0.34,0.86,0.86,2.93,1.38,4.66,4.48,4.14,5.34,5.52,4.14,,,,,,,,,,,,,,
1799999994618096358,2027-01-15T07:59:54.618096358Z,0.52,2.59,0.00,-1.55,0.52,1.38,2.41,2.41,3.79,3.97,4.48,5.00,3.97,4.66,,,,,,,,,,,,,,
1799999994629847239,2027-01-15T07:59:54.629847239Z,1.55,-0.17,-2.41,-0.17,0.00,0.86,2.24,3.10,3.28,4.14,3.97,5.00,4.66,6.72,,,,,,,,,,,,,,
1799999994641598120,2027-01-15T07:59:54.641598120Z,0.69,-1.72,-1.72,2.07,0.69,1.90,3.10,1.90,2.41,5.17,4.48,6.03,4.66,6.90,,,,,,,,,,,,,,
1799999994653349002,2027-01-15T07:59:54.653349002Z,0.17,-1.72,-1.55,-0.17,0.69,2.59,4.48,1.72,2.41,5.52,5.52,5.34,4.66,7.24,,,,,,,,,,,,,,
1799999994665099883,2027-01-15T07:59:54.665099883Z,0.00,-0.69,-1.03,-1.90,1.55,2.24,5.17,1.38,2.07,3.97,4.14,3.97,4.83,6.21,,,,,,,,,,,,,,
1799999994676850764,2027-01-15T07:59:54.676850764Z,-2.24,0.17,-0.34,-0.34,1.72,2.76,4.48,1.21,2.41,3.62,3.97,5.17,4.66,6.21,,,,,,,,,,,,,,
1799999994688601646,2027-01-15T07:59:54.688601646Z,-1.38,-1.21,-0.34,0.00,0.52,2.93,3.97,3.62,5.52,3.45,5.00,6.21,5.00,5.86,,,,,,,,,,,,,,
1799999994700352527,2027-01-15T07:59:54.700352527Z,0.69,0.00,-0.69,0.52,1.03,1.55,4.14,3.97,5.69,2.76,4.48,5.69,5.17,6.03,,,,,,,,,,,,,,
1799999994712103408,2027-01-15T07:59:54.712103408Z,0.34,-0.17,0.17,-0.17,0.86,2.07,3.10,2.59,3.45,1.90,3.10,4.48,4.83,7.76,,,,,,,,,,,,,,
1799999994723854290,2027-01-15T07:59:54.723854290Z,0.52,-1.21,0.00,0.34,0.86,2.93,2.07,2.07,3.45,2.59,2.59,4.14,4.83,7.93,,,,,,,,,,,,,,
1799999994735605171,2027-01-15T07:59:54.735605171Z,0.17,-1.21,-1.72,1.55,1.72,3.45,2.76,0.34,6.55,3.79,4.14,3.97,4.48,6.72,,,,,,,,,,,,,,
1799999994747356052,2027-01-15T07:59:54.747356052Z,0.17,-0.34,-0.69,1.38,1.55,2.59,3.45,0.34,6.55,3.45,4.66,4.83,5.34,5.52,,,,,,,,,,,,,,
1799999994759106934,2027-01-15T07:59:54.759106934Z,0.69,0.52,-0.34,-0.34,0.86,2.24,1.90,1.55,5.34,3.62,5.34,3.62,6.21,5.17,,,,,,,,,,,,,,
1799999994770857815,2027-01-15T07:59:54.770857815Z,0.17,-1.38,-0.69,-0.17,0.00,1.72,1.38,2.93,5.00,3.79,5.17,3.45,6.03,5.86,,,,,,,,,,,,,,
1799999994782608696,2027-01-15T07:59:54.782608696Z,-1.72,-1.72,-1.03,1.90,0.00,1.21,1.38,2.59,2.93,4.14,4.31,3.45,6.21,6.72,,,,,,,,,,,,,,
1799999994794359577,2027-01-15T07:59:54.794359577Z,-3.62,-1.38,-1.03,2.41,1.38,2.59,1.72,3.10,2.93,4.48,4.83,3.28,6.21,6.55,,,,,,,,,,,,,,
1799999994806110459,2027-01-15T07:59:54.806110459Z,-3.45,-1.21,-0.69,1.55,2.24,2.76,1.03,2.93,4.48,4.48,4.83,4.31,5.00,7.24,,,,,,,,,,,,,,
1799999994817861340,2027-01-15T07:59:54.817861340Z,-2.41,-1.21,1.03,1.21,1.90,1.38,0.52,1.90,5.34,2.93,3.97,4.31,4.14,6.55,,,,,,,,,,,,,,
1799999994829612221,2027-01-15T07:59:54.829612221Z,1.03,0.52,-1.03,0.69,-0.34,1.03,-0.34,1.72,3.28,4.14,3.97,4.66,4.48,4.66,,,,,,,,,,,,,,
1799999994841363103,2027-01-15T07:59:54.841363103Z,0.52,1.55,-1.55,0.69,0.34,1.55,-0.34,2.24,2.07,4.31,4.14,5.34,5.17,5.00,,,,,,,,,,,,,,
1799999994853113984,2027-01-15T07:59:54.853113984Z,-0.69,-0.17,-0.17,0.34,1.55,2.59,1.03,3.28,0.34,3.10,3.97,5.69,5.00,6.03,,,,,,,,,,,,,,
1799999994864864865,2027-01-15T07:59:54.864864865Z,-0.86,-0.17,1.21,0.86,1.38,2.76,1.72,2.59,1.55,4.31,3.62,5.17,5.69,5.00,,,,,,,,,,,,,,
1799999994876615747,2027-01-15T07:59:54.876615747Z,-0.69,-0.17,2.41,1.21,0.69,1.90,2.59,2.93,2.41,4.14,3.79,4.48,6.38,3.97,,,,,,,,,,,,,,
1799999994888366628,2027-01-15T07:59:54.888366628Z,0.00,-1.55,1.72,1.03,0.00,1.38,2.41,3.28,2.93,2.76,4.31,4.66,6.21,5.00,,,,,,,,,,,,,,
1799999994900117509,2027-01-15T07:59:54.900117509Z,1.03,-1.03,-0.17,-0.52,0.00,0.52,0.17,2.76,2.24,3.79,4.14,3.79,5.69,7.41,,,,,,,,,,,,,,
1799999994911868391,2027-01-15T07:59:54.911868391Z,1.03,-0.52,-0.86,-0.86,0.00,0.69,-0.34,2.76,2.59,4.48,4.31,2.76,5.34,7.41,,,,,,,,,,,,,,
1799999994923619272,2027-01-15T07:59:54.923619272Z,0.69,0.00,0.86,0.34,1.72,0.34,2.41,2.59,3.28,3.45,4.48,4.14,4.14,6.72,,,,,,,,,,,,,,
1799999994935370153,2027-01-15T07:59:54.935370153Z,-1.03,-1.38,1.90,1.03,2.41,0.86,4.14,3.45,3.79,3.79,4.14,5.17,5.00,6.38,,,,,,,,,,,,,,
1799999994947121035,2027-01-15T07:59:54.947121035Z,-1.03,-1.21,1.72,1.03,2.24,1.90,4.66,3.79,3.62,5.00,4.66,6.55,5.86,5.69,,,,,,,,,,,,,,
1799999994958871916,2027-01-15T07:59:54.958871916Z,-0.17,-0.52,0.86,1.03,0.86,1.38,2.93,2.76,3.97,5.00,4.83,5.86,5.69,5.86,,,,,,,,,,,,,,
1799999994970622797,2027-01-15T07:59:54.970622797Z,0.86,0.17,1.38,0.86,0.17,0.86,1.72,3.28,3.45,3.97,4.48,4.83,5.17,6.72,,,,,,,,,,,,,,
1799999994982373679,2027-01-15T07:59:54.982373679Z,0.86,0.86,1.72,0.86,0.69,1.21,2.41,3.45,3.10,3.79,4.66,5.69,5.00,6.72,,,,,,,,,,,,,,
1799999994994124560,2027-01-15T07:59:54.994124560Z,0.00,-0.52,-0.69,0.00,1.21,1.21,3.62,3.10,4.31,4.66,4.66,4.83,6.38,5.17,,,,,,,,,,,,,,
1799999995005875441,2027-01-15T07:59:55.005875441Z,-2.93,-1.38,-0.52,-0.34,1.90,1.55,3.10,2.24,5.34,5.69,4.66,4.83,7.24,5.69,,,,,,,,,,,,,,
1799999995017626322,2027-01-15T07:59:55.017626322Z,-0.34,1.21,-0.17,1.38,2.93,1.90,1.55,2.07,4.31,4.31,5.34,5.00,7.24,7.59,,,,,,,,,,,,,,
1799999995029377204,2027-01-15T07:59:55.029377204Z,0.17,1.90,-0.52,2.24,2.24,1.21,1.03,3.10,2.93,3.79,4.31,5.00,7.76,8.45,,,,,,,,,,,,,,
1799999995041128085,2027-01-15T07:59:55.041128085Z,-0.34,0.52,-0.17,1.72,1.72,0.69,0.52,3.10,2.24,3.97,2.93,5.17,6.72,8.28,,,,,,,,,,,,,,
1799999995052878966,2027-01-15T07:59:55.052878966Z,0.34,-0.34,0.17,0.17,1.21,0.69,2.07,3.45,1.72,2.93,3.10,5.34,5.34,6.72,,,,,,,,,,,,,,
1799999995064629848,2027-01-15T07:59:55.064629848Z,-1.90,-0.86,-0.17,0.69,3.62,1.55,3.45,4.48,2.24,1.90,3.28,5.00,4.48,6.21,,,,,,,,,,,,,,
1799999995076380729,2027-01-15T07:59:55.076380729Z,-3.28,-0.17,-1.72,0.17,0.17,2.59,3.10,3.28,2.07,1.38,4.31,6.21,5.17,5.00,,,,,,,,,,,,,,
1799999995088131610,2027-01-15T07:59:55.088131610Z,-3.97,-0.17,-2.93,-0.17,-1.38,2.93,2.07,4.14,2.24,1.72,3.97,6.72,5.69,5.34,,,,,,,,,,,,,,
1799999995099882492,2027-01-15T07:59:55.099882492Z,-1.21,-1.03,-2.76,-0.69,2.24,3.10,1.55,3.28,5.34,3.28,3.62,6.55,5.69,5.69,,,,,,,,,,,,,,
1799999995111633373,2027-01-15T07:59:55.111633373Z,1.55,-0.86,-2.41,-0.69,3.10,2.41,1.38,2.76,5.69,3.97,3.28,6.21,4.48,6.55,,,,,,,,,,,,,,
1799999995123384254,2027-01-15T07:59:55.123384254Z,0.00,-1.72,-2.07,-1.55,0.69,3.62,1.90,4.66,3.62,3.97,3.45,4.48,6.55,6.21,,,,,,,,,,,,,,
1799999995135135136,2027-01-15T07:59:55.135135136Z,-0.69,-2.41,-0.34,-1.55,0.34,4.14,1.03,3.62,2.41,3.45,3.79,4.31,7.24,5.00,,,,,,,,,,,,,,
1799999995146886017,2027-01-15T07:59:55.146886017Z,-1.03,-0.86,0.86,0.17,0.17,4.14,0.00,1.55,2.07,2.41,3.79,4.31,4.48,4.83,,,,,,,,,,,,,,
1799999995158636898,2027-01-15T07:59:55.158636898Z,-0.34,-0.86,0.69,1.90,1.55,3.45,0.34,1.55,2.41,2.93,4.48,3.97,3.79,6.21,,,,,,,,,,,,,,
1799999995170387780,2027-01-15T07:59:55.170387780Z,0.69,-1.38,1.03,2.41,0.00,1.03,1.38,1.72,4.66,3.97,4.83,2.76,5.00,5.17,,,,,,,,,,,,,,
1799999995182138661,2027-01-15T07:59:55.182138661Z,-0.17,-0.86,0.52,1.72,-0.17,1.03,1.55,1.90,4.31,4.14,4.31,4.31,4.83,5.52,,,,,,,,,,,,,,
1799999995193889542,2027-01-15T07:59:55.193889542Z,-0.17,0.00,1.55,1.03,0.00,0.86,1.21,2.93,3.10,5.00,3.45,5.00,5.34,6.55,,,,,,,,,,,,,,
1799999995205640424,2027-01-15T07:59:55.205640424Z,-0.86,-1.38,1.90,1.03,0.00,-0.69,1.21,4.14,2.24,5.00,2.93,6.38,6.72,6.72,,,,,,,,,,,,,,
1799999995217391305,2027-01-15T07:59:55.217391305Z,-0.86,-4.31,0.52,0.69,-0.34,-0.86,1.55,3.28,2.07,4.31,4.31,5.52,7.76,7.41,,,,,,,,,,,,,,
1799999995229142186,2027-01-15T07:59:55.229142186Z,0.69,-4.14,-0.34,0.17,0.00,-0.17,1.55,3.79,2.24,3.79,4.83,4.83,6.21,6.72,,,,,,,,,,,,,,
1799999995240893067,2027-01-15T07:59:55.240893067Z,-2.24,-1.55,0.00,0.34,2.24,1.55,1.55,3.28,2.41,3.45,4.14,3.97,5.17,6.38,,,,,,,,,,,,,,
1799999995252643949,2027-01-15T07:59:55.252643949Z,0.17,-1.21,-0.52,-0.52,3.45,1.21,1.90,2.41,2.24,3.97,4.83,5.17,5.34,6.72,,,,,,,,,,,,,,
1799999995264394830,2027-01-15T07:59:55.264394830Z,-0.69,0.69,-0.52,-1.21,1.38,4.48,2.41,4.14,2.07,3.97,5.00,5.52,4.83,6.72,,,,,,,,,,,,,,
1799999995276145711,2027-01-15T07:59:55.276145711Z,-1.72,2.07,-0.34,-0.34,0.34,5.34,2.59,4.14,2.07,4.48,4.31,5.00,4.66,6.03,,,,,,,,,,,,,,
1799999995287896593,2027-01-15T07:59:55.287896593Z,0.69,0.86,1.21,1.03,1.03,1.72,1.72,2.93,0.69,4.14,4.14,2.93,4.48,5.86,,,,,,,,,,,,,,
1799999995299647474,2027-01-15T07:59:55.299647474Z,-0.52,2.59,0.86,1.72,1.03,1.03,1.55,2.24,-0.17,3.97,4.48,3.62,4.31,6.55,,,,,,,,,,,,,,
1799999995311398355,2027-01-15T07:59:55.311398355Z,0.69,3.45,-1.38,0.34,0.69,0.52,2.07,1.90,0.52,3.28,4.66,4.48,4.48,5.52,,,,,,,,,,,,,,
1799999995323149237,2027-01-15T07:59:55.323149237Z,-1.03,1.38,-1.90,0.52,1.38,2.41,2.41,2.76,1.55,3.28,4.48,4.31,4.48,5.17,,,,,,,,,,,,,,
1799999995334900118,2027-01-15T07:59:55.334900118Z,0.86,-0.52,-1.72,0.69,0.86,2.93,2.07,4.66,3.28,4.14,3.28,5.69,5.86,6.21,,,,,,,,,,,,,,
1799999995346650999,2027-01-15T07:59:55.346650999Z,-1.03,-1.03,-1.21,-0.17,0.34,1.90,2.59,4.48,4.14,3.62,2.59,5.86,4.66,6.90,,,,,,,,,,,,,,
1799999995358401881,2027-01-15T07:59:55.358401881Z,-0.69,0.69,1.21,0.34,0.52,0.34,1.90,2.59,4.14,3.10,2.93,4.31,4.31,6.72,,,,,,,,,,,,,,
1799999995370152762,2027-01-15T07:59:55.370152762Z,-0.17,1.21,1.90,0.69,1.90,2.24,2.07,2.41,4.66,3.62,3.45,3.97,5.52,7.07,,,,,,,,,,,,,,
1799999995381903643,2027-01-15T07:59:55.381903643Z,0.00,-0.34,1.55,0.69,0.86,2.07,2.59,3.10,4.48,3.79,4.31,4.83,5.00,7.07,,,,,,,,,,,,,,
1799999995393654525,2027-01-15T07:59:55.393654525Z,-0.69,-0.34,1.72,0.69,0.17,1.38,2.76,3.97,3.62,3.79,4.14,5.69,4.14,7.59,,,,,,,,,,,,,,
1799999995405405406,2027-01-15T07:59:55.405405406Z,-1.21,-0.17,-0.69,0.17,1.03,0.52,3.10,4.48,1.55,4.31,3.28,4.48,2.93,5.34,,,,,,,,,,,,,,
1799999995417156287,2027-01-15T07:59:55.417156287Z,-1.55,-0.34,-1.03,0.17,1.55,0.52,2.59,3.79,1.03,3.97,3.28,4.48,3.62,4.83,,,,,,,,,,,,,,
1799999995428907169,2027-01-15T07:59:55.428907169Z,-3.62,-1.38,-0.86,0.17,0.69,1.55,1.21,3.45,1.90,3.10,5.52,6.38,4.31,5.34,,,,,,,,,,,,,,
1799999995440658050,2027-01-15T07:59:55.440658050Z,-2.07,-1.55,-0.69,0.52,0.86,2.59,1.03,3.28,2.59,3.28,6.03,7.24,7.07,4.83,,,,,,,,,,,,,,
1799999995452408931,2027-01-15T07:59:55.452408931Z,-1.38,0.00,-0.69,0.86,0.69,0.69,2.24,4.14,3.10,4.31,4.66,5.69,7.24,4.31,,,,,,,,,,,,,,
1799999995464159812,2027-01-15T07:59:55.464159812Z,0.00,-0.52,-0.17,1.03,1.72,0.17,2.59,3.97,3.62,4.14,4.14,5.17,6.03,5.52,,,,,,,,,,,,,,
1799999995475910694,2027-01-15T07:59:55.475910694Z,-1.21,-2.93,-0.52,0.69,3.10,4.14,1.38,3.45,3.10,5.00,4.83,5.00,2.76,6.21,,,,,,,,,,,,,,
1799999995487661575,2027-01-15T07:59:55.487661575Z,-1.90,-2.93,-0.86,0.17,2.07,4.31,1.55,4.48,3.45,5.86,4.14,5.17,3.79,6.38,,,,,,,,,,,,,,
1799999995499412456,2027-01-15T07:59:55.499412456Z,-0.34,-2.07,-0.17,-0.52,0.17,1.38,3.97,3.45,3.62,5.00,3.45,4.83,5.17,5.52,,,,,,,,,,,,,,
1799999995511163338,2027-01-15T07:59:55.511163338Z,-2.41,-1.72,-1.38,-0.86,0.52,1.21,3.45,1.72,3.28,4.83,4.14,4.83,6.03,5.17,,,,,,,,,,,,,,
1799999995522914219,2027-01-15T07:59:55.522914219Z,-1.55,1.38,-1.38,1.55,0.86,2.07,1.90,3.10,2.24,4.14,4.31,5.17,6.72,5.17,,,,,,,,,,,,,,
1799999995534665100,2027-01-15T07:59:55.534665100Z,-2.59,0.17,-0.34,0.69,1.21,2.76,1.55,2.93,2.24,3.79,3.79,5.69,4.83,4.66,,,,,,,,,,,,,,
1799999995546415982,2027-01-15T07:59:55.546415982Z,0.86,-2.59,1.03,-0.52,0.00,2.24,0.86,2.41,3.28,3.97,3.79,5.86,4.66,5.52,,,,,,,,,,,,,,
1799999995558166863,2027-01-15T07:59:55.558166863Z,0.52,-1.21,1.03,0.69,-0.69,1.72,1.03,2.76,3.45,3.97,4.14,4.83,5.00,6.55,,,,,,,,,,,,,,
1799999995569917744,2027-01-15T07:59:55.569917744Z,-2.07,0.34,1.90,3.45,0.69,0.86,2.24,3.45,3.62,3.62,3.79,5.17,5.86,5.52,,,,,,,,,,,,,,
1799999995581668626,2027-01-15T07:59:55.581668626Z,-0.52,0.34,1.55,3.45,0.17,1.55,2.41,2.24,3.62,4.31,4.31,5.00,5.86,6.03,,,,,,,,,,,,,,
1799999995593419507,2027-01-15T07:59:55.593419507Z,-1.38,1.55,-0.52,1.03,-0.34,3.10,1.55,1.55,4.14,6.03,4.66,3.97,4.83,6.90,,,,,,,,,,,,,,
1799999995605170388,2027-01-15T07:59:55.605170388Z,-1.72,1.72,0.86,0.52,0.17,3.97,2.07,2.24,3.97,5.86,5.00,4.14,4.14,6.38,,,,,,,,,,,,,,
1799999995616921270,2027-01-15T07:59:55.616921270Z,-0.52,-1.55,2.76,0.86,0.69,3.10,0.86,0.86,4.31,4.48,5.52,4.31,5.17,4.14,,,,,,,,,,,,,,
1799999995628672151,2027-01-15T07:59:55.628672151Z,0.52,-1.55,1.55,0.69,1.03,2.59,-0.17,0.69,5.00,4.31,5.34,4.48,5.52,3.45,,,,,,,,,,,,,,
1799999995640423032,2027-01-15T07:59:55.640423032Z,0.34,-1.03,-0.34,2.41,0.52,1.90,1.03,0.34,4.31,3.97,6.90,3.62,4.83,6.38,,,,,,,,,,,,,,
1799999995652173914,2027-01-15T07:59:55.652173914Z,-0.52,-1.03,-0.86,2.59,-0.34,0.86,0.86,0.52,3.79,3.97,6.72,3.10,4.14,6.03,,,,,,,,,,,,,,
1799999995663924795,2027-01-15T07:59:55.663924795Z,-0.17,-1.21,-1.38,1.03,-0.34,-0.17,1.55,0.69,1.90,3.62,4.48,5.52,5.00,6.21,,,,,,,,,,,,,,
1799999995675675676,2027-01-15T07:59:55.675675676Z,-0.17,-0.86,-1.72,0.00,0.52,0.69,2.41,1.03,1.90,4.14,4.14,5.52,5.69,7.24,,,,,,,,,,,,,,
1799999995687426557,2027-01-15T07:59:55.687426557Z,1.21,0.69,-2.41,-0.69,1.72,2.59,0.86,1.72,3.10,4.83,4.14,4.66,6.03,6.21,,,,,,,,,,,,,,
1799999995699177439,2027-01-15T07:59:55.699177439Z,0.52,0.86,-2.07,0.17,1.72,2.59,1.03,1.90,1.55,4.48,3.97,5.34,6.38,6.03,,,,,,,,,,,,,,
1799999995710928320,2027-01-15T07:59:55.710928320Z,-3.45,-0.34,-0.34,1.21,1.03,3.10,1.72,3.62,1.90,3.28,2.93,5.00,5.17,4.48,,,,,,,,,,,,,,
1799999995722679201,2027-01-15T07:59:55.722679201Z,-3.10,-0.69,0.34,0.52,0.52,2.76,2.93,4.14,2.93,2.76,2.59,6.03,4.31,4.66,,,,,,,,,,,,,,
1799999995734430083,2027-01-15T07:59:55.734430083Z,-1.90,-0.34,0.34,-1.21,0.00,1.03,4.66,3.45,2.76,1.72,3.28,5.52,4.31,4.14,,,,,,,,,,,,,,
1799999995746180964,2027-01-15T07:59:55.746180964Z,-0.86,-1.03,0.34,-1.03,0.17,0.34,4.48,2.76,3.10,2.24,3.97,5.34,3.97,4.83,,,,,,,,,,,,,,
1799999995757931845,2027-01-15T07:59:55.757931845Z,-0.86,-3.79,-1.03,0.17,0.34,0.86,4.48,1.90,3.97,3.62,5.34,5.34,4.48,5.69,,,,,,,,,,,,,,
1799999995769682727,2027-01-15T07:59:55.769682727Z,1.55,-2.93,-1.03,0.34,0.52,1.21,3.97,1.72,4.31,4.31,4.66,5.00,4.48,5.52,,,,,,,,,,,,,,
1799999995781433608,2027-01-15T07:59:55.781433608Z,-1.03,-0.69,0.86,0.86,0.00,1.72,3.79,1.55,3.28,2.59,3.62,4.31,6.55,6.21,,,,,,,,,,,,,,
1799999995793184489,2027-01-15T07:59:55.793184489Z,-2.59,-0.34,-0.52,1.21,-0.69,1.38,4.31,1.72,1.90,2.07,2.93,4.48,7.41,5.17,,,,,,,,,,,,,,
1799999995804935371,2027-01-15T07:59:55.804935371Z,0.52,-1.21,-1.03,2.07,1.21,0.17,3.62,2.07,2.24,4.14,3.79,3.79,6.72,5.17,,,,,,,,,,,,,,
1799999995816686252,2027-01-15T07:59:55.816686252Z,-0.17,-1.38,-0.69,0.69,1.72,0.52,3.62,3.45,3.62,5.52,3.79,4.83,6.55,6.03,,,,,,,,,,,,,,
1799999995828437133,2027-01-15T07:59:55.828437133Z,-1.03,0.86,-1.03,-0.86,2.41,0.34,2.76,2.93,4.31,4.14,4.66,3.79,6.38,6.55,,,,,,,,,,,,,,
1799999995840188015,2027-01-15T07:59:55.840188015Z,1.03,1.38,-1.03,-0.34,0.69,-1.55,1.90,2.07,3.10,3.62,4.83,3.10,5.34,6.55,,,,,,,,,,,,,,
1799999995851938896,2027-01-15T07:59:55.851938896Z,1.55,0.52,-0.86,2.41,-1.03,0.00,1.90,3.10,3.45,3.28,4.31,4.66,3.79,7.24,,,,,,,,,,,,,,
1799999995863689777,2027-01-15T07:59:55.863689777Z,-0.17,0.34,-1.90,2.76,0.17,1.03,2.07,3.45,4.66,3.28,4.48,5.00,4.14,6.72,,,,,,,,,,,,,,
1799999995875440659,2027-01-15T07:59:55.875440659Z,0.34,1.21,-0.69,2.07,1.38,2.76,3.28,2.24,4.48,4.14,4.31,3.97,4.48,5.34,,,,,,,,,,,,,,
1799999995887191540,2027-01-15T07:59:55.887191540Z,1.38,1.03,0.86,1.55,1.21,2.24,3.79,3.28,3.10,4.66,3.62,4.66,4.48,5.86,,,,,,,,,,,,,,
1799999995898942421,2027-01-15T07:59:55.898942421Z,-0.86,0.69,-0.69,-1.21,1.72,0.69,3.62,2.41,3.62,3.28,2.59,5.17,5.52,6.55,,,,,,,,,,,,,,
1799999995910693302,2027-01-15T07:59:55.910693302Z,0.69,0.52,-0.69,-1.90,0.86,0.00,4.14,2.07,3.45,2.93,2.24,5.17,5.34,6.55,,,,,,,,,,,,,,
1799999995922444184,2027-01-15T07:59:55.922444184Z,0.86,0.34,-0.17,-0.34,0.52,1.55,3.10,4.31,3.79,3.28,2.59,5.69,5.34,5.52,,,,,,,,,,,,,,
1799999995934195065,2027-01-15T07:59:55.934195065Z,0.69,1.55,0.17,0.34,1.21,2.24,2.07,4.31,4.83,2.93,3.62,5.69,5.52,5.34,,,,,,,,,,,,,,
1799999995945945946,2027-01-15T07:59:55.945945946Z,0.00,2.41,1.55,2.07,1.72,3.45,1.90,1.90,4.48,3.79,4.66,4.48,5.52,5.86,,,,,,,,,,,,,,
1799999995957696828,2027-01-15T07:59:55.957696828Z,1.55,2.41,1.03,1.90,1.90,4.48,1.90,1.03,4.31,3.79,4.66,4.31,6.03,7.24,,,,,,,,,,,,,,
1799999995969447709,2027-01-15T07:59:55.969447709Z,-2.24,-0.17,-0.17,1.72,1.03,1.38,0.69,2.41,3.97,4.14,2.93,4.48,5.86,6.03,,,,,,,,,,,,,,
1799999995981198590,2027-01-15T07:59:55.981198590Z,0.34,-0.69,-1.03,1.55,0.17,-1.55,0.69,2.59,3.79,4.14,2.93,4.31,8.28,5.86,,,,,,,,,,,,,,
1799999995992949472,2027-01-15T07:59:55.992949472Z,1.72,-2.59,0.00,0.34,-1.03,1.03,0.52,2.24,2.07,3.97,5.00,3.62,11.21,6.38,,,,,,,,,,,,,,
1799999996004700353,2027-01-15T07:59:56.004700353Z,0.69,-1.03,1.55,0.17,-1.72,2.24,0.34,2.24,2.07,3.79,5.00,4.14,7.93,7.93,,,,,,,,,,,,,,
1799999996016451234,2027-01-15T07:59:56.016451234Z,-2.41,-2.59,0.00,-0.17,-0.52,3.45,1.72,2.93,3.28,4.14,3.45,5.17,3.10,8.62,,,,,,,,,,,,,,
1799999996028202116,2027-01-15T07:59:56.028202116Z,0.34,-4.31,-0.52,0.34,1.21,3.28,1.72,3.28,4.31,4.48,3.45,5.34,3.97,9.14,,,,,,,,,,,,,,
1799999996039952997,2027-01-15T07:59:56.039952997Z,-0.86,-5.86,-1.03,0.69,0.34,1.38,1.90,5.00,2.41,4.66,4.31,4.14,5.69,7.24,,,,,,,,,,,,,,
1799999996051703878,2027-01-15T07:59:56.051703878Z,-4.66,-5.34,-1.55,-0.17,0.86,0.00,1.38,5.17,2.07,4.31,5.17,4.66,6.21,6.55,,,,,,,,,,,,,,
1799999996063454760,2027-01-15T07:59:56.063454760Z,-5.17,-1.90,-1.90,-1.21,2.41,-0.17,0.52,3.79,1.55,3.28,3.28,5.86,5.17,6.03,,,,,,,,,,,,,,
1799999996075205641,2027-01-15T07:59:56.075205641Z,-3.62,-1.72,-2.07,-1.38,1.55,0.52,0.17,5.52,1.90,3.10,2.59,6.03,5.34,5.69,,,,,,,,,,,,,,
1799999996086956522,2027-01-15T07:59:56.086956522Z,-6.21,-3.97,-1.38,-1.03,0.52,1.03,0.69,5.52,2.76,3.97,5.00,5.34,5.69,6.38,,,,,,,,,,,,,,
1799999996098707404,2027-01-15T07:59:56.098707404Z,-4.48,-3.62,-0.86,-0.86,0.69,1.72,1.38,3.28,3.97,4.14,6.38,5.00,5.17,7.07,,,,,,,,,,,,,,
1799999996110458285,2027-01-15T07:59:56.110458285Z,-2.59,-1.72,-1.03,-1.90,2.24,3.62,2.93,2.59,4.14,5.52,4.66,6.03,3.79,6.90,,,,,,,,,,,,,,
1799999996122209166,2027-01-15T07:59:56.122209166Z,-2.41,0.52,-0.86,-0.52,2.76,3.45,1.38,3.45,3.79,5.69,4.14,5.17,5.52,6.03,,,,,,,,,,,,,,
1799999996133960048,2027-01-15T07:59:56.133960048Z,0.17,-0.52,-0.86,0.69,2.93,2.41,0.69,3.45,3.79,6.38,5.17,4.83,5.86,5.52,,,,,,,,,,,,,,
1799999996145710929,2027-01-15T07:59:56.145710929Z,-0.17,0.86,-0.17,1.72,1.72,-0.52,1.55,3.28,2.76,5.17,5.17,4.48,5.34,7.07,,,,,,,,,,,,,,
1799999996157461810,2027-01-15T07:59:56.157461810Z,0.52,2.59,-0.86,1.55,2.41,-1.38,1.90,3.28,2.59,4.31,5.00,5.69,4.83,7.41,,,,,,,,,,,,,,
1799999996169212691,2027-01-15T07:59:56.169212691Z,2.07,4.31,-0.34,2.24,0.86,-1.38,1.72,2.07,3.10,2.41,5.52,6.38,3.97,7.07,,,,,,,,,,,,,,
1799999996180963573,2027-01-15T07:59:56.180963573Z,2.93,3.62,1.55,2.07,0.52,0.52,1.21,2.59,2.59,2.41,5.52,5.52,4.48,7.24,,,,,,,,,,,,,,
1799999996192714454,2027-01-15T07:59:56.192714454Z,1.03,2.93,2.76,0.00,1.38,3.79,1.38,2.76,2.76,3.62,3.79,5.69,3.79,6.38,,,,,,,,,,,,,,
1799999996204465335,2027-01-15T07:59:56.204465335Z,,1.21,1.55,-0.17,2.76,2.59,2.07,2.41,2.59,3.45,3.79,6.38,4.14,6.55,,,,,,,,,,,,,,
1799999996216216217,2027-01-15T07:59:56.216216217Z,0.86,-0.69,0.69,2.41,1.03,0.17,2.24,1.72,2.76,2.93,4.31,5.17,4.31,4.83,,,,,,,,,,,,,,
1799999996227967098,2027-01-15T07:59:56.227967098Z,-3.10,-2.07,0.00,2.59,0.34,1.03,2.59,1.72,2.24,2.93,4.66,4.14,5.17,3.45,,,,,,,,,,,,,,
1799999996239717979,2027-01-15T07:59:56.239717979Z,0.34,-0.86,0.34,1.21,-0.34,2.24,4.66,2.07,1.38,2.59,3.97,6.03,5.00,5.34,,,,,,,,,,,,,,
1799999996251468861,2027-01-15T07:59:56.251468861Z,-0.69,-0.17,0.69,1.38,-0.17,1.03,3.45,3.28,1.90,2.59,3.45,6.21,4.14,6.21,,,,,,,,,,,,,,
1799999996263219742,2027-01-15T07:59:56.263219742Z,0.17,-0.86,1.90,1.21,1.38,2.24,1.55,3.28,3.28,3.28,3.45,4.83,4.31,5.86,,,,,,,,,,,,,,
1799999996274970623,2027-01-15T07:59:56.274970623Z,0.17,-0.17,2.59,0.86,2.93,2.93,0.69,2.76,2.59,3.97,4.48,4.31,5.00,6.03,,,,,,,,,,,,,,
1799999996286721505,2027-01-15T07:59:56.286721505Z,-0.34,1.21,2.41,2.24,2.59,4.31,0.86,2.07,1.90,4.14,5.69,5.52,5.00,6.90,,,,,,,,,,,,,,
1799999996298472386,2027-01-15T07:59:56.298472386Z,-0.52,1.21,1.21,1.55,2.07,2.41,1.38,2.41,2.24,3.79,6.21,5.69,5.52,6.38,,,,,,,,,,,,,,
1799999996310223267,2027-01-15T07:59:56.310223267Z,3.10,1.72,0.69,1.21,3.10,0.00,0.69,0.69,2.59,4.31,5.52,3.62,6.72,4.83,,,,,,,,,,,,,,
1799999996321974149,2027-01-15T07:59:56.321974149Z,2.93,1.55,-0.17,1.38,3.10,0.86,1.21,0.69,2.76,3.79,4.14,3.62,6.55,6.21,,,,,,,,,,,,,,
1799999996333725030,2027-01-15T07:59:56.333725030Z,1.90,4.48,-0.34,2.41,2.76,0.86,2.41,0.86,2.59,2.07,4.48,5.69,5.17,6.72,,,,,,,,,,,,,,
1799999996345475911,2027-01-15T07:59:56.345475911Z,3.97,5.00,-0.17,2.07,2.41,0.34,2.41,1.72,2.59,2.24,4.83,4.83,5.52,5.34,,,,,,,,,,,,,,
1799999996357226793,2027-01-15T07:59:56.357226793Z,2.41,2.59,-1.21,3.97,1.38,0.86,3.28,0.00,3.79,3.10,4.31,3.10,6.55,5.00,,,,,,,,,,,,,,
1799999996368977674,2027-01-15T07:59:56.368977674Z,1.21,-0.34,-1.38,3.62,1.03,0.52,2.24,0.34,4.31,3.28,4.66,3.62,6.90,5.34,,,,,,,,,,,,,,
1799999996380728555,2027-01-15T07:59:56.380728555Z,-0.17,0.00,0.69,1.38,1.03,0.69,0.69,2.76,3.10,3.10,5.69,5.17,6.55,6.03,,,,,,,,,,,,,,
1799999996392479436,2027-01-15T07:59:56.392479436Z,0.17,0.00,-0.69,1.38,0.17,0.86,0.34,3.45,2.93,2.76,5.17,5.86,6.03,6.72,,,,,,,,,,,,,,
1799999996404230318,2027-01-15T07:59:56.404230318Z,-1.03,-1.38,-1.03,1.21,-0.69,3.28,1.38,1.90,3.28,4.14,5.52,4.66,4.14,4.48,,,,,,,,,,,,,,
1799999996415981199,2027-01-15T07:59:56.415981199Z,-0.69,-1.21,0.69,1.38,-0.17,3.97,1.90,1.90,2.76,4.66,6.03,4.14,3.79,3.62,,,,,,,,,,,,,,
1799999996427732080,2027-01-15T07:59:56.427732080Z,-2.24,-2.07,-1.55,1.72,-0.34,1.03,1.38,3.97,3.45,3.45,3.79,5.34,3.97,6.38,,,,,,,,,,,,,,
1799999996439482962,2027-01-15T07:59:56.439482962Z,-3.45,-2.41,-2.07,0.69,0.52,1.03,1.38,4.48,4.66,3.28,2.93,6.03,4.31,6.21,,,,,,,,,,,,,,
1799999996451233843,2027-01-15T07:59:56.451233843Z,-3.79,-3.10,-0.17,0.69,1.21,0.52,1.38,3.62,2.93,3.62,2.76,5.17,4.83,4.48,,,,,,,,,,,,,,
1799999996462984724,2027-01-15T07:59:56.462984724Z,-5.17,-5.34,0.69,0.69,1.03,0.69,1.90,3.79,3.10,3.62,3.28,4.83,6.21,5.34,,,,,,,,,,,,,,
1799999996474735606,2027-01-15T07:59:56.474735606Z,-6.55,-6.21,0.17,-2.93,0.69,2.07,3.28,3.62,5.52,3.45,3.62,5.17,7.07,6.38,,,,,,,,,,,,,,
1799999996486486487,2027-01-15T07:59:56.486486487Z,-4.66,-5.69,-0.34,-3.28,3.10,3.28,3.10,3.28,4.83,3.62,3.10,4.31,6.21,6.03,,,,,,,,,,,,,,
1799999996498237368,2027-01-15T07:59:56.498237368Z,-7.59,-4.14,-0.86,-2.24,2.93,4.48,5.00,3.45,2.59,3.97,3.10,3.10,5.17,5.34,,,,,,,,,,,,,,
1799999996509988250,2027-01-15T07:59:56.509988250Z,-6.72,-4.31,-0.52,-3.97,2.24,4.14,5.00,4.48,2.59,3.97,3.28,2.07,4.83,5.00,,,,,,,,,,,,,,
1799999996521739131,2027-01-15T07:59:56.521739131Z,-5.17,-5.00,-1.72,-3.45,-0.34,3.62,2.24,4.31,2.93,4.31,3.97,2.59,3.97,4.14,,,,,,,,,,,,,,
1799999996533490012,2027-01-15T07:59:56.533490012Z,-6.72,-5.86,-2.07,-2.76,0.69,3.28,1.21,6.03,3.97,5.00,4.14,3.45,4.31,4.66,,,,,,,,,,,,,,
1799999996545240894,2027-01-15T07:59:56.545240894Z,-0.52,-1.90,-1.03,-0.86,1.03,2.93,3.28,6.38,5.69,5.86,2.07,4.66,5.52,5.69,,,,,,,,,,,,,,
1799999996556991775,2027-01-15T07:59:56.556991775Z,-2.07,-1.03,-0.52,-0.52,1.03,1.90,3.45,4.31,4.48,5.00,1.55,4.66,5.69,5.69,,,,,,,,,,,,,,
1799999996568742656,2027-01-15T07:59:56.568742656Z,-2.41,-0.17,0.69,0.17,1.21,0.69,2.07,3.45,2.07,3.97,3.45,5.86,6.38,5.86,,,,,,,,,,,,,,
1799999996580493538,2027-01-15T07:59:56.580493538Z,-0.69,-0.86,0.52,0.17,0.52,0.86,2.07,3.62,1.90,4.14,4.83,7.07,6.72,5.86,,,,,,,,,,,,,,
1799999996592244419,2027-01-15T07:59:56.592244419Z,0.52,-2.07,0.69,0.00,0.17,0.34,1.21,2.24,4.66,4.66,5.69,5.86,6.72,6.55,,,,,,,,,,,,,,
1799999996603995300,2027-01-15T07:59:56.603995300Z,0.86,-1.72,1.55,0.17,1.03,1.21,1.38,1.55,5.69,4.66,6.03,5.17,7.24,6.03,,,,,,,,,,,,,,
1799999996615746181,2027-01-15T07:59:56.615746181Z,-0.52,-3.10,1.72,0.00,1.38,3.62,0.86,2.41,3.97,4.31,5.00,5.17,6.55,6.55,,,,,,,,,,,,,,
1799999996627497063,2027-01-15T07:59:56.627497063Z,1.55,-1.90,0.69,-0.34,0.17,1.21,0.52,2.07,3.28,4.31,5.17,6.21,6.38,7.41,,,,,,,,,,,,,,
1799999996639247944,2027-01-15T07:59:56.639247944Z,0.00,2.07,1.03,1.03,-0.17,-2.24,0.34,2.93,3.62,3.10,5.34,5.69,4.31,7.07,,,,,,,,,,,,,,
1799999996650998825,2027-01-15T07:59:56.650998825Z,0.69,2.76,1.55,1.55,0.34,-1.72,0.86,3.45,3.10,3.45,5.00,6.03,4.31,6.38,,,,,,,,,,,,,,
1799999996662749707,2027-01-15T07:59:56.662749707Z,1.90,2.93,1.21,1.72,-0.34,0.52,3.45,2.41,1.38,4.31,5.00,5.17,5.17,7.07,,,,,,,,,,,,,,
1799999996674500588,2027-01-15T07:59:56.674500588Z,1.90,3.62,1.72,2.24,-1.21,2.41,2.24,1.72,1.21,3.97,4.31,4.48,5.69,7.41,,,,,,,,,,,,,,
1799999996686251469,2027-01-15T07:59:56.686251469Z,8.10,3.62,1.90,1.38,-0.69,4.14,2.93,0.00,3.79,2.59,4.31,2.59,5.00,6.21,,,,,,,,,,,,,,
1799999996698002351,2027-01-15T07:59:56.698002351Z,6.72,4.83,1.38,2.07,0.00,3.10,3.62,-0.34,5.17,1.72,5.34,3.79,5.00,5.69,,,,,,,,,,,,,,
1799999996709753232,2027-01-15T07:59:56.709753232Z,5.69,3.97,1.21,3.62,1.38,1.21,3.79,-1.38,4.14,2.76,4.48,6.90,4.83,5.69,,,,,,,,,,,,,,
1799999996721504113,2027-01-15T07:59:56.721504113Z,3.97,2.59,1.21,3.28,0.52,1.55,1.38,-0.69,2.24,3.10,3.28,7.07,4.83,5.34,,,,,,,,,,,,,,
1799999996733254995,2027-01-15T07:59:56.733254995Z,-0.69,1.90,1.55,1.03,1.03,3.28,0.00,0.69,0.17,3.45,4.66,6.03,5.69,4.48,,,,,,,,,,,,,,
1799999996745005876,2027-01-15T07:59:56.745005876Z,0.52,0.69,0.69,2.07,1.72,2.59,0.69,2.24,2.07,3.79,5.17,5.52,5.00,3.97,,,,,,,,,,,,,,
1799999996756756757,2027-01-15T07:59:56.756756757Z,-0.17,1.72,-0.34,2.07,2.41,1.38,0.86,2.93,3.28,4.48,3.28,3.45,3.45,4.48,,,,,,,,,,,,,,
1799999996768507639,2027-01-15T07:59:56.768507639Z,0.86,1.55,-0.34,1.21,1.38,1.21,1.21,2.93,2.41,5.34,3.45,4.48,3.97,5.86,,,,,,,,,,,,,,
1799999996780258520,2027-01-15T07:59:56.780258520Z,-2.59,-1.72,-1.55,1.03,1.90,1.03,1.03,2.24,2.59,3.97,5.34,5.34,4.66,7.59,,,,,,,,,,,,,,
1799999996792009401,2027-01-15T07:59:56.792009401Z,0.86,-1.55,-1.38,0.86,2.41,1.38,0.86,1.55,2.41,3.62,6.38,5.00,5.17,7.07,,,,,,,,,,,,,,
1799999996803760283,2027-01-15T07:59:56.803760283Z,-1.38,0.86,-1.55,1.03,1.55,2.07,0.34,0.69,4.83,2.93,5.00,4.48,4.31,7.07,,,,,,,,,,,,,,
1799999996815511164,2027-01-15T07:59:56.815511164Z,-1.72,0.86,-2.41,1.03,1.21,1.90,1.55,1.38,4.83,2.93,4.14,4.31,4.48,7.76,,,,,,,,,,,,,,
1799999996827262045,2027-01-15T07:59:56.827262045Z,1.21,0.34,-1.55,-1.21,0.34,0.34,2.93,3.62,2.59,3.79,3.97,4.48,5.52,6.55,,,,,,,,,,,,,,
1799999996839012926,2027-01-15T07:59:56.839012926Z,-2.41,-0.17,-1.55,-0.86,0.69,0.34,3.28,4.66,3.45,3.62,3.45,6.03,5.00,6.03,,,,,,,,,,,,,,
1799999996850763808,2027-01-15T07:59:56.850763808Z,-0.34,-2.59,-2.07,0.34,0.00,2.24,3.79,5.34,5.34,3.28,3.62,6.03,3.45,5.00,,,,,,,,,,,,,,
1799999996862514689,2027-01-15T07:59:56.862514689Z,-3.79,-2.76,-1.21,0.34,-0.69,3.97,3.79,4.66,5.86,3.45,4.31,6.55,3.28,4.31,,,,,,,,,,,,,,
1799999996874265570,2027-01-15T07:59:56.874265570Z,-5.34,-2.24,0.69,-0.69,-0.17,4.48,2.24,5.86,3.62,2.41,3.45,5.17,4.31,5.34,,,,,,,,,,,,,,
1799999996886016452,2027-01-15T07:59:56.886016452Z,-2.41,-1.03,0.34,-1.38,1.90,3.28,1.55,5.52,2.59,2.07,3.45,4.83,5.17,6.38,,,,,,,,,,,,,,
1799999996897767333,2027-01-15T07:59:56.897767333Z,-4.14,-2.59,-0.17,-2.24,1.90,0.00,1.72,3.10,1.72,3.45,3.45,5.52,6.38,6.38,,,,,,,,,,,,,,
1799999996909518214,2027-01-15T07:59:56.909518214Z,-5.86,-3.97,-0.52,-1.38,1.03,-0.17,2.41,2.93,2.24,4.31,3.10,5.86,6.03,5.86,,,,,,,,,,,,,,
1799999996921269096,2027-01-15T07:59:56.921269096Z,-0.17,-2.07,-1.03,-0.34,-0.17,2.07,3.28,3.10,2.76,5.69,4.66,4.14,5.69,5.17,,,,,,,,,,,,,,
1799999996933019977,2027-01-15T07:59:56.933019977Z,-2.24,-0.17,-1.21,-0.86,0.69,2.76,3.45,4.48,2.76,5.34,5.17,4.31,5.69,5.17,,,,,,,,,,,,,,
1799999996944770858,2027-01-15T07:59:56.944770858Z,-2.59,-3.10,-1.72,-0.69,0.34,1.55,2.76,4.14,4.14,4.48,3.97,4.66,4.48,6.55,,,,,,,,,,,,,,
1799999996956521740,2027-01-15T07:59:56.956521740Z,-4.48,-3.62,-1.21,0.52,0.52,2.93,1.55,3.97,2.24,3.62,3.62,4.48,4.31,7.24,,,,,,,,,,,,,,
1799999996968272621,2027-01-15T07:59:56.968272621Z,-3.45,-2.41,-1.21,-0.34,0.52,1.90,2.41,4.83,0.00,3.97,3.97,3.97,5.69,6.72,,,,,,,,,,,,,,
1799999996980023502,2027-01-15T07:59:56.980023502Z,-5.00,-2.41,0.00,-0.17,0.69,0.52,2.76,4.31,0.34,4.48,3.62,4.66,5.69,6.90,,,,,,,,,,,,,,
1799999996991774384,2027-01-15T07:59:56.991774384Z,-6.72,-3.79,-0.86,0.00,0.34,-0.34,3.10,2.59,1.03,3.97,3.62,5.69,4.66,6.90,,,,,,,,,,,,,,
1799999997003525265,2027-01-15T07:59:57.003525265Z,-7.41,-3.79,-1.21,-0.17,1.21,-0.34,3.45,2.76,2.93,3.79,3.62,5.86,4.83,6.72,,,,,,,,,,,,,,
1799999997015276146,2027-01-15T07:59:57.015276146Z,-6.72,-2.93,-0.52,-0.17,3.62,1.55,2.76,4.48,4.48,5.00,2.76,3.97,4.14,6.21,,,,,,,,,,,,,,
1799999997027027028,2027-01-15T07:59:57.027027028Z,-6.55,-2.93,-0.52,-0.52,2.93,1.55,2.41,5.17,3.97,3.79,2.76,4.14,3.97,6.03,,,,,,,,,,,,,,
1799999997038777909,2027-01-15T07:59:57.038777909Z,-5.86,-3.97,0.86,-1.55,1.55,2.59,3.28,2.93,4.83,2.93,3.28,5.69,5.86,6.03,,,,,,,,,,,,,,
1799999997050528790,2027-01-15T07:59:57.050528790Z,-4.14,-3.79,1.21,-2.93,2.07,3.62,3.97,2.24,4.14,3.28,3.97,5.86,6.03,5.69,,,,,,,,,,,,,,
1799999997062279671,2027-01-15T07:59:57.062279671Z,-2.59,-2.76,-1.38,-1.03,3.10,1.72,5.34,2.59,2.93,3.28,5.00,5.17,5.86,6.90,,,,,,,,,,,,,,
1799999997074030553,2027-01-15T07:59:57.074030553Z,-2.41,-1.38,-1.72,0.00,3.28,2.07,6.21,2.76,3.62,3.10,4.48,4.83,6.21,7.59,,,,,,,,,,,,,,
1799999997085781434,2027-01-15T07:59:57.085781434Z,1.03,0.69,-0.17,0.86,1.03,4.31,3.79,3.10,3.10,3.62,3.97,5.52,6.21,6.72,,,,,,,,,,,,,,
1799999997097532315,2027-01-15T07:59:57.097532315Z,0.34,0.69,0.52,-0.17,-0.34,4.48,2.24,2.93,3.28,3.97,4.66,5.69,5.86,6.21,,,,,,,,,,,,,,
1799999997109283197,2027-01-15T07:59:57.109283197Z,0.69,1.38,1.90,1.03,1.72,1.72,1.55,2.24,2.59,3.97,5.00,4.66,6.72,7.93,,,,,,,,,,,,,,
1799999997121034078,2027-01-15T07:59:57.121034078Z,2.24,1.90,1.90,1.90,1.55,0.86,0.69,1.55,2.24,3.45,4.48,3.97,6.03,7.07,,,,,,,,,,,,,,
1799999997132784959,2027-01-15T07:59:57.132784959Z,2.41,3.10,2.93,3.62,0.69,-1.21,-0.34,1.03,2.41,4.48,3.45,3.62,5.34,4.14,,,,,,,,,,,,,,
1799999997144535841,2027-01-15T07:59:57.144535841Z,4.48,2.93,2.76,3.10,0.86,-1.03,0.34,1.72,2.24,3.97,3.28,4.14,6.03,5.34,,,,,,,,,,,,,,
1799999997156286722,2027-01-15T07:59:57.156286722Z,7.24,3.97,1.21,2.93,0.52,1.55,-0.86,1.90,0.69,3.45,4.66,3.79,6.21,7.07,,,,,,,,,,,,,,
1799999997168037603,2027-01-15T07:59:57.168037603Z,7.24,4.48,0.86,2.93,1.72,2.24,-1.03,1.21,0.86,3.79,3.97,4.14,5.17,6.72,,,,,,,,,,,,,,
1799999997179788485,2027-01-15T07:59:57.179788485Z,7.24,6.03,1.72,4.31,2.07,3.10,0.34,-1.21,1.21,4.31,2.41,5.34,5.00,6.03,,,,,,,,,,,,,,
1799999997191539366,2027-01-15T07:59:57.191539366Z,7.07,6.03,0.86,4.48,1.03,2.93,1.38,-1.21,2.93,3.62,2.59,5.17,5.86,6.38,,,,,,,,,,,,,,
1799999997203290247,2027-01-15T07:59:57.203290247Z,4.14,3.97,1.03,3.28,0.69,2.59,2.07,0.52,3.45,3.79,2.93,5.69,6.03,6.21,,,,,,,,,,,,,,
1799999997215041129,2027-01-15T07:59:57.215041129Z,1.55,1.72,-0.86,1.55,0.69,3.10,2.41,1.03,3.62,3.62,3.10,6.21,6.21,5.17,,,,,,,,,,,,,,
1799999997226792010,2027-01-15T07:59:57.226792010Z,1.90,0.00,-2.59,0.86,1.38,2.59,2.59,0.86,6.03,3.62,4.31,5.00,6.38,5.17,,,,,,,,,,,,,,
1799999997238542891,2027-01-15T07:59:57.238542891Z,1.03,1.03,-1.90,1.90,1.72,2.24,1.38,1.55,5.34,2.24,5.17,4.48,5.86,6.55,,,,,,,,,,,,,,
1799999997250293773,2027-01-15T07:59:57.250293773Z,0.86,-0.17,-0.86,1.38,1.03,2.59,1.55,2.24,3.62,1.55,5.69,5.17,4.83,7.07,,,,,,,,,,,,,,
1799999997262044654,2027-01-15T07:59:57.262044654Z,-4.31,-2.07,-1.03,1.03,-0.34,2.93,1.55,1.38,2.93,3.10,6.21,5.17,6.21,5.34,,,,,,,,,,,,,,
1799999997273795535,2027-01-15T07:59:57.273795535Z,-2.24,-2.07,-0.17,2.07,-1.03,2.76,2.24,0.52,2.24,4.14,5.86,5.00,6.21,4.83,,,,,,,,,,,,,,
1799999997285546416,2027-01-15T07:59:57.285546416Z,-3.62,-1.38,0.00,0.69,-0.86,3.10,3.62,0.69,2.41,5.00,3.79,4.48,4.48,4.83,,,,,,,,,,,,,,
1799999997297297298,2027-01-15T07:59:57.297297298Z,-0.52,-1.03,0.00,0.52,-1.21,1.21,2.93,0.17,3.45,5.86,3.79,4.14,4.83,5.52,,,,,,,,,,,,,,
1799999997309048179,2027-01-15T07:59:57.309048179Z,0.34,-2.93,-0.17,-1.03,-1.21,0.86,2.41,3.10,3.45,5.17,3.28,3.45,7.07,5.17,,,,,,,,,,,,,,
1799999997320799060,2027-01-15T07:59:57.320799060Z,-1.21,-1.55,-0.52,0.52,-1.03,1.38,1.38,5.00,2.59,4.31,2.93,4.48,6.38,5.52,,,,,,,,,,,,,,
1799999997332549942,2027-01-15T07:59:57.332549942Z,-1.90,-0.17,-0.69,0.86,0.00,1.21,1.03,3.79,3.10,3.97,4.48,4.48,4.31,6.21,,,,,,,,,,,,,,
1799999997344300823,2027-01-15T07:59:57.344300823Z,-3.79,-1.55,-1.21,0.69,0.52,0.86,2.07,2.93,3.62,3.97,5.52,3.97,3.97,4.83,,,,,,,,,,,,,,
1799999997356051704,2027-01-15T07:59:57.356051704Z,-4.31,-1.90,-1.38,1.38,-1.55,0.86,3.62,4.14,3.97,4.31,4.66,4.31,3.45,3.62,,,,,,,,,,,,,,
1799999997367802586,2027-01-15T07:59:57.367802586Z,-3.62,-2.41,-0.86,1.55,-2.07,1.03,3.45,5.86,3.79,3.79,4.66,4.14,3.28,4.14,,,,,,,,,,,,,,
1799999997379553467,2027-01-15T07:59:57.379553467Z,-4.83,-1.72,-0.69,-0.69,0.17,2.24,3.79,6.90,3.28,3.45,4.66,4.14,3.97,7.07,,,,,,,,,,,,,,
1799999997391304348,2027-01-15T07:59:57.391304348Z,-5.69,-2.76,-0.52,-1.03,0.86,1.03,2.59,5.86,3.28,5.00,4.83,4.66,4.31,7.07,,,,,,,,,,,,,,
1799999997403055230,2027-01-15T07:59:57.403055230Z,-3.79,-3.28,0.34,0.00,0.52,1.03,2.24,4.31,1.90,5.17,5.00,5.52,4.48,5.17,,,,,,,,,,,,,,
1799999997414806111,2027-01-15T07:59:57.414806111Z,-5.17,-3.10,0.52,-0.52,0.52,1.21,2.59,4.48,2.59,4.83,5.17,5.34,4.31,5.52,,,,,,,,,,,,,,
1799999997426556992,2027-01-15T07:59:57.426556992Z,-5.17,-2.93,0.52,-1.72,0.52,-0.86,2.93,5.86,3.45,5.17,4.31,5.52,5.00,6.38,,,,,,,,,,,,,,
1799999997438307874,2027-01-15T07:59:57.438307874Z,-4.48,-2.24,-1.21,-2.41,1.03,1.21,3.10,5.52,2.76,5.69,3.79,5.00,5.00,6.03,,,,,,,,,,,,,,
1799999997450058755,2027-01-15T07:59:57.450058755Z,-2.76,-1.90,-1.38,-1.90,1.90,3.10,3.45,3.97,2.59,5.86,4.48,3.97,5.17,4.66,,,,,,,,,,,,,,
1799999997461809636,2027-01-15T07:59:57.461809636Z,-0.34,-2.59,-0.69,-1.55,1.90,1.90,1.90,3.62,2.76,6.03,4.83,4.14,5.00,4.31,,,,,,,,,,,,,,
1799999997473560518,2027-01-15T07:59:57.473560518Z,-1.72,-1.55,-0.34,-1.38,1.90,0.34,1.38,3.28,5.17,4.31,4.83,4.83,4.66,6.03,,,,,,,,,,,,,,
1799999997485311399,2027-01-15T07:59:57.485311399Z,0.52,-1.90,-0.69,-0.69,1.55,0.52,2.59,3.79,4.48,3.45,4.14,4.83,5.00,6.38,,,,,,,,,,,,,,
1799999997497062280,2027-01-15T07:59:57.497062280Z,-0.69,-2.41,0.17,0.34,0.34,1.03,2.24,3.62,2.07,3.10,5.17,4.66,5.17,6.03,,,,,,,,,,,,,,
1799999997508813161,2027-01-15T07:59:57.508813161Z,0.34,-1.90,0.34,0.17,0.34,2.07,1.03,3.45,2.24,2.76,5.52,5.17,4.48,5.52,,,,,,,,,,,,,,
1799999997520564043,2027-01-15T07:59:57.520564043Z,-0.52,-0.17,1.21,1.03,1.38,3.28,0.52,1.90,3.10,3.97,5.17,5.17,4.31,4.48,,,,,,,,,,,,,,
1799999997532314924,2027-01-15T07:59:57.532314924Z,-0.69,0.69,0.52,1.72,1.38,1.72,0.17,2.93,4.31,5.17,4.31,4.48,5.34,4.83,,,,,,,,,,,,,,
1799999997544065805,2027-01-15T07:59:57.544065805Z,1.38,1.72,0.69,1.55,3.62,0.86,2.07,1.55,5.00,5.17,2.93,4.83,6.72,5.34,,,,,,,,,,,,,,
1799999997555816687,2027-01-15T07:59:57.555816687Z,3.79,2.24,1.03,3.10,5.00,1.55,2.76,0.86,3.62,4.31,2.24,5.69,7.07,5.17,,,,,,,,,,,,,,
1799999997567567568,2027-01-15T07:59:57.567567568Z,4.14,2.24,1.38,3.45,3.10,2.93,1.03,0.86,2.59,4.14,3.45,5.17,6.90,7.07,,,,,,,,,,,,,,
1799999997579318449,2027-01-15T07:59:57.579318449Z,3.10,4.14,0.69,2.76,2.76,2.59,0.00,1.38,2.07,4.66,3.79,5.00,6.55,8.45,,,,,,,,,,,,,,
1799999997591069331,2027-01-15T07:59:57.591069331Z,2.93,3.79,-1.03,1.03,2.07,1.38,-0.69,2.24,3.62,2.93,5.17,6.03,5.52,10.00,,,,,,,,,,,,,,
1799999997602820212,2027-01-15T07:59:57.602820212Z,2.76,2.76,-0.86,1.55,1.21,0.34,-0.86,3.45,3.62,3.10,5.86,5.34,5.86,10.34,,,,,,,,,,,,,,
1799999997614571093,2027-01-15T07:59:57.614571093Z,0.34,2.41,1.03,3.45,0.00,1.03,0.86,2.93,3.62,5.00,4.83,4.48,5.00,7.59,,,,,,,,,,,,,,
1799999997626321975,2027-01-15T07:59:57.626321975Z,1.38,2.76,1.21,3.28,0.34,2.24,2.07,2.24,4.14,4.14,4.83,4.83,4.48,5.69,,,,,,,,,,,,,,
1799999997638072856,2027-01-15T07:59:57.638072856Z,-0.17,1.55,0.00,-1.03,2.07,2.93,4.14,0.52,3.10,2.59,4.66,5.86,4.66,5.00,,,,,,,,,,,,,,
1799999997649823737,2027-01-15T07:59:57.649823737Z,1.03,0.52,-1.21,-0.69,2.07,1.55,5.00,1.90,2.24,2.76,4.66,4.83,5.34,5.52,,,,,,,,,,,,,,
1799999997661574619,2027-01-15T07:59:57.661574619Z,-1.38,-0.17,-1.55,0.86,1.55,-0.52,2.41,3.79,3.62,2.76,4.66,3.62,8.45,6.38,,,,,,,,,,,,,,
1799999997673325500,2027-01-15T07:59:57.673325500Z,1.21,0.69,-0.52,1.38,1.72,0.17,1.55,4.14,3.62,2.76,4.31,3.62,9.48,6.38,,,,,,,,,,,,,,
1799999997685076381,2027-01-15T07:59:57.685076381Z,1.72,-0.34,-0.34,1.38,0.69,2.41,2.07,3.45,2.76,4.14,3.45,3.79,8.79,6.21,,,,,,,,,,,,,,
1799999997696827263,2027-01-15T07:59:57.696827263Z,-1.21,-0.69,-0.34,1.38,1.03,2.07,2.76,3.97,4.31,4.83,3.79,3.97,7.07,6.38,,,,,,,,,,,,,,
1799999997708578144,2027-01-15T07:59:57.708578144Z,-4.31,-0.52,-0.86,0.00,0.69,3.10,3.62,4.66,5.52,5.52,4.14,5.69,2.24,6.90,,,,,,,,,,,,,,
1799999997720329025,2027-01-15T07:59:57.720329025Z,-2.07,-1.03,-1.38,0.00,-0.69,1.38,3.62,3.62,4.83,5.00,4.48,5.86,2.59,6.03,,,,,,,,,,,,,,
1799999997732079906,2027-01-15T07:59:57.732079906Z,-1.90,-2.41,-2.24,1.72,-0.34,-1.90,2.41,1.38,4.48,4.66,3.62,5.34,5.00,4.48,,,,,,,,,,,,,,
1799999997743830788,2027-01-15T07:59:57.743830788Z,-2.07,-2.07,-1.38,1.55,0.52,-0.34,1.72,2.07,3.79,4.14,3.10,4.83,4.83,5.34,,,,,,,,,,,,,,
1799999997755581669,2027-01-15T07:59:57.755581669Z,-2.07,-1.38,0.69,0.17,0.69,2.24,2.59,2.76,2.59,3.10,4.83,6.03,4.83,7.07,,,,,,,,,,,,,,
1799999997767332550,2027-01-15T07:59:57.767332550Z,-2.59,-2.59,0.34,0.00,1.21,1.55,3.10,4.31,3.28,2.59,4.83,6.03,4.83,5.86,,,,,,,,,,,,,,
1799999997779083432,2027-01-15T07:59:57.779083432Z,-2.93,-1.03,0.86,0.00,2.76,1.72,1.90,3.79,1.03,1.90,3.79,4.31,4.83,3.62,,,,,,,,,,,,,,
1799999997790834313,2027-01-15T07:59:57.790834313Z,-2.59,-0.17,0.52,0.52,3.10,2.41,1.03,2.76,0.17,2.41,3.79,3.10,4.14,4.14,,,,,,,,,,,,,,
1799999997802585194,2027-01-15T07:59:57.802585194Z,-2.24,-0.17,-1.72,0.52,1.38,2.41,2.07,3.10,2.76,3.45,3.62,3.97,4.14,5.52,,,,,,,,,,,,,,
1799999997814336076,2027-01-15T07:59:57.814336076Z,-0.34,0.52,-1.72,0.00,0.69,2.41,2.07,2.41,2.76,3.79,5.17,4.48,4.31,5.86,,,,,,,,,,,,,,
1799999997826086957,2027-01-15T07:59:57.826086957Z,-0.69,-1.55,-1.21,0.00,0.34,1.90,2.93,2.41,3.62,2.24,5.86,5.00,4.83,6.72,,,,,,,,,,,,,,
1799999997837837838,2027-01-15T07:59:57.837837838Z,0.17,-1.38,1.21,0.69,-0.34,2.93,3.62,3.10,2.41,2.24,5.69,5.00,4.48,5.69,,,,,,,,,,,,,,
1799999997849588720,2027-01-15T07:59:57.849588720Z,-2.07,-1.03,3.45,-0.17,-0.52,3.10,3.28,3.10,3.45,4.14,4.31,3.79,3.45,5.69,,,,,,,,,,,,,,
1799999997861339601,2027-01-15T07:59:57.861339601Z,-0.86,-1.38,2.76,0.17,0.34,2.59,2.24,2.24,4.48,4.83,4.14,3.45,4.14,6.38,,,,,,,,,,,,,,
1799999997873090482,2027-01-15T07:59:57.873090482Z,-1.03,-2.76,0.52,0.52,1.21,1.55,1.03,2.93,3.79,4.83,3.97,5.00,5.86,6.21,,,,,,,,,,,,,,
1799999997884841364,2027-01-15T07:59:57.884841364Z,-2.59,-2.41,-0.52,0.34,1.03,0.86,1.55,3.28,4.14,3.97,4.66,5.86,5.52,6.72,,,,,,,,,,,,,,
1799999997896592245,2027-01-15T07:59:57.896592245Z,-0.86,-2.24,0.52,0.34,-0.34,1.90,1.90,3.62,3.62,3.10,4.31,5.69,4.83,7.59,,,,,,,,,,,,,,
1799999997908343126,2027-01-15T07:59:57.908343126Z,-1.72,-1.90,1.38,0.00,0.52,1.55,1.72,3.97,2.24,3.79,4.14,5.34,5.17,6.55,,,,,,,,,,,,,,
1799999997920094008,2027-01-15T07:59:57.920094008Z,-1.38,-0.52,2.07,-0.52,0.69,0.52,1.03,2.59,3.79,4.83,5.34,5.86,4.31,5.17,,,,,,,,,,,,,,
1799999997931844889,2027-01-15T07:59:57.931844889Z,-0.52,-0.86,0.69,0.52,0.17,0.00,0.52,3.28,5.00,3.79,6.03,6.03,3.97,5.17,,,,,,,,,,,,,,
1799999997943595770,2027-01-15T07:59:57.943595770Z,-1.72,-1.03,-0.86,0.00,0.17,0.86,1.55,5.52,4.31,3.10,4.14,6.21,5.69,5.86,,,,,,,,,,,,,,
1799999997955346651,2027-01-15T07:59:57.955346651Z,0.34,1.21,-0.86,-0.34,-0.34,2.07,1.55,5.17,2.93,3.62,4.48,5.69,5.69,5.34,,,,,,,,,,,,,,
1799999997967097533,2027-01-15T07:59:57.967097533Z,-1.55,2.76,-0.34,1.38,1.03,1.72,1.55,2.07,1.38,3.28,3.79,5.17,5.52,3.62,,,,,,,,,,,,,,
1799999997978848414,2027-01-15T07:59:57.978848414Z,2.59,2.59,0.17,1.03,2.76,0.69,1.90,1.55,0.34,2.41,3.28,5.34,6.03,4.48,,,,,,,,,,,,,,
1799999997990599295,2027-01-15T07:59:57.990599295Z,-0.17,1.03,0.86,-0.86,1.38,0.17,2.76,2.24,1.55,2.41,3.10,5.17,5.34,6.03,,,,,,,,,,,,,,
1799999998002350177,2027-01-15T07:59:58.002350177Z,,1.21,0.86,0.00,0.17,0.69,3.28,2.59,2.93,3.10,3.45,5.34,5.34,6.55,,,,,,,,,,,,,,
1799999998014101058,2027-01-15T07:59:58.014101058Z,-0.52,0.69,0.52,1.38,1.03,1.90,3.97,2.24,2.41,4.14,2.59,5.69,5.34,6.90,,,,,,,,,,,,,,
1799999998025851939,2027-01-15T07:59:58.025851939Z,-2.07,0.69,0.00,1.03,1.55,2.76,3.62,2.59,2.93,3.62,2.24,5.52,5.69,6.55,,,,,,,,,,,,,,
1799999998037602821,2027-01-15T07:59:58.037602821Z,-2.59,-0.52,-1.72,0.00,3.28,0.69,2.41,2.76,5.00,4.83,3.79,6.72,6.72,7.07,,,,,,,,,,,,,,
1799999998049353702,2027-01-15T07:59:58.049353702Z,-2.59,-1.90,-1.55,-0.69,3.62,0.52,2.24,2.59,4.14,5.34,4.14,5.17,6.38,6.90,,,,,,,,,,,,,,
1799999998061104583,2027-01-15T07:59:58.061104583Z,-0.34,-2.24,0.17,-1.03,2.07,0.86,1.03,1.90,3.97,3.62,2.76,3.79,5.86,7.76,,,,,,,,,,,,,,
1799999998072855465,2027-01-15T07:59:58.072855465Z,0.34,-2.93,-1.03,0.34,0.69,1.38,0.86,1.90,4.31,3.97,3.10,4.66,5.86,7.59,,,,,,,,,,,,,,
1799999998084606346,2027-01-15T07:59:58.084606346Z,-0.69,-1.90,-2.24,2.07,-0.17,0.17,3.10,3.79,3.79,4.66,3.45,5.34,6.03,5.86,,,,,,,,,,,,,,
1799999998096357227,2027-01-15T07:59:58.096357227Z,,-0.34,-2.24,2.07,-0.17,-1.21,4.48,5.00,3.62,4.31,4.48,5.52,6.21,5.86,,,,,,,,,,,,,,
1799999998108108109,2027-01-15T07:59:58.108108109Z,,0.86,-0.86,0.00,0.69,0.00,1.90,2.24,1.72,3.62,5.34,5.00,5.00,5.17,,,,,,,,,,,,,,
1799999998119858990,2027-01-15T07:59:58.119858990Z,,0.34,0.17,0.52,0.34,0.69,0.86,1.72,1.72,2.24,5.17,4.83,3.79,4.66,,,,,,,,,,,,,,
1799999998131609871,2027-01-15T07:59:58.131609871Z,,-1.90,-0.34,0.52,0.52,1.03,1.38,3.97,2.93,2.24,5.00,4.66,3.62,5.52,,,,,,,,,,,,,,
1799999998143360753,2027-01-15T07:59:58.143360753Z,,-0.86,-2.07,0.52,0.69,2.24,1.90,2.07,2.93,3.10,4.31,5.17,4.14,5.34,,,,,,,,,,,,,,
1799999998155111634,2027-01-15T07:59:58.155111634Z,,0.17,-3.10,1.55,0.34,3.10,1.38,-0.17,3.62,2.76,3.28,5.69,5.00,5.52,,,,,,,,,,,,,,
1799999998166862515,2027-01-15T07:59:58.166862515Z,,-1.38,-2.76,1.21,2.41,1.55,1.21,0.69,3.79,2.41,3.62,4.83,5.34,5.86,,,,,,,,,,,,,,
1799999998178613397,2027-01-15T07:59:58.178613397Z,,-0.34,0.17,2.24,2.07,0.52,1.21,2.93,1.38,3.10,3.62,5.00,6.90,5.86,,,,,,,,,,,,,,
1799999998190364278,2027-01-15T07:59:58.190364278Z,,0.34,0.00,2.59,0.52,1.72,1.03,2.76,0.69,2.76,4.14,5.69,5.86,6.03,,,,,,,,,,,,,,
1799999998202115159,2027-01-15T07:59:58.202115159Z,,0.00,0.00,1.72,0.34,2.24,1.38,2.59,2.59,2.59,4.83,6.55,9.14,5.86,,,,,,,,,,,,,,
1799999998213866040,2027-01-15T07:59:58.213866040Z,,0.00,0.69,1.21,0.34,2.93,1.55,2.59,2.59,2.93,4.48,6.72,10.00,5.00,,,,,,,,,,,,,,
1799999998225616922,2027-01-15T07:59:58.225616922Z,,0.00,0.69,1.21,0.86,4.66,1.03,1.55,3.28,3.45,2.93,5.17,6.03,4.66,,,,,,,,,,,,,,
1799999998237367803,2027-01-15T07:59:58.237367803Z,,0.17,-0.17,2.07,2.24,2.41,0.52,1.03,3.79,3.10,2.93,3.97,4.83,5.34,,,,,,,,,,,,,,
1799999998249118684,2027-01-15T07:59:58.249118684Z,,-1.90,0.69,1.90,1.55,0.00,0.17,2.93,3.79,3.62,4.31,3.45,5.52,7.07,,,,,,,,,,,,,,
1799999998260869566,2027-01-15T07:59:58.260869566Z,,-1.21,0.52,1.21,1.21,1.03,0.69,3.28,3.10,4.66,5.52,3.79,5.52,7.24,,,,,,,,,,,,,,
1799999998272620447,2027-01-15T07:59:58.272620447Z,,-0.86,1.03,1.38,2.07,3.28,1.72,3.28,3.10,4.48,4.83,4.31,5.86,7.07,,,,,,,,,,,,,,
1799999998284371328,2027-01-15T07:59:58.284371328Z,,-2.07,1.21,2.07,1.03,3.10,2.41,3.79,3.28,4.14,4.14,4.48,5.34,6.21,,,,,,,,,,,,,,
1799999998296122210,2027-01-15T07:59:58.296122210Z,,0.00,2.59,2.41,0.00,3.79,3.10,2.93,2.07,4.48,3.62,4.66,4.66,5.34,,,,,,,,,,,,,,
1799999998307873091,2027-01-15T07:59:58.307873091Z,,0.52,2.59,1.38,0.69,2.59,3.10,1.72,2.93,4.31,3.97,5.00,4.31,5.69,,,,,,,,,,,,,,
1799999998319623972,2027-01-15T07:59:58.319623972Z,,-0.69,0.52,0.52,1.21,0.00,3.45,3.28,2.76,3.28,4.48,4.48,4.83,6.72,,,,,,,,,,,,,,
1799999998331374854,2027-01-15T07:59:58.331374854Z,,-1.55,0.52,0.69,1.72,1.72,3.10,2.76,1.72,3.10,3.62,3.62,4.48,6.72,,,,,,,,,,,,,,
1799999998343125735,2027-01-15T07:59:58.343125735Z,,-2.76,0.86,0.34,1.38,2.93,2.93,1.38,2.76,2.93,2.93,4.83,5.52,6.55,,,,,,,,,,,,,,
1799999998354876616,2027-01-15T07:59:58.354876616Z,,-1.21,0.86,0.17,0.52,0.52,3.28,2.41,0.86,3.28,3.62,6.03,5.00,6.21,,,,,,,,,,,,,,
1799999998366627498,2027-01-15T07:59:58.366627498Z,,0.17,0.86,-0.17,1.03,1.55,3.10,3.45,2.07,4.14,3.97,5.34,3.62,6.21,,,,,,,,,,,,,,
1799999998378378379,2027-01-15T07:59:58.378378379Z,,-0.69,-1.03,-0.34,2.59,3.62,3.10,2.24,5.00,5.34,5.52,3.45,4.31,6.72,,,,,,,,,,,,,,
1799999998390129260,2027-01-15T07:59:58.390129260Z,,-0.69,-0.86,0.86,2.93,3.45,2.24,1.90,6.03,5.69,4.66,3.62,4.14,6.21,,,,,,,,,,,,,,
1799999998401880142,2027-01-15T07:59:58.401880142Z,,-2.24,0.69,1.38,0.86,2.59,2.07,2.93,3.28,5.17,4.48,3.62,5.17,5.69,,,,,,,,,,,,,,
1799999998413631023,2027-01-15T07:59:58.413631023Z,,-1.21,0.17,1.03,0.17,1.90,2.24,3.62,2.59,5.00,5.52,3.97,5.86,6.03,,,,,,,,,,,,,,
1799999998425381904,2027-01-15T07:59:58.425381904Z,-7.07,-0.17,0.00,0.34,0.00,2.07,2.59,2.93,2.59,4.14,5.34,5.00,4.48,5.86,,,,,,,,,,,,,,
1799999998437132785,2027-01-15T07:59:58.437132785Z,-7.24,-0.34,0.69,0.34,0.52,2.41,1.72,2.41,2.59,4.14,5.34,5.52,3.62,5.34,,,,,,,,,,,,,,
1799999998448883667,2027-01-15T07:59:58.448883667Z,,-1.03,0.52,1.21,0.69,1.38,1.55,2.76,3.10,5.17,4.31,4.83,2.59,6.72,,,,,,,,,,,,,,
1799999998460634548,2027-01-15T07:59:58.460634548Z,,0.00,-0.17,0.86,-0.17,0.52,1.21,3.28,3.45,5.69,4.66,4.31,2.59,7.07,,,,,,,,,,,,,,
1799999998472385429,2027-01-15T07:59:58.472385429Z,,0.52,-0.34,-0.34,-0.17,0.69,0.52,2.59,2.24,4.14,5.17,4.66,3.97,7.41,,,,,,,,,,,,,,
1799999998484136311,2027-01-15T07:59:58.484136311Z,,-1.03,-0.69,0.34,0.17,1.21,1.21,2.07,2.41,3.45,4.66,4.48,3.79,6.55,,,,,,,,,,,,,,
1799999998495887192,2027-01-15T07:59:58.495887192Z,,-0.34,-3.10,1.55,1.38,3.28,1.90,1.72,5.00,4.14,3.62,4.48,4.31,4.66,,,,,,,,,,,,,,
1799999998507638073,2027-01-15T07:59:58.507638073Z,,-0.52,-2.59,0.52,1.03,2.24,1.55,3.28,5.17,4.31,3.97,4.14,4.83,4.66,,,,,,,,,,,,,,
1799999998519388955,2027-01-15T07:59:58.519388955Z,,-1.72,-1.21,-1.90,-0.69,-1.38,1.03,2.24,3.45,3.28,3.79,4.14,5.86,5.00,,,,,,,,,,,,,,
1799999998531139836,2027-01-15T07:59:58.531139836Z,,-0.86,-1.21,-1.90,-0.17,-0.86,1.21,1.21,3.62,3.62,4.14,3.45,6.21,5.52,,,,,,,,,,,,,,
1799999998542890717,2027-01-15T07:59:58.542890717Z,,-1.38,0.34,0.17,2.76,2.76,0.86,3.79,3.45,5.00,3.28,3.45,5.00,6.55,,,,,,,,,,,,,,
1799999998554641599,2027-01-15T07:59:58.554641599Z,,-1.55,-0.34,0.00,3.62,2.76,1.55,3.79,3.10,5.34,3.10,4.66,5.69,5.69,,,,,,,,,,,,,,
1799999998566392480,2027-01-15T07:59:58.566392480Z,,-1.38,-1.90,-0.17,2.24,2.07,3.10,1.90,3.97,6.03,4.31,5.86,9.31,5.34,,,,,,,,,,,,,,
1799999998578143361,2027-01-15T07:59:58.578143361Z,,-0.34,-1.55,0.34,0.34,1.03,2.93,1.72,3.45,6.21,5.52,6.55,8.10,5.00,,,,,,,,,,,,,,
1799999998589894243,2027-01-15T07:59:58.589894243Z,,-0.34,-0.86,-0.69,-0.17,0.52,1.38,3.28,1.38,4.66,4.14,5.00,4.48,6.38,,,,,,,,,,,,,,
1799999998601645124,2027-01-15T07:59:58.601645124Z,,0.00,-0.52,0.17,1.21,0.17,0.69,3.79,1.72,3.45,4.14,4.66,3.97,6.55,,,,,,,,,,,,,,
1799999998613396005,2027-01-15T07:59:58.613396005Z,,0.52,0.17,1.90,1.90,1.55,0.34,2.24,3.62,3.97,5.69,5.17,5.34,6.72,,,,,,,,,,,,,,
1799999998625146887,2027-01-15T07:59:58.625146887Z,,-0.52,-0.69,1.55,0.69,1.90,0.52,3.62,4.83,5.17,5.69,5.52,6.38,5.86,,,,,,,,,,,,,,
1799999998636897768,2027-01-15T07:59:58.636897768Z,,0.17,-1.90,0.34,-0.86,0.69,1.90,3.62,4.14,6.03,3.62,4.83,6.38,6.03,,,,,,,,,,,,,,
1799999998648648649,2027-01-15T07:59:58.648648649Z,,0.34,-2.07,0.52,-0.17,1.72,2.24,3.45,3.28,5.00,3.45,4.14,7.07,6.38,,,,,,,,,,,,,,
1799999998660399530,2027-01-15T07:59:58.660399530Z,,0.17,0.00,1.55,1.03,2.76,1.90,2.24,3.10,4.14,3.45,5.69,9.31,6.03,,,,,,,,,,,,,,
1799999998672150412,2027-01-15T07:59:58.672150412Z,,-0.69,0.00,0.86,0.52,2.07,2.24,2.41,2.76,4.48,3.45,6.55,7.76,5.86,,,,,,,,,,,,,,
1799999998683901293,2027-01-15T07:59:58.683901293Z,,-0.17,-1.03,-0.34,2.24,3.45,3.28,2.07,2.76,3.28,3.62,4.48,4.66,6.03,,,,,,,,,,,,,,
1799999998695652174,2027-01-15T07:59:58.695652174Z,,-0.17,-0.69,0.34,3.79,4.83,2.24,1.72,3.62,2.07,3.10,4.14,4.66,5.34,,,,,,,,,,,,,,
1799999998707403056,2027-01-15T07:59:58.707403056Z,,0.00,0.00,0.86,2.76,2.93,2.59,2.93,4.48,3.28,2.93,5.52,7.59,5.00,,,,,,,,,,,,,,
1799999998719153937,2027-01-15T07:59:58.719153937Z,,0.00,0.52,0.17,2.24,2.76,3.79,3.45,5.00,3.79,3.97,6.03,5.86,5.86,,,,,,,,,,,,,,
1799999998730904818,2027-01-15T07:59:58.730904818Z,,-0.86,1.21,1.03,2.24,1.55,4.31,3.10,3.28,2.76,6.03,5.52,4.14,6.38,,,,,,,,,,,,,,
1799999998742655700,2027-01-15T07:59:58.742655700Z,,-1.21,1.03,1.03,2.93,1.55,4.66,3.62,2.76,3.28,6.03,5.34,4.31,6.21,,,,,,,,,,,,,,
1799999998754406581,2027-01-15T07:59:58.754406581Z,,1.38,2.07,2.24,2.07,2.24,3.28,3.45,2.24,3.79,5.86,6.03,6.21,7.07,,,,,,,,,,,,,,
1799999998766157462,2027-01-15T07:59:58.766157462Z,,1.90,1.55,2.59,1.55,2.24,2.93,2.76,2.24,3.28,5.34,6.21,6.90,6.03,,,,,,,,,,,,,,
1799999998777908344,2027-01-15T07:59:58.777908344Z,,-1.21,1.55,2.41,0.86,2.41,1.21,3.28,3.10,2.59,3.79,5.17,5.00,5.69,,,,,,,,,,,,,,
1799999998789659225,2027-01-15T07:59:58.789659225Z,,-1.38,1.55,1.21,-0.52,1.03,1.38,2.93,3.10,2.41,4.66,4.14,1.55,5.86,,,,,,,,,,,,,,
1799999998801410106,2027-01-15T07:59:58.801410106Z,-6.55,-1.38,0.17,0.17,-1.03,0.52,2.59,2.41,3.10,2.59,5.69,5.17,3.79,4.83,,,,,,,,,,,,,,
1799999998813160988,2027-01-15T07:59:58.813160988Z,-6.55,-0.69,-0.17,-0.17,0.34,0.69,3.10,2.76,3.28,3.45,5.34,6.03,4.83,4.83,,,,,,,,,,,,,,
1799999998824911869,2027-01-15T07:59:58.824911869Z,,0.17,-0.17,0.34,0.52,0.34,4.14,1.55,1.03,5.69,4.83,5.17,4.48,7.24,,,,,,,,,,,,,,
1799999998836662750,2027-01-15T07:59:58.836662750Z,,0.00,-0.17,0.00,0.69,0.17,2.93,1.38,-0.17,6.38,5.17,5.17,4.48,7.07,,,,,,,,,,,,,,
1799999998848413632,2027-01-15T07:59:58.848413632Z,,-0.86,0.86,0.52,0.17,2.93,1.38,2.93,2.93,5.17,5.17,5.17,4.48,3.97,,,,,,,,,,,,,,
1799999998860164513,2027-01-15T07:59:58.860164513Z,,0.00,1.21,0.52,-0.17,3.62,1.72,2.93,3.45,3.97,4.31,5.34,4.66,4.48,,,,,,,,,,,,,,
1799999998871915394,2027-01-15T07:59:58.871915394Z,,0.17,-1.03,1.03,0.69,2.07,1.55,3.45,2.41,3.10,4.66,5.34,4.14,6.38,,,,,,,,,,,,,,
1799999998883666275,2027-01-15T07:59:58.883666275Z,,-1.72,-0.69,-0.69,1.21,1.03,1.03,3.97,3.79,3.45,4.66,4.83,3.45,6.21,,,,,,,,,,,,,,
1799999998895417157,2027-01-15T07:59:58.895417157Z,,0.69,1.72,0.86,0.52,1.03,0.69,2.41,3.28,3.62,2.59,4.66,4.66,7.24,,,,,,,,,,,,,,
1799999998907168038,2027-01-15T07:59:58.907168038Z,,1.21,0.34,1.55,-0.52,0.86,1.03,2.93,3.28,4.31,2.41,5.17,5.34,6.03,,,,,,,,,,,,,,
1799999998918918919,2027-01-15T07:59:58.918918919Z,-6.55,-2.41,-1.38,2.93,0.52,0.52,2.24,1.72,3.10,5.69,3.79,4.31,4.14,6.21,,,,,,,,,,,,,,
1799999998930669801,2027-01-15T07:59:58.930669801Z,-6.55,-1.38,-1.21,1.21,0.34,1.90,2.07,1.03,2.59,6.21,3.79,3.79,4.14,7.24,,,,,,,,,,,,,,
1799999998942420682,2027-01-15T07:59:58.942420682Z,,1.55,-0.86,-1.03,-0.17,3.28,2.41,0.00,2.41,4.14,5.00,5.34,4.31,5.00,,,,,,,,,,,,,,
1799999998954171563,2027-01-15T07:59:58.954171563Z,,0.69,-0.86,-1.72,0.34,3.79,2.07,0.00,3.79,3.28,5.34,6.03,4.48,5.00,,,,,,,,,,,,,,
1799999998965922445,2027-01-15T07:59:58.965922445Z,,-1.55,0.69,-0.86,1.38,3.79,1.03,1.55,3.97,3.97,5.00,5.17,4.14,4.66,,,,,,,,,,,,,,
1799999998977673326,2027-01-15T07:59:58.977673326Z,,-1.72,0.52,0.86,1.03,3.79,1.55,2.59,3.97,4.31,4.48,5.52,4.66,5.52,,,,,,,,,,,,,,
1799999998989424207,2027-01-15T07:59:58.989424207Z,,-1.55,0.52,-0.86,2.41,1.90,1.03,3.62,2.76,4.31,4.83,5.00,7.07,7.41,,,,,,,,,,,,,,
1799999999001175089,2027-01-15T07:59:59.001175089Z,,-1.38,-0.34,-1.03,1.55,1.55,1.03,4.31,2.41,4.66,4.31,3.79,6.72,7.07,,,,,,,,,,,,,,
1799999999012925970,2027-01-15T07:59:59.012925970Z,,-1.21,-1.90,-1.21,-0.34,2.07,0.52,3.79,3.97,3.62,3.28,3.45,7.24,6.72,,,,,,,,,,,,,,
1799999999024676851,2027-01-15T07:59:59.024676851Z,,-1.55,-1.90,-0.69,1.03,1.21,0.52,3.45,4.14,2.41,3.28,4.14,8.62,6.21,,,,,,,,,,,,,,
1799999999036427733,2027-01-15T07:59:59.036427733Z,,0.34,-0.34,0.34,3.10,0.34,1.72,5.86,3.45,1.90,5.69,4.66,7.76,6.03,,,,,,,,,,,,,,
1799999999048178614,2027-01-15T07:59:59.048178614Z,,0.34,0.00,0.34,2.59,0.86,1.72,6.03,2.41,2.24,5.52,4.48,5.52,7.41,,,,,,,,,,,,,,
1799999999059929495,2027-01-15T07:59:59.059929495Z,,0.69,-1.72,1.03,2.24,1.21,2.07,5.00,2.93,2.07,3.62,5.69,5.17,8.97,,,,,,,,,,,,,,
1799999999071680377,2027-01-15T07:59:59.071680377Z,,0.52,-2.07,1.03,1.55,0.86,1.38,4.66,2.93,2.59,3.45,5.86,5.00,7.93,,,,,,,,,,,,,,
1799999999083431258,2027-01-15T07:59:59.083431258Z,,1.38,-0.17,1.38,0.86,1.55,1.38,2.93,3.45,2.59,4.14,5.52,7.93,6.21,,,,,,,,,,,,,,
1799999999095182139,2027-01-15T07:59:59.095182139Z,,1.03,0.17,0.34,0.86,2.24,1.38,1.90,3.62,1.90,4.66,5.69,8.97,5.86,,,,,,,,,,,,,,
1799999999106933020,2027-01-15T07:59:59.106933020Z,,-1.03,1.03,-1.03,1.72,2.07,1.55,2.41,3.79,2.76,5.34,5.17,5.17,6.90,,,,,,,,,,,,,,
1799999999118683902,2027-01-15T07:59:59.118683902Z,,-1.38,0.52,0.00,1.21,1.90,2.07,2.59,4.14,3.62,6.03,5.00,4.48,6.90,,,,,,,,,,,,,,
1799999999130434783,2027-01-15T07:59:59.130434783Z,,-1.03,0.52,0.69,0.34,1.38,2.59,2.76,5.34,3.97,4.48,5.00,4.83,5.34,,,,,,,,,,,,,,
1799999999142185664,2027-01-15T07:59:59.142185664Z,,0.17,1.55,-0.34,0.34,0.86,1.55,2.93,3.79,3.10,2.93,4.83,4.83,4.66,,,,,,,,,,,,,,
1799999999153936546,2027-01-15T07:59:59.153936546Z,,1.21,1.90,-1.38,0.69,0.69,2.41,2.24,2.59,4.14,2.59,4.66,5.86,3.28,,,,,,,,,,,,,,
1799999999165687427,2027-01-15T07:59:59.165687427Z,,0.17,1.90,-0.52,0.86,0.69,2.76,2.24,3.45,5.00,3.62,4.48,6.38,4.83,,,,,,,,,,,,,,
1799999999177438308,2027-01-15T07:59:59.177438308Z,-6.21,0.17,0.86,1.38,0.86,0.86,1.90,2.93,3.62,2.93,3.45,3.79,5.52,7.59,,,,,,,,,,,,,,
1799999999189189190,2027-01-15T07:59:59.189189190Z,-6.21,0.69,0.86,1.21,0.86,2.07,2.07,4.31,2.93,2.24,3.28,3.62,4.14,6.90,,,,,,,,,,,,,,
1799999999200940071,2027-01-15T07:59:59.200940071Z,,-1.38,0.52,1.55,1.72,3.97,2.76,3.79,3.10,2.24,3.10,4.31,4.48,5.34,,,,,,,,,,,,,,
1799999999212690952,2027-01-15T07:59:59.212690952Z,,-2.24,0.52,1.72,1.72,3.45,2.24,2.41,3.79,2.41,3.45,4.48,4.83,6.03,,,,,,,,,,,,,,
1799999999224441834,2027-01-15T07:59:59.224441834Z,,-2.41,-0.52,0.69,0.17,1.21,1.90,1.55,4.66,4.48,3.28,4.48,6.21,6.03,,,,,,,,,,,,,,
1799999999236192715,2027-01-15T07:59:59.236192715Z,,-1.03,-0.52,0.52,0.00,1.03,1.38,2.07,3.79,5.00,3.62,5.17,6.55,6.21,,,,,,,,,,,,,,
1799999999247943596,2027-01-15T07:59:59.247943596Z,,-1.55,-1.03,0.52,1.90,1.55,1.72,1.90,2.76,5.69,3.62,5.86,5.00,5.17,,,,,,,,,,,,,,
1799999999259694478,2027-01-15T07:59:59.259694478Z,,-1.55,-1.55,1.72,2.41,1.21,1.72,1.21,3.10,5.69,4.14,5.86,5.00,4.83,,,,,,,,,,,,,,
1799999999271445359,2027-01-15T07:59:59.271445359Z,,-1.21,-0.69,2.24,0.69,0.69,2.76,2.59,3.10,4.48,3.97,5.69,2.93,5.00,,,,,,,,,,,,,,
1799999999283196240,2027-01-15T07:59:59.283196240Z,,-2.07,-1.21,1.90,-0.86,1.90,1.90,3.62,2.59,4.66,3.79,5.34,3.10,4.83,,,,,,,,,,,,,,
1799999999294947122,2027-01-15T07:59:59.294947122Z,,-1.21,-1.21,1.21,-1.55,1.03,0.52,2.41,2.41,3.79,4.14,5.00,4.31,5.34,,,,,,,,,,,,,,
1799999999306698003,2027-01-15T07:59:59.306698003Z,,-0.52,-0.69,0.69,-1.21,0.69,1.38,1.72,2.93,3.62,4.31,3.62,4.83,5.69,,,,,,,,,,,,,,
1799999999318448884,2027-01-15T07:59:59.318448884Z,,-0.17,-1.21,-0.86,-1.21,0.17,2.76,1.21,3.10,4.14,3.45,5.34,4.66,6.21,,,,,,,,,,,,,,
1799999999330199765,2027-01-15T07:59:59.330199765Z,,-1.90,-2.07,0.17,-1.21,1.03,2.07,2.24,4.14,3.97,4.14,6.55,4.66,5.52,,,,,,,,,,,,,,
1799999999341950647,2027-01-15T07:59:59.341950647Z,,-1.72,-2.24,1.38,-0.34,1.21,3.28,2.07,4.66,4.48,3.97,4.31,3.10,6.90,,,,,,,,,,,,,,
1799999999353701528,2027-01-15T07:59:59.353701528Z,,-1.21,-1.72,1.21,0.17,1.03,3.97,1.72,4.31,5.86,3.79,4.83,3.79,7.41,,,,,,,,,,,,,,
1799999999365452409,2027-01-15T07:59:59.365452409Z,,-0.52,0.17,0.69,0.34,2.76,2.41,3.45,2.93,2.93,3.45,5.86,3.62,5.34,,,,,,,,,,,,,,
1799999999377203291,2027-01-15T07:59:59.377203291Z,,-1.21,1.21,0.52,0.00,3.79,2.24,3.28,3.45,3.62,3.97,5.34,4.14,5.00,,,,,,,,,,,,,,
1799999999388954172,2027-01-15T07:59:59.388954172Z,,-2.59,-0.69,-0.52,0.86,3.45,4.14,1.55,4.14,2.93,3.97,5.00,4.48,5.86,,,,,,,,,,,,,,
1799999999400705053,2027-01-15T07:59:59.400705053Z,,-1.21,-2.07,0.00,0.34,2.59,4.66,1.03,4.14,1.90,4.31,4.14,5.52,5.34,,,,,,,,,,,,,,
1799999999412455935,2027-01-15T07:59:59.412455935Z,,0.86,-2.41,1.03,0.34,2.76,4.14,2.59,3.45,2.93,4.66,3.97,7.24,5.52,,,,,,,,,,,,,,
1799999999424206816,2027-01-15T07:59:59.424206816Z,,1.90,-1.90,0.86,0.69,1.55,3.45,4.14,2.93,4.48,3.97,4.31,6.38,6.21,,,,,,,,,,,,,,
1799999999435957697,2027-01-15T07:59:59.435957697Z,,3.10,-1.55,0.00,1.55,2.41,2.93,3.79,2.24,3.79,4.14,5.17,4.83,7.07,,,,,,,,,,,,,,
1799999999447708579,2027-01-15T07:59:59.447708579Z,,0.86,-0.69,0.52,1.55,3.10,3.62,3.62,1.90,3.79,4.66,5.69,5.69,7.07,,,,,,,,,,,,,,
1799999999459459460,2027-01-15T07:59:59.459459460Z,,-0.34,0.52,1.38,1.38,1.72,2.93,3.10,1.55,5.17,4.31,4.48,5.69,5.86,,,,,,,,,,,,,,
1799999999471210341,2027-01-15T07:59:59.471210341Z,,-1.03,-0.34,1.38,-0.17,0.69,1.90,2.76,2.24,7.24,5.52,4.14,5.86,4.66,,,,,,,,,,,,,,
1799999999482961223,2027-01-15T07:59:59.482961223Z,,-1.03,-0.52,1.38,-0.17,0.86,2.07,3.62,2.07,5.69,5.86,5.52,5.69,5.00,,,,,,,,,,,,,,
1799999999494712104,2027-01-15T07:59:59.494712104Z,,-2.24,2.07,1.55,0.00,1.21,3.28,4.48,2.24,3.62,4.66,4.48,5.69,6.03,,,,,,,,,,,,,,
1799999999506462985,2027-01-15T07:59:59.506462985Z,,-2.07,2.59,1.03,0.69,0.86,3.10,5.17,1.55,3.79,5.17,5.34,5.69,6.55,,,,,,,,,,,,,,
1799999999518213867,2027-01-15T07:59:59.518213867Z,,-0.52,1.72,0.69,0.86,1.72,0.17,4.66,2.24,3.62,4.83,6.90,4.31,7.24,,,,,,,,,,,,,,
1799999999529964748,2027-01-15T07:59:59.529964748Z,,-0.86,0.34,0.52,1.38,2.59,-0.34,4.66,2.93,3.79,4.48,5.86,3.79,7.07,,,,,,,,,,,,,,
1799999999541715629,2027-01-15T07:59:59.541715629Z,,-0.52,-0.34,-0.17,2.07,2.93,1.55,3.10,2.24,3.79,5.52,5.17,4.14,6.21,,,,,,,,,,,,,,
1799999999553466510,2027-01-15T07:59:59.553466510Z,,0.17,0.69,0.17,1.55,2.93,1.55,3.10,2.24,4.66,4.66,5.52,5.00,5.69,,,,,,,,,,,,,,
1799999999565217392,2027-01-15T07:59:59.565217392Z,,-0.17,1.03,-1.21,1.72,2.07,1.90,4.66,2.24,4.83,2.76,5.00,4.66,5.34,,,,,,,,,,,,,,
1799999999576968273,2027-01-15T07:59:59.576968273Z,,1.21,0.52,-1.72,1.72,1.55,2.07,3.97,2.59,3.45,3.79,4.66,5.00,6.72,,,,,,,,,,,,,,
1799999999588719154,2027-01-15T07:59:59.588719154Z,,1.38,1.55,-1.03,0.69,0.00,3.28,3.62,2.07,3.97,4.48,4.48,5.69,7.93,,,,,,,,,,,,,,
1799999999600470036,2027-01-15T07:59:59.600470036Z,,-0.52,1.38,-0.52,0.86,1.38,3.45,3.97,1.72,3.10,4.83,3.62,5.69,7.41,,,,,,,,,,,,,,
1799999999612220917,2027-01-15T07:59:59.612220917Z,,-1.55,-0.17,1.03,1.55,3.28,0.69,1.90,3.97,1.38,3.97,4.48,6.38,6.21,,,,,,,,,,,,,,
1799999999623971798,2027-01-15T07:59:59.623971798Z,,-1.21,-0.52,2.07,2.93,3.28,1.72,1.21,3.10,2.24,3.79,4.66,5.34,5.69,,,,,,,,,,,,,,
1799999999635722680,2027-01-15T07:59:59.635722680Z,,0.52,-0.52,1.72,2.93,1.72,0.86,2.59,2.76,3.62,5.69,4.66,6.21,5.17,,,,,,,,,,,,,,
1799999999647473561,2027-01-15T07:59:59.647473561Z,,1.03,-1.03,1.72,1.55,1.03,-0.86,3.45,3.45,3.97,6.03,5.17,7.07,5.00,,,,,,,,,,,,,,
1799999999659224442,2027-01-15T07:59:59.659224442Z,,-0.69,-0.86,1.03,1.55,0.34,0.86,3.28,3.79,5.34,4.66,4.83,6.38,6.72,,,,,,,,,,,,,,
1799999999670975324,2027-01-15T07:59:59.670975324Z,,-0.52,-0.86,0.69,1.55,0.34,0.86,2.41,2.59,6.03,4.83,3.97,6.38,7.93,,,,,,,,,,,,,,
1799999999682726205,2027-01-15T07:59:59.682726205Z,,-2.41,1.38,-0.69,-0.86,0.69,1.38,1.72,1.90,4.83,4.66,4.66,6.55,6.55,,,,,,,,,,,,,,
1799999999694477086,2027-01-15T07:59:59.694477086Z,,-1.38,2.24,0.17,0.17,2.24,2.76,1.72,3.45,4.14,5.52,4.48,6.03,5.86,,,,,,,,,,,,,,
1799999999706227968,2027-01-15T07:59:59.706227968Z,,0.17,1.03,2.24,2.24,1.55,2.41,2.41,6.38,3.45,4.66,5.69,6.72,6.38,,,,,,,,,,,,,,
1799999999717978849,2027-01-15T07:59:59.717978849Z,,0.34,1.03,1.72,2.24,0.52,2.07,3.10,5.34,3.62,3.79,5.69,5.69,6.21,,,,,,,,,,,,,,
1799999999729729730,2027-01-15T07:59:59.729729730Z,,0.86,0.69,0.34,3.97,-1.21,1.90,2.41,3.45,3.62,3.62,4.66,4.66,5.17,,,,,,,,,,,,,,
1799999999741480612,2027-01-15T07:59:59.741480612Z,,0.34,1.55,-0.52,3.28,0.00,2.59,2.24,4.31,3.28,3.10,5.00,3.62,5.00,,,,,,,,,,,,,,
1799999999753231493,2027-01-15T07:59:59.753231493Z,,-2.07,1.03,-0.52,2.07,2.07,2.76,3.10,3.10,3.79,1.55,5.69,5.34,4.31,,,,,,,,,,,,,,
1799999999764982374,2027-01-15T07:59:59.764982374Z,,-3.28,-1.21,0.00,2.76,1.55,3.10,4.31,3.45,4.31,1.72,5.52,6.21,5.00,,,,,,,,,,,,,,
1799999999776733255,2027-01-15T07:59:59.776733255Z,,-2.24,-1.72,0.69,2.24,0.69,2.59,3.79,6.72,4.66,3.28,5.00,4.48,4.31,,,,,,,,,,,,,,
1799999999788484137,2027-01-15T07:59:59.788484137Z,,-3.97,0.00,0.52,1.55,0.69,2.07,4.48,6.21,4.31,3.45,4.83,3.97,4.31,,,,,,,,,,,,,,
1799999999800235018,2027-01-15T07:59:59.800235018Z,,-4.66,-0.86,-0.52,1.21,-1.72,2.41,5.34,2.59,4.48,3.28,5.34,6.90,7.24,,,,,,,,,,,,,,
1799999999811985899,2027-01-15T07:59:59.811985899Z,,-3.28,-1.03,-0.69,2.07,-0.69,2.07,3.62,2.24,3.62,2.59,5.00,6.90,8.45,,,,,,,,,,,,,,
1799999999823736781,2027-01-15T07:59:59.823736781Z,,-1.90,-0.34,0.52,1.90,2.24,2.41,2.41,3.79,2.76,3.45,5.34,5.52,6.03,,,,,,,,,,,,,,
1799999999835487662,2027-01-15T07:59:59.835487662Z,,-0.17,1.03,1.38,1.72,1.72,1.72,2.59,1.90,2.93,3.28,5.52,5.86,5.17,,,,,,,,,,,,,,
1799999999847238543,2027-01-15T07:59:59.847238543Z,,1.21,1.72,1.38,1.90,1.21,1.72,3.10,0.52,4.31,4.31,4.48,5.17,5.86,,,,,,,,,,,,,,
1799999999858989425,2027-01-15T07:59:59.858989425Z,,0.69,1.90,0.69,1.90,0.00,2.41,2.24,1.21,5.34,5.00,4.14,5.34,5.52,,,,,,,,,,,,,,
1799999999870740306,2027-01-15T07:59:59.870740306Z,,1.21,2.93,-0.17,1.72,-0.86,2.93,2.07,2.24,4.14,5.00,5.00,4.83,5.52,,,,,,,,,,,,,,
1799999999882491187,2027-01-15T07:59:59.882491187Z,,0.17,1.21,0.00,2.07,-0.17,1.90,3.10,2.76,3.45,4.14,5.00,7.07,6.38,,,,,,,,,,,,,,
1799999999894242069,2027-01-15T07:59:59.894242069Z,,2.07,-2.24,1.90,1.90,2.59,1.03,2.76,2.07,3.28,5.34,5.17,6.38,6.38,,,,,,,,,,,,,,
1799999999905992950,2027-01-15T07:59:59.905992950Z,,1.03,-3.10,1.38,2.07,3.28,1.38,2.59,1.72,3.62,4.66,5.34,4.31,6.03,,,,,,,,,,,,,,
1799999999917743831,2027-01-15T07:59:59.917743831Z,,-2.76,-3.79,-0.52,2.07,3.97,2.07,1.90,3.10,3.28,2.59,4.31,6.03,7.76,,,,,,,,,,,,,,
1799999999929494713,2027-01-15T07:59:59.929494713Z,,-2.07,-3.97,-1.03,1.55,3.79,2.76,2.24,3.45,3.10,3.45,4.31,6.03,7.59,,,,,,,,,,,,,,
1799999999941245594,2027-01-15T07:59:59.941245594Z,-7.07,-1.03,-1.72,-1.90,-0.17,2.07,4.31,2.59,5.17,3.45,4.31,5.00,4.66,4.66,,,,,,,,,,,,,,
1799999999952996475,2027-01-15T07:59:59.952996475Z,-7.24,-0.34,-0.69,-0.17,-0.86,2.07,2.59,2.93,5.86,4.14,3.62,4.83,5.00,4.48,,,,,,,,,,,,,,
1799999999964747357,2027-01-15T07:59:59.964747357Z,,-0.34,-0.17,-0.34,-1.55,3.10,1.21,1.90,5.17,3.62,3.97,5.00,7.59,6.21,,,,,,,,,,,,,,
1799999999976498238,2027-01-15T07:59:59.976498238Z,,-0.34,-0.17,-0.52,-1.21,3.10,1.21,1.03,3.62,3.97,3.97,4.66,6.90,7.41,,,,,,,,,,,,,,
1799999999988249119,2027-01-15T07:59:59.988249119Z,,2.24,0.00,1.21,0.00,2.07,3.45,2.59,3.79,2.93,4.48,4.66,5.17,7.41,,,,,,,,,,,,,,
