# spacing_uv=20.0
timestamp_ns,timestamp_iso,AF3,F7,F3,FC5,T7,P7,O1,O2,P8,T8,FC6,F4,F8,AF4,AF3_q,F7_q,F3_q,FC5_q,T7_q,P7_q,O1_q,O2_q,P8_q,T8_q,FC6_q,F4_q,F8_q,AF4_q
1799999990000000000,2027-01-15T07:59:50.000000000Z,,,,,,,,,,,,,,,,,,,,,,,,,,,,
1799999990011098780,2027-01-15T07:59:50.011098780Z,-1.40,-0.20,-0.40,-1.00,1.60,1.20,,4.80,2.60,4.60,4.00,4.20,5.40,6.40,,,,,,,,,,,,,,
1799999990022197559,2027-01-15T07:59:50.022197559Z,1.20,-0.20,0.40,-0.40,3.60,1.20,1.60,4.60,2.80,5.40,4.20,4.60,6.40,6.20,,,,,,,,,,,,,,
1799999990033296338,2027-01-15T07:59:50.033296338Z,1.00,-0.60,1.00,1.00,6.00,2.00,2.60,4.60,4.40,6.80,4.00,6.00,7.00,5.40,,,,,,,,,,,,,,
1799999990044395117,2027-01-15T07:59:50.044395117Z,0.20,-0.60,-0.60,1.20,2.00,1.00,2.80,4.00,5.60,6.00,4.20,6.40,5.60,4.80,,,,,,,,,,,,,,
1799999990055493896,2027-01-15T07:59:50.055493896Z,-0.80,-0.60,-1.20,0.20,3.20,1.40,3.00,3.60,4.80,5.00,4.20,6.20,6.20,4.80,,,,,,,,,,,,,,
1799999990066592675,2027-01-15T07:59:50.066592675Z,-0.40,0.60,-0.60,0.00,4.60,1.00,3.40,3.40,3.80,4.60,2.60,6.20,6.80,7.00,,,,,,,,,,,,,,
1799999990077691454,2027-01-15T07:59:50.077691454Z,1.20,0.00,0.00,0.60,4.00,-0.20,3.40,2.80,4.20,4.60,2.40,6.00,6.20,8.60,,,,,,,,,,,,,,
1799999990088790234,2027-01-15T07:59:50.088790234Z,2.00,-1.20,-1.40,1.20,4.00,1.00,3.00,1.00,2.60,3.60,5.80,6.00,6.40,10.20,,,,,,,,,,,,,,
1799999990099889013,2027-01-15T07:59:50.099889013Z,-2.40,-0.40,-1.40,1.20,3.00,0.60,3.60,0.80,3.40,2.60,6.40,5.60,6.20,9.80,,,,,,,,,,,,,,
1799999990110987792,2027-01-15T07:59:50.110987792Z,-3.00,-0.80,-1.20,2.40,0.00,-0.60,4.80,3.20,4.40,3.60,5.40,5.00,7.00,7.80,,,,,,,,,,,,,,
1799999990122086571,2027-01-15T07:59:50.122086571Z,-2.20,-0.80,-1.80,1.00,-0.80,-2.20,3.20,1.60,2.00,5.20,5.80,5.60,6.60,7.20,,,,,,,,,,,,,,
1799999990133185350,2027-01-15T07:59:50.133185350Z,-2.00,-1.40,-1.80,0.80,1.60,-2.00,2.00,1.20,2.60,5.60,5.40,6.00,6.60,7.20,,,,,,,,,,,,,,
1799999990144284129,2027-01-15T07:59:50.144284129Z,-1.20,-1.80,-3.00,-0.40,3.00,-0.40,2.40,2.80,2.80,4.80,5.40,6.60,7.20,5.60,,,,,,,,,,,,,,
1799999990155382908,2027-01-15T07:59:50.155382908Z,-1.40,-0.40,-2.00,-0.20,2.00,-0.20,1.60,2.40,2.40,4.40,5.40,6.60,7.00,5.20,,,,,,,,,,,,,,
1799999990166481688,2027-01-15T07:59:50.166481688Z,-1.40,-1.20,-0.80,1.20,2.60,0.80,1.20,1.00,4.20,4.00,3.80,4.60,6.00,6.00,,,,,,,,,,,,,,
1799999990177580467,2027-01-15T07:59:50.177580467Z,-1.40,-0.60,-1.60,2.60,3.60,0.20,1.20,1.40,4.20,4.40,3.80,3.80,5.40,5.80,,,,,,,,,,,,,,
1799999990188679246,2027-01-15T07:59:50.188679246Z,-2.00,0.80,-1.40,2.00,4.20,-0.60,1.80,1.60,3.80,5.80,5.40,4.60,5.00,4.80,,,,,,,,,,,,,,
1799999990199778025,2027-01-15T07:59:50.199778025Z,-0.60,-0.40,-1.20,-0.80,2.20,1.60,3.60,1.00,6.80,5.40,4.80,5.80,6.60,7.20,,,,,,,,,,,,,,
1799999990210876804,2027-01-15T07:59:50.210876804Z,-2.20,-0.80,0.40,0.40,2.20,0.80,4.40,1.40,5.20,5.20,4.20,6.40,7.40,8.40,,,,,,,,,,,,,,
1799999990221975583,2027-01-15T07:59:50.221975583Z,-1.20,0.00,-0.40,2.80,2.80,1.20,3.80,3.80,2.00,5.20,4.80,5.40,6.80,7.40,,,,,,,,,,,,,,
1799999990233074362,2027-01-15T07:59:50.233074362Z,-2.80,1.20,-1.00,2.20,3.00,2.40,3.80,4.60,3.40,4.60,4.80,4.80,6.60,7.20,,,,,,,,,,,,,,
1799999990244173141,2027-01-15T07:59:50.244173141Z,-3.00,2.00,2.20,2.80,2.80,1.80,2.00,4.20,6.60,3.40,5.40,4.80,7.40,6.80,,,,,,,,,,,,,,
1799999990255271921,2027-01-15T07:59:50.255271921Z,-1.20,1.20,1.20,1.00,0.40,2.20,-0.40,2.60,4.80,4.40,6.00,5.00,6.60,6.40,,,,,,,,,,,,,,
1799999990266370700,2027-01-15T07:59:50.266370700Z,0.00,1.00,-0.40,0.00,0.00,1.60,0.00,2.80,3.40,4.20,5.00,5.40,7.00,7.00,,,,,,,,,,,,,,
1799999990277469479,2027-01-15T07:59:50.277469479Z,-2.00,-2.20,-0.40,-0.80,2.20,1.80,2.00,3.40,3.60,4.20,4.40,5.40,7.00,7.60,,,,,,,,,,,,,,
1799999990288568258,2027-01-15T07:59:50.288568258Z,-3.60,-1.40,-1.20,-2.20,2.80,2.40,2.40,3.60,5.00,4.80,4.40,4.80,6.40,6.60,,,,,,,,,,,,,,
1799999990299667037,2027-01-15T07:59:50.299667037Z,0.40,0.00,-1.00,-1.00,0.80,1.60,1.40,4.00,4.40,3.60,3.40,6.00,6.00,6.40,,,,,,,,,,,,,,
1799999990310765816,2027-01-15T07:59:50.310765816Z,0.20,-0.20,-0.40,0.20,0.80,2.60,2.80,3.80,3.20,3.40,3.60,6.80,6.40,6.60,,,,,,,,,,,,,,
1799999990321864595,2027-01-15T07:59:50.321864595Z,0.80,0.80,0.40,2.00,-0.80,2.80,3.80,4.20,3.80,5.20,4.60,7.60,7.00,6.60,,,,,,,,,,,,,,
1799999990332963375,2027-01-15T07:59:50.332963375Z,0.80,-2.40,0.00,1.80,-1.20,0.80,1.40,3.20,5.40,4.60,5.60,5.00,6.60,6.00,,,,,,,,,,,,,,
1799999990344062154,2027-01-15T07:59:50.344062154Z,1.00,-0.40,0.60,1.20,-1.20,1.00,1.60,2.40,4.60,4.20,4.60,3.80,6.60,6.60,,,,,,,,,,,,,,
1799999990355160933,2027-01-15T07:59:50.355160933Z,-1.00,0.60,0.40,1.40,0.20,1.40,2.20,2.00,3.40,4.80,4.80,4.80,6.00,7.60,,,,,,,,,,,,,,
1799999990366259712,2027-01-15T07:59:50.366259712Z,-0.80,-2.60,0.60,0.60,0.80,4.00,2.00,2.60,4.20,4.80,5.00,5.40,5.80,7.00,,,,,,,,,,,,,,
1799999990377358491,2027-01-15T07:59:50.377358491Z,0.60,-1.40,1.80,-0.40,1.80,4.80,3.40,4.40,4.60,4.60,5.00,5.40,5.20,6.40,,,,,,,,,,,,,,
1799999990388457270,2027-01-15T07:59:50.388457270Z,-1.20,-1.60,1.20,0.20,1.00,3.40,2.40,5.00,4.20,5.00,5.20,5.00,4.80,5.60,,,,,,,,,,,,,,
1799999990399556049,2027-01-15T07:59:50.399556049Z,-1.80,-2.20,0.80,1.20,1.20,1.80,0.20,4.00,4.60,3.80,5.80,4.40,5.00,4.40,,,,,,,,,,,,,,
1799999990410654828,2027-01-15T07:59:50.410654828Z,-2.40,-2.40,1.00,1.40,-0.60,2.80,1.40,3.60,7.20,4.40,3.20,5.40,7.00,6.00,,,,,,,,,,,,,,
1799999990421753608,2027-01-15T07:59:50.421753608Z,0.20,-2.40,0.80,0.80,-1.20,2.80,2.20,4.00,6.20,3.60,3.80,6.20,7.80,7.00,,,,,,,,,,,,,,
1799999990432852387,2027-01-15T07:59:50.432852387Z,0.60,-1.60,1.80,1.00,0.00,3.60,2.20,3.40,3.80,2.40,6.80,5.00,6.20,7.60,,,,,,,,,,,,,,
1799999990443951166,2027-01-15T07:59:50.443951166Z,-0.40,-0.80,3.20,1.60,1.40,2.00,2.20,3.40,3.60,3.60,5.60,4.20,6.40,7.00,,,,,,,,,,,,,,
1799999990455049945,2027-01-15T07:59:50.455049945Z,0.00,-0.60,2.40,2.80,1.00,1.00,2.40,4.40,3.00,4.80,3.60,6.20,6.20,6.20,,,,,,,,,,,,,,
1799999990466148724,2027-01-15T07:59:50.466148724Z,1.60,-1.80,0.60,2.80,0.80,1.40,2.00,5.00,3.40,4.40,4.20,7.00,5.40,6.20,,,,,,,,,,,,,,
1799999990477247503,2027-01-15T07:59:50.477247503Z,-0.40,-1.80,-2.40,1.20,-0.40,2.40,1.00,4.40,3.00,5.20,6.20,6.00,5.00,5.40,,,,,,,,,,,,,,
1799999990488346282,2027-01-15T07:59:50.488346282Z,0.00,0.20,-1.00,0.40,0.00,2.20,0.60,4.40,2.60,5.00,6.40,5.60,5.20,6.00,,,,,,,,,,,,,,
1799999990499445062,2027-01-15T07:59:50.499445062Z,0.60,-0.40,0.20,-0.80,0.20,2.40,1.60,3.60,2.60,4.60,7.00,6.20,5.00,6.20,,,,,,,,,,,,,,
1799999990510543841,2027-01-15T07:59:50.510543841Z,-1.40,-1.40,0.20,0.40,0.60,1.40,3.60,0.80,3.00,5.00,5.80,6.60,6.20,6.40,,,,,,,,,,,,,,
1799999990521642620,2027-01-15T07:59:50.521642620Z,-1.20,-0.80,-0.40,1.00,2.20,1.20,4.00,1.00,3.40,4.40,4.60,6.00,6.60,7.00,,,,,,,,,,,,,,
1799999990532741399,2027-01-15T07:59:50.532741399Z,-2.00,-2.00,0.80,1.60,3.80,1.80,4.00,3.20,3.60,3.00,3.80,5.60,5.20,7.40,,,,,,,,,,,,,,
1799999990543840178,2027-01-15T07:59:50.543840178Z,-1.00,-0.60,-0.20,1.20,2.40,1.20,3.40,2.60,4.60,3.80,6.80,6.40,6.00,7.60,,,,,,,,,,,,,,
1799999990554938957,2027-01-15T07:59:50.554938957Z,1.00,0.60,-0.40,1.00,1.60,1.80,3.00,2.40,5.40,4.40,8.00,6.40,7.00,6.60,,,,,,,,,,,,,,
1799999990566037736,2027-01-15T07:59:50.566037736Z,-1.60,1.20,-0.60,1.00,0.20,3.40,2.40,3.40,3.80,5.20,6.40,6.80,7.00,6.40,,,,,,,,,,,,,,
1799999990577136515,2027-01-15T07:59:50.577136515Z,-1.80,1.80,-0.20,0.80,0.20,3.60,1.80,3.60,2.60,4.40,5.40,6.60,6.00,5.80,,,,,,,,,,,,,,
1799999990588235295,2027-01-15T07:59:50.588235295Z,0.00,-1.60,-1.00,-0.40,0.00,3.00,1.40,3.00,1.80,4.80,5.00,5.60,5.80,6.60,,,,,,,,,,,,,,
1799999990599334074,2027-01-15T07:59:50.599334074Z,-0.60,-3.00,-1.60,-0.20,-0.60,1.20,1.80,2.80,2.20,5.00,4.60,5.40,5.80,6.80,,,,,,,,,,,,,,
1799999990610432853,2027-01-15T07:59:50.610432853Z,-0.80,-1.20,0.00,1.00,-0.80,-1.00,2.20,3.20,5.20,3.00,3.80,5.60,7.00,6.40,,,,,,,,,,,,,,
1799999990621531632,2027-01-15T07:59:50.621531632Z,-1.60,-2.40,0.80,2.60,1.00,1.40,3.60,2.00,5.20,2.80,5.60,6.20,6.80,5.20,,,,,,,,,,,,,,
1799999990632630411,2027-01-15T07:59:50.632630411Z,-2.20,-1.80,0.60,2.20,1.80,2.80,4.40,1.80,5.40,3.60,6.40,5.60,6.00,5.00,,,,,,,,,,,,,,
1799999990643729190,2027-01-15T07:59:50.643729190Z,-0.40,1.00,0.20,2.00,0.60,1.00,2.20,2.20,5.20,4.60,5.20,5.20,6.20,4.80,,,,,,,,,,,,,,
1799999990654827969,2027-01-15T07:59:50.654827969Z,1.60,0.60,-0.40,0.60,1.00,2.00,2.40,1.80,4.00,4.60,5.40,5.40,6.80,4.80,,,,,,,,,,,,,,
1799999990665926749,2027-01-15T07:59:50.665926749Z,0.60,-0.20,0.40,-0.40,1.60,3.60,2.80,2.40,3.00,3.80,5.20,6.20,6.20,7.80,,,,,,,,,,,,,,
1799999990677025528,2027-01-15T07:59:50.677025528Z,0.20,-0.80,0.80,-0.60,1.00,2.80,3.40,2.40,4.20,4.00,4.00,6.20,5.80,9.00,,,,,,,,,,,,,,
1799999990688124307,2027-01-15T07:59:50.688124307Z,0.20,-2.20,-0.40,-2.00,-0.20,1.00,3.80,1.40,3.20,4.80,4.00,6.80,5.40,7.60,,,,,,,,,,,,,,
1799999990699223086,2027-01-15T07:59:50.699223086Z,-3.60,-0.60,-0.40,0.00,-1.20,1.40,2.40,3.20,3.20,5.20,4.80,6.00,6.00,7.40,,,,,,,,,,,,,,
1799999990710321865,2027-01-15T07:59:50.710321865Z,-1.80,-0.40,-0.20,1.40,-0.40,1.00,3.80,2.80,3.20,5.00,5.20,5.60,6.60,6.60,,,,,,,,,,,,,,
1799999990721420644,2027-01-15T07:59:50.721420644Z,-1.60,-1.20,0.40,-0.60,1.40,1.80,4.20,2.80,4.60,5.40,4.60,5.00,7.00,5.40,,,,,,,,,,,,,,
1799999990732519423,2027-01-15T07:59:50.732519423Z,0.80,-1.00,0.00,-0.80,0.60,2.80,3.00,4.40,4.00,5.40,3.80,4.80,7.40,5.80,,,,,,,,,,,,,,
1799999990743618202,2027-01-15T07:59:50.743618202Z,0.20,-1.60,-1.60,2.00,1.00,1.80,3.80,5.80,2.00,4.40,4.20,5.40,7.20,7.20,,,,,,,,,,,,,,
1799999990754716982,2027-01-15T07:59:50.754716982Z,-0.60,0.00,-1.60,2.20,-0.80,0.20,2.60,6.40,4.20,5.00,5.00,6.20,6.40,7.80,,,,,,,,,,,,,,
1799999990765815761,2027-01-15T07:59:50.765815761Z,0.00,0.20,-1.60,1.60,-1.20,0.20,3.00,5.80,5.60,4.80,5.00,5.20,7.40,8.00,,,,,,,,,,,,,,
1799999990776914540,2027-01-15T07:59:50.776914540Z,0.40,0.20,-2.00,1.20,0.20,1.80,3.80,4.00,4.40,4.20,3.80,4.60,7.20,7.40,,,,,,,,,,,,,,
1799999990788013319,2027-01-15T07:59:50.788013319Z,-0.60,0.20,-1.60,0.20,2.60,2.00,3.20,3.40,3.40,3.40,3.40,5.00,6.80,7.60,,,,,,,,,,,,,,
1799999990799112098,2027-01-15T07:59:50.799112098Z,-0.20,-0.20,0.80,-0.40,1.40,-0.40,2.60,1.60,4.00,4.20,4.00,6.20,5.40,7.20,,,,,,,,,,,,,,
1799999990810210877,2027-01-15T07:59:50.810210877Z,-2.20,-1.00,-0.20,0.20,2.20,-1.00,2.00,1.80,5.00,4.60,3.80,6.20,5.60,6.60,,,,,,,,,,,,,,
1799999990821309656,2027-01-15T07:59:50.821309656Z,-1.00,-2.00,-1.20,1.00,2.80,0.80,2.80,1.80,3.80,5.00,3.80,6.40,5.80,7.00,,,,,,,,,,,,,,
1799999990832408436,2027-01-15T07:59:50.832408436Z,1.00,-1.00,2.00,-0.20,2.20,2.80,4.80,1.60,5.00,4.80,4.40,7.00,5.40,6.20,,,,,,,,,,,,,,
1799999990843507215,2027-01-15T07:59:50.843507215Z,1.40,-1.00,2.00,0.80,1.80,2.60,4.80,1.80,4.20,5.40,4.00,6.80,5.40,6.60,,,,,,,,,,,,,,
1799999990854605994,2027-01-15T07:59:50.854605994Z,0.00,0.40,-0.20,1.80,2.20,2.40,3.00,1.80,2.00,5.20,2.40,7.00,6.20,6.60,,,,,,,,,,,,,,
1799999990865704773,2027-01-15T07:59:50.865704773Z,-0.40,0.00,-0.40,1.40,2.00,3.20,2.00,2.20,2.00,4.00,4.00,7.00,6.00,6.20,,,,,,,,,,,,,,
1799999990876803552,2027-01-15T07:59:50.876803552Z,-2.20,-1.80,-2.00,0.00,2.60,2.80,2.40,2.40,2.40,3.00,5.60,6.60,4.80,7.00,,,,,,,,,,,,,,
1799999990887902331,2027-01-15T07:59:50.887902331Z,-2.40,-2.20,-1.00,0.60,3.20,2.00,3.00,1.80,1.80,3.80,4.40,5.00,5.40,7.00,,,,,,,,,,,,,,
1799999990899001110,2027-01-15T07:59:50.899001110Z,1.20,-2.40,1.60,1.40,3.00,0.60,2.60,2.40,2.40,5.20,5.40,2.60,6.60,7.20,,,,,,,,,,,,,,
1799999990910099890,2027-01-15T07:59:50.910099890Z,0.40,-0.60,-0.80,0.40,0.40,0.80,3.00,3.40,4.20,4.80,5.80,4.40,6.20,5.80,,,,,,,,,,,,,,
1799999990921198669,2027-01-15T07:59:50.921198669Z,-0.20,0.60,-2.60,0.40,1.20,1.00,2.20,3.40,5.20,4.20,5.60,5.60,6.00,5.60,,,,,,,,,,,,,,
1799999990932297448,2027-01-15T07:59:50.932297448Z,1.80,-1.80,-0.60,1.60,2.80,0.60,1.00,3.00,4.00,5.20,6.40,5.40,6.60,7.00,,,,,,,,,,,,,,
1799999990943396227,2027-01-15T07:59:50.943396227Z,0.60,-3.20,0.20,1.60,2.60,0.80,2.00,2.40,3.40,5.80,5.40,5.00,7.20,7.00,,,,,,,,,,,,,,
1799999990954495006,2027-01-15T07:59:50.954495006Z,-0.60,-1.60,0.00,0.40,2.40,2.20,3.00,2.00,2.20,5.40,3.00,6.60,8.00,6.80,,,,,,,,,,,,,,
1799999990965593785,2027-01-15T07:59:50.965593785Z,0.60,0.20,0.20,-0.40,1.80,3.80,3.00,3.40,3.20,5.60,5.20,6.20,6.80,7.00,,,,,,,,,,,,,,
1799999990976692564,2027-01-15T07:59:50.976692564Z,1.00,1.60,0.60,0.80,0.60,4.20,2.20,4.20,4.20,6.00,6.20,5.60,6.20,7.00,,,,,,,,,,,,,,
1799999990987791343,2027-01-15T07:59:50.987791343Z,-1.80,-0.60,1.20,2.80,1.00,3.00,2.40,4.20,3.80,5.20,4.80,6.00,6.60,5.60,,,,,,,,,,,,,,
1799999990998890123,2027-01-15T07:59:50.998890123Z,0.20,-1.40,0.00,1.40,1.20,2.00,2.80,3.00,3.80,4.80,4.80,6.80,7.40,6.20,,,,,,,,,,,,,,
1799999991009988902,2027-01-15T07:59:51.009988902Z,0.20,0.00,-1.00,-0.80,2.20,1.40,2.40,2.40,4.40,3.60,3.20,6.00,7.40,6.60,,,,,,,,,,,,,,
1799999991021087681,2027-01-15T07:59:51.021087681Z,0.20,1.40,-0.80,0.60,1.60,0.40,1.80,2.60,4.20,3.80,3.40,5.60,6.20,6.00,,,,,,,,,,,,,,
1799999991032186460,2027-01-15T07:59:51.032186460Z,-1.20,1.20,-1.20,1.40,0.80,-1.00,2.20,3.40,2.60,4.80,4.80,6.40,4.80,6.80,,,,,,,,,,,,,,
1799999991043285239,2027-01-15T07:59:51.043285239Z,0.20,1.60,0.60,-0.60,0.40,2.00,2.20,3.40,4.80,3.80,5.60,4.20,5.80,7.00,,,,,,,,,,,,,,
1799999991054384018,2027-01-15T07:59:51.054384018Z,-1.20,0.40,-0.20,-1.60,0.60,3.40,2.40,2.60,6.40,3.20,6.20,3.40,6.20,7.20,,,,,,,,,,,,,,
1799999991065482797,2027-01-15T07:59:51.065482797Z,0.40,-2.20,-1.40,-0.40,0.80,2.00,1.20,2.60,8.60,4.40,6.40,6.20,7.80,7.20,,,,,,,,,,,,,,
1799999991076581577,2027-01-15T07:59:51.076581577Z,-1.00,-2.00,-0.60,0.80,0.00,1.80,1.60,2.80,6.80,5.20,6.80,7.60,7.40,7.80,,,,,,,,,,,,,,
1799999991087680356,2027-01-15T07:59:51.087680356Z,-1.80,-1.60,0.40,0.80,0.80,3.40,3.80,2.20,5.00,5.00,6.00,6.40,5.20,6.80,,,,,,,,,,,,,,
1799999991098779135,2027-01-15T07:59:51.098779135Z,0.40,-1.80,0.00,1.40,0.20,2.20,3.80,1.80,4.40,4.20,4.80,5.40,5.20,5.80,,,,,,,,,,,,,,
1799999991109877914,2027-01-15T07:59:51.109877914Z,0.00,-2.20,-0.20,1.60,-0.60,0.40,3.60,1.60,2.20,4.00,4.80,5.00,4.60,7.40,,,,,,,,,,,,,,
1799999991120976693,2027-01-15T07:59:51.120976693Z,1.00,-1.60,1.60,0.00,-0.20,-0.60,2.20,4.20,3.80,5.20,5.20,6.40,5.40,7.60,,,,,,,,,,,,,,
1799999991132075472,2027-01-15T07:59:51.132075472Z,1.40,-2.40,1.00,-1.00,0.60,0.00,1.60,4.20,5.00,5.80,4.60,7.00,6.20,8.20,,,,,,,,,,,,,,
1799999991143174251,2027-01-15T07:59:51.143174251Z,,-2.40,-0.80,-0.40,0.80,2.80,2.80,2.20,6.20,5.40,3.40,6.00,5.80,7.60,,,,,,,,,,,,,,
1799999991154273030,2027-01-15T07:59:51.154273030Z,-2.20,-1.60,-1.00,0.80,0.60,2.00,3.00,2.80,5.20,4.00,4.00,5.80,6.00,7.20,,,,,,,,,,,,,,
1799999991165371810,2027-01-15T07:59:51.165371810Z,-1.00,-2.20,-0.60,2.20,2.00,0.80,2.20,3.80,4.00,2.60,3.80,5.20,6.20,6.60,,,,,,,,,,,,,,
1799999991176470589,2027-01-15T07:59:51.176470589Z,-0.80,0.40,-0.40,1.80,0.20,2.60,3.20,2.60,4.40,3.20,5.20,5.20,5.80,6.60,,,,,,,,,,,,,,
1799999991187569368,2027-01-15T07:59:51.187569368Z,-1.80,1.00,-1.00,1.80,-1.00,2.40,3.80,3.00,4.00,2.80,6.20,5.40,5.80,6.40,,,,,,,,,,,,,,
1799999991198668147,2027-01-15T07:59:51.198668147Z,-0.80,-1.00,-1.00,2.40,0.20,2.80,2.20,3.40,5.20,3.60,5.80,4.00,5.60,5.00,,,,,,,,,,,,,,
1799999991209766926,2027-01-15T07:59:51.209766926Z,0.00,-0.40,-0.20,2.40,1.00,3.40,1.60,5.00,5.60,4.40,5.00,4.60,5.80,4.80,,,,,,,,,,,,,,
1799999991220865705,2027-01-15T07:59:51.220865705Z,1.20,0.60,1.20,2.00,3.20,2.20,1.20,3.60,2.80,4.60,4.40,6.40,6.00,6.40,,,,,,,,,,,,,,
1799999991231964484,2027-01-15T07:59:51.231964484Z,-0.80,0.00,0.40,1.60,2.60,2.00,1.40,1.20,2.60,3.60,4.80,6.20,6.60,7.20,,,,,,,,,,,,,,
1799999991243063264,2027-01-15T07:59:51.243063264Z,-1.00,1.60,-1.80,0.60,0.80,0.80,1.40,2.00,3.20,3.00,5.40,5.80,7.00,8.20,,,,,,,,,,,,,,
1799999991254162043,2027-01-15T07:59:51.254162043Z,-1.20,1.00,-0.60,-0.40,0.80,-0.40,0.80,1.40,1.00,4.20,5.40,6.40,6.60,7.40,,,,,,,,,,,,,,
1799999991265260822,2027-01-15T07:59:51.265260822Z,1.00,0.40,0.40,-0.20,0.40,-0.40,2.20,3.60,2.00,3.80,5.60,6.20,6.20,7.40,,,,,,,,,,,,,,
1799999991276359601,2027-01-15T07:59:51.276359601Z,1.00,0.00,0.20,0.20,1.00,1.60,5.20,5.00,3.40,3.60,4.20,6.40,5.60,7.80,,,,,,,,,,,,,,
1799999991287458380,2027-01-15T07:59:51.287458380Z,-3.00,-0.60,-0.60,0.20,1.80,1.80,4.40,4.80,2.80,3.40,3.40,6.40,5.80,8.20,,,,,,,,,,,,,,
1799999991298557159,2027-01-15T07:59:51.298557159Z,-0.80,-1.60,0.80,0.00,1.20,1.20,1.80,4.20,2.40,5.00,4.40,5.60,6.00,8.00,,,,,,,,,,,,,,
1799999991309655938,2027-01-15T07:59:51.309655938Z,0.60,-1.40,1.40,0.20,1.40,2.20,1.40,3.80,3.00,5.00,5.00,5.80,6.20,7.40,,,,,,,,,,,,,,
1799999991320754717,2027-01-15T07:59:51.320754717Z,0.40,-0.20,1.20,0.20,1.80,3.40,0.00,4.20,3.40,2.20,5.40,6.80,6.60,6.80,,,,,,,,,,,,,,
1799999991331853497,2027-01-15T07:59:51.331853497Z,0.60,-1.00,1.80,0.80,1.40,1.60,0.60,3.00,2.20,4.20,4.20,6.60,6.40,5.60,,,,,,,,,,,,,,
1799999991342952276,2027-01-15T07:59:51.342952276Z,-0.60,-1.00,1.40,1.00,1.20,1.00,-0.40,2.40,2.00,5.60,5.20,6.60,6.60,5.00,,,,,,,,,,,,,,
1799999991354051055,2027-01-15T07:59:51.354051055Z,0.80,-0.40,-0.60,0.40,0.60,2.00,0.80,4.40,2.80,3.80,5.40,6.80,6.20,4.80,,,,,,,,,,,,,,
1799999991365149834,2027-01-15T07:59:51.365149834Z,-0.20,-0.20,0.40,0.40,0.60,2.20,2.20,4.20,3.20,4.20,4.60,6.20,5.80,5.40,,,,,,,,,,,,,,
1799999991376248613,2027-01-15T07:59:51.376248613Z,-0.20,-1.40,2.20,0.60,2.00,1.20,4.00,3.60,3.60,5.40,5.20,4.80,6.60,7.60,,,,,,,,,,,,,,
1799999991387347392,2027-01-15T07:59:51.387347392Z,0.20,-2.40,1.00,0.60,2.20,2.20,3.00,3.20,3.00,5.00,6.00,4.60,6.80,8.00,,,,,,,,,,,,,,
1799999991398446171,2027-01-15T07:59:51.398446171Z,0.20,-1.20,-2.20,-1.00,2.60,3.40,2.00,1.60,2.00,3.80,4.40,4.60,7.00,7.00,,,,,,,,,,,,,,
1799999991409544951,2027-01-15T07:59:51.409544951Z,0.20,0.00,-2.40,-0.40,-0.40,1.20,2.60,2.20,4.00,4.20,5.00,6.80,6.40,8.60,,,,,,,,,,,,,,
1799999991420643730,2027-01-15T07:59:51.420643730Z,-2.60,-0.40,-0.80,0.60,-2.20,1.40,3.00,1.60,4.20,4.40,4.80,7.20,7.00,8.80,,,,,,,,,,,,,,
1799999991431742509,2027-01-15T07:59:51.431742509Z,,-1.40,0.40,2.00,-1.40,1.60,3.60,1.40,5.20,4.20,4.80,4.20,6.20,7.00,,,,,,,,,,,,,,
1799999991442841288,2027-01-15T07:59:51.442841288Z,-2.20,-0.60,-0.80,2.00,0.60,0.80,4.20,2.40,6.00,4.80,4.60,4.40,5.40,7.20,,,,,,,,,,,,,,
1799999991453940067,2027-01-15T07:59:51.453940067Z,-2.40,1.00,-2.00,0.40,-1.60,1.60,5.40,4.20,4.40,5.60,3.40,5.80,5.60,8.40,,,,,,,,,,,,,,
1799999991465038846,2027-01-15T07:59:51.465038846Z,-1.20,-0.20,-0.40,-2.00,0.80,3.20,3.40,2.40,3.80,3.60,4.80,6.40,6.20,7.40,,,,,,,,,,,,,,
1799999991476137625,2027-01-15T07:59:51.476137625Z,-1.80,-0.60,0.20,-1.40,1.40,3.20,2.40,1.40,4.00,3.40,4.00,6.80,6.20,6.40,,,,,,,,,,,,,,
1799999991487236404,2027-01-15T07:59:51.487236404Z,-3.20,-1.40,-0.60,1.00,1.40,3.40,3.60,1.40,2.60,2.40,3.00,5.40,6.00,6.40,,,,,,,,,,,,,,
1799999991498335184,2027-01-15T07:59:51.498335184Z,-3.40,-2.20,0.00,1.40,2.60,3.00,3.40,1.20,2.00,2.80,2.80,5.20,6.40,7.00,,,,,,,,,,,,,,
1799999991509433963,2027-01-15T07:59:51.509433963Z,-2.60,-2.80,0.00,1.80,2.60,2.40,3.80,2.20,4.60,5.00,3.20,5.80,8.60,8.20,,,,,,,,,,,,,,
1799999991520532742,2027-01-15T07:59:51.520532742Z,0.00,-2.20,-1.00,2.00,1.60,2.20,3.60,2.20,5.00,5.00,4.20,5.60,8.20,7.40,,,,,,,,,,,,,,
1799999991531631521,2027-01-15T07:59:51.531631521Z,0.00,-0.80,-1.40,1.20,2.00,0.60,3.20,1.40,3.40,5.00,5.80,4.80,7.40,6.20,,,,,,,,,,,,,,
1799999991542730300,2027-01-15T07:59:51.542730300Z,0.20,-0.60,0.20,1.00,2.00,-0.60,2.20,2.40,2.40,5.40,5.20,5.60,6.60,5.60,,,,,,,,,,,,,,
1799999991553829079,2027-01-15T07:59:51.553829079Z,0.40,-1.20,0.40,0.40,-1.40,-0.40,1.20,2.20,2.60,5.00,5.20,6.00,6.00,5.40,,,,,,,,,,,,,,
1799999991564927858,2027-01-15T07:59:51.564927858Z,-1.20,-1.60,-0.80,0.20,-2.40,0.00,1.40,2.40,5.00,5.80,4.60,5.40,5.60,6.40,,,,,,,,,,,,,,
1799999991576026638,2027-01-15T07:59:51.576026638Z,0.00,0.00,-1.20,0.20,-0.80,1.20,1.60,3.00,5.60,5.80,4.40,4.20,5.60,6.20,,,,,,,,,,,,,,
1799999991587125417,2027-01-15T07:59:51.587125417Z,-1.40,-0.40,-1.20,1.00,0.40,3.20,1.60,4.20,3.80,4.60,5.40,6.20,8.80,6.00,,,,,,,,,,,,,,
1799999991598224196,2027-01-15T07:59:51.598224196Z,-0.40,-0.60,-1.00,1.60,-0.40,1.80,1.40,4.20,3.00,4.80,5.60,6.60,8.40,6.40,,,,,,,,,,,,,,
1799999991609322975,2027-01-15T07:59:51.609322975Z,-0.80,-0.20,-2.40,1.40,3.20,-0.80,2.40,5.00,3.00,5.00,5.80,6.00,5.00,6.60,,,,,,,,,,,,,,
1799999991620421754,2027-01-15T07:59:51.620421754Z,0.40,-0.20,-1.20,1.40,-0.20,-0.20,3.00,3.40,5.40,4.40,5.00,4.60,6.20,7.60,,,,,,,,,,,,,,
1799999991631520533,2027-01-15T07:59:51.631520533Z,0.00,0.60,-0.80,1.20,-0.20,-0.40,2.60,2.80,6.40,3.40,4.40,4.60,7.40,7.00,,,,,,,,,,,,,,
1799999991642619312,2027-01-15T07:59:51.642619312Z,-0.40,1.00,-0.40,1.20,3.60,-0.20,1.20,3.80,3.80,3.80,3.80,5.60,6.00,6.80,,,,,,,,,,,,,,
1799999991653718092,2027-01-15T07:59:51.653718092Z,0.00,0.20,0.40,1.80,1.00,0.40,1.00,3.60,2.20,4.60,4.60,6.60,5.40,7.40,,,,,,,,,,,,,,
1799999991664816871,2027-01-15T07:59:51.664816871Z,0.00,-0.20,-0.20,2.40,-2.80,2.60,2.80,3.00,3.20,3.00,4.80,6.80,6.00,6.60,,,,,,,,,,,,,,
1799999991675915650,2027-01-15T07:59:51.675915650Z,0.80,-0.20,1.00,1.40,1.40,3.00,3.00,5.60,3.80,3.60,3.00,7.00,6.20,5.40,,,,,,,,,,,,,,
1799999991687014429,2027-01-15T07:59:51.687014429Z,0.00,-1.20,1.40,1.00,2.00,2.40,2.80,5.40,4.20,4.60,3.20,6.20,6.00,5.00,,,,,,,,,,,,,,
1799999991698113208,2027-01-15T07:59:51.698113208Z,-0.20,-0.60,0.60,0.80,1.80,2.00,2.00,3.80,4.40,4.40,4.40,5.20,5.40,6.20,,,,,,,,,,,,,,
1799999991709211987,2027-01-15T07:59:51.709211987Z,-0.60,0.00,0.40,0.80,3.40,2.60,2.60,5.20,3.80,4.40,3.80,5.60,5.40,7.20,,,,,,,,,,,,,,
1799999991720310766,2027-01-15T07:59:51.720310766Z,-0.40,-0.60,-0.40,0.40,4.40,1.80,2.20,3.20,3.80,6.20,4.20,6.00,5.80,5.80,,,,,,,,,,,,,,
1799999991731409545,2027-01-15T07:59:51.731409545Z,-0.20,-1.00,-1.20,0.80,4.20,2.60,2.40,2.40,4.20,5.00,4.80,5.80,5.40,6.00,,,,,,,,,,,,,,
1799999991742508325,2027-01-15T07:59:51.742508325Z,-0.60,0.40,-0.20,1.00,2.20,4.00,2.40,3.60,4.20,2.40,5.40,4.80,4.80,7.40,,,,,,,,,,,,,,
1799999991753607104,2027-01-15T07:59:51.753607104Z,-0.20,1.00,-1.00,0.60,2.40,2.60,2.20,3.00,2.80,3.40,6.00,5.20,5.40,7.40,,,,,,,,,,,,,,
1799999991764705883,2027-01-15T07:59:51.764705883Z,-1.00,0.00,-1.00,-0.40,3.20,1.80,2.40,2.60,3.80,3.60,7.20,6.00,5.40,6.40,,,,,,,,,,,,,,
1799999991775804662,2027-01-15T07:59:51.775804662Z,0.60,-0.60,0.80,0.20,3.00,1.60,0.60,2.00,3.80,2.60,5.60,6.80,5.60,5.80,,,,,,,,,,,,,,
1799999991786903441,2027-01-15T07:59:51.786903441Z,1.60,-0.20,1.00,0.60,2.20,1.80,1.00,2.80,5.20,4.20,4.80,6.20,5.40,6.80,,,,,,,,,,,,,,
1799999991798002220,2027-01-15T07:59:51.798002220Z,0.00,-0.60,0.80,1.80,1.80,3.00,2.40,4.20,8.40,5.40,7.60,6.80,6.40,6.60,,,,,,,,,,,,,,
1799999991809100999,2027-01-15T07:59:51.809100999Z,0.20,-0.80,0.20,2.40,0.80,1.60,2.80,5.00,8.00,5.20,7.40,6.00,6.60,6.00,,,,,,,,,,,,,,
1799999991820199779,2027-01-15T07:59:51.820199779Z,-1.60,-1.20,1.40,2.40,-0.80,0.20,3.60,3.20,4.60,4.00,5.60,5.20,5.60,5.40,,,,,,,,,,,,,,
1799999991831298558,2027-01-15T07:59:51.831298558Z,-2.20,-1.60,1.00,0.80,-2.00,2.40,3.40,1.60,2.80,4.40,4.00,7.00,5.60,7.40,,,,,,,,,,,,,,
1799999991842397337,2027-01-15T07:59:51.842397337Z,0.40,-2.60,0.80,0.40,-2.60,2.20,2.60,2.00,3.80,4.20,4.00,7.40,6.00,8.20,,,,,,,,,,,,,,
1799999991853496116,2027-01-15T07:59:51.853496116Z,-1.00,0.20,0.00,0.80,0.20,0.40,4.20,2.20,6.80,4.40,5.00,5.00,5.60,7.60,,,,,,,,,,,,,,
1799999991864594895,2027-01-15T07:59:51.864594895Z,1.00,0.80,-0.40,0.40,3.00,0.20,5.40,1.60,6.80,4.20,4.80,3.40,5.40,6.60,,,,,,,,,,,,,,
1799999991875693674,2027-01-15T07:59:51.875693674Z,-1.40,-0.20,-1.00,-0.40,1.60,0.40,3.00,2.40,4.40,3.60,5.60,3.00,6.00,5.40,,,,,,,,,,,,,,
1799999991886792453,2027-01-15T07:59:51.886792453Z,-0.80,-0.20,-1.20,-0.20,2.00,1.00,2.20,2.20,2.40,3.00,5.00,5.60,5.60,6.60,,,,,,,,,,,,,,
1799999991897891232,2027-01-15T07:59:51.897891232Z,-0.40,-0.40,-0.60,1.20,-0.40,0.80,2.00,1.40,2.00,3.80,4.00,7.40,5.40,6.60,,,,,,,,,,,,,,
1799999991908990012,2027-01-15T07:59:51.908990012Z,-1.00,-0.60,-0.80,0.80,1.60,1.80,3.40,1.00,2.80,5.00,4.80,6.20,5.00,7.20,,,,,,,,,,,,,,
1799999991920088791,2027-01-15T07:59:51.920088791Z,1.80,0.20,-1.40,-0.40,4.20,1.20,2.60,1.00,4.40,4.80,5.00,5.80,5.80,8.20,,,,,,,,,,,,,,
1799999991931187570,2027-01-15T07:59:51.931187570Z,1.40,-0.60,-2.20,0.40,3.60,1.40,1.80,2.00,5.20,4.40,4.60,5.60,8.20,7.80,,,,,,,,,,,,,,
1799999991942286349,2027-01-15T07:59:51.942286349Z,-1.60,-2.20,-2.20,-0.20,1.00,1.80,2.60,2.00,5.00,4.00,5.00,5.60,8.00,7.40,,,,,,,,,,,,,,
1799999991953385128,2027-01-15T07:59:51.953385128Z,-0.60,-3.20,-1.40,-0.40,0.40,0.80,4.00,3.00,4.40,4.60,6.00,6.00,6.80,7.40,,,,,,,,,,,,,,
1799999991964483907,2027-01-15T07:59:51.964483907Z,0.40,-3.80,-0.60,-1.40,1.80,3.60,2.20,4.40,5.60,4.20,4.80,7.00,6.40,6.40,,,,,,,,,,,,,,
1799999991975582686,2027-01-15T07:59:51.975582686Z,0.00,-2.40,-1.00,0.80,2.00,5.20,2.20,4.20,4.60,4.20,5.00,7.40,6.20,6.00,,,,,,,,,,,,,,
1799999991986681466,2027-01-15T07:59:51.986681466Z,-0.20,-0.40,-2.20,1.40,0.40,4.00,4.00,2.20,3.20,5.20,5.00,6.20,6.20,5.60,,,,,,,,,,,,,,
1799999991997780245,2027-01-15T07:59:51.997780245Z,-0.20,-1.20,-0.80,0.40,0.40,3.00,3.80,1.00,2.60,5.00,4.80,4.80,5.80,5.40,,,,,,,,,,,,,,
1799999992008879024,2027-01-15T07:59:52.008879024Z,-0.40,-2.60,1.20,0.20,1.00,2.60,2.60,0.80,0.60,4.60,4.60,5.40,5.60,6.60,,,,,,,,,,,,,,
1799999992019977803,2027-01-15T07:59:52.019977803Z,0.40,-1.20,0.40,0.00,2.20,3.20,2.40,1.80,1.40,4.00,4.40,5.60,6.00,7.00,,,,,,,,,,,,,,
1799999992031076582,2027-01-15T07:59:52.031076582Z,0.00,0.20,-1.20,0.80,2.20,3.20,2.00,2.40,4.00,3.00,5.40,5.00,6.20,6.80,,,,,,,,,,,,,,
1799999992042175361,2027-01-15T07:59:52.042175361Z,-1.40,0.20,0.20,0.40,2.80,0.80,2.20,3.40,4.20,3.00,6.00,5.60,6.80,7.20,,,,,,,,,,,,,,
1799999992053274140,2027-01-15T07:59:52.053274140Z,-3.60,-0.40,-0.20,0.60,2.80,1.60,2.60,4.60,4.00,3.20,6.60,6.00,7.20,7.20,,,,,,,,,,,,,,
1799999992064372919,2027-01-15T07:59:52.064372919Z,-1.60,-1.80,-1.40,0.40,2.20,1.80,3.00,3.60,3.00,4.20,4.40,3.20,7.40,5.80,,,,,,,,,,,,,,
1799999992075471699,2027-01-15T07:59:52.075471699Z,1.80,-0.80,-0.60,1.20,2.00,2.40,3.00,2.20,2.60,4.60,3.00,2.40,7.40,5.80,,,,,,,,,,,,,,
1799999992086570478,2027-01-15T07:59:52.086570478Z,-1.60,0.40,0.60,1.60,1.20,2.00,2.80,2.20,2.80,3.40,5.40,4.80,6.40,6.40,,,,,,,,,,,,,,
1799999992097669257,2027-01-15T07:59:52.097669257Z,-1.00,0.40,0.20,0.40,0.20,0.80,2.60,3.20,4.40,3.20,6.40,6.80,5.80,6.00,,,,,,,,,,,,,,
1799999992108768036,2027-01-15T07:59:52.108768036Z,-1.40,0.20,-1.60,-1.40,-1.40,1.40,3.20,3.00,4.60,5.00,5.60,8.00,6.40,7.20,,,,,,,,,,,,,,
1799999992119866815,2027-01-15T07:59:52.119866815Z,-0.80,0.80,-0.60,0.00,-0.40,1.40,1.80,2.20,3.60,5.60,6.00,7.40,7.00,6.20,,,,,,,,,,,,,,
1799999992130965594,2027-01-15T07:59:52.130965594Z,2.00,-0.40,0.60,-0.80,-0.20,0.80,1.20,2.00,3.00,5.00,6.20,7.00,6.40,5.80,,,,,,,,,,,,,,
1799999992142064373,2027-01-15T07:59:52.142064373Z,-0.40,0.00,1.00,0.00,1.40,1.80,2.80,4.20,3.40,4.00,5.20,5.60,5.80,6.40,,,,,,,,,,,,,,
1799999992153163153,2027-01-15T07:59:52.153163153Z,-0.80,1.20,0.60,1.60,1.00,2.00,2.20,5.20,4.80,4.20,4.40,4.40,6.20,6.40,,,,,,,,,,,,,,
1799999992164261932,2027-01-15T07:59:52.164261932Z,-3.20,-0.20,1.40,1.40,-0.20,2.40,2.00,4.00,5.00,4.80,4.60,2.60,7.00,7.20,,,,,,,,,,,,,,
1799999992175360711,2027-01-15T07:59:52.175360711Z,-3.20,1.20,1.20,2.20,-1.00,1.60,1.80,1.80,2.80,4.40,5.40,3.80,6.20,5.80,,,,,,,,,,,,,,
1799999992186459490,2027-01-15T07:59:52.186459490Z,-4.00,1.80,-0.20,0.80,-0.40,1.40,1.80,1.40,3.60,4.60,5.80,4.40,6.00,4.80,,,,,,,,,,,,,,
1799999992197558269,2027-01-15T07:59:52.197558269Z,-1.80,2.00,-0.60,-1.80,1.80,1.80,4.80,4.20,6.20,5.00,5.00,5.80,5.80,7.20,,,,,,,,,,,,,,
1799999992208657048,2027-01-15T07:59:52.208657048Z,-1.60,1.40,0.80,-2.40,2.40,1.20,3.80,4.80,6.80,5.40,5.40,6.00,5.80,5.80,,,,,,,,,,,,,,
1799999992219755827,2027-01-15T07:59:52.219755827Z,-2.00,-0.20,0.60,1.20,1.80,1.40,2.40,3.60,4.40,3.20,4.80,5.00,6.60,6.60,,,,,,,,,,,,,,
1799999992230854606,2027-01-15T07:59:52.230854606Z,-1.20,-1.00,0.00,1.60,0.80,1.60,3.60,3.60,3.20,2.60,4.40,5.60,6.00,9.40,,,,,,,,,,,,,,
1799999992241953386,2027-01-15T07:59:52.241953386Z,1.40,-2.20,-1.20,-0.40,-0.40,1.40,3.40,5.00,2.40,4.40,3.60,6.40,6.00,7.60,,,,,,,,,,,,,,
1799999992253052165,2027-01-15T07:59:52.253052165Z,-0.40,-2.60,-0.60,1.40,1.60,2.80,1.80,3.20,2.80,5.00,3.20,5.40,7.60,7.60,,,,,,,,,,,,,,
1799999992264150944,2027-01-15T07:59:52.264150944Z,-0.40,-2.40,-0.40,1.60,2.40,1.40,1.60,3.00,3.40,4.40,4.00,5.00,6.80,7.80,,,,,,,,,,,,,,
1799999992275249723,2027-01-15T07:59:52.275249723Z,-1.20,-0.80,0.60,0.20,2.40,1.20,3.80,4.60,5.20,4.80,5.60,7.20,6.20,7.00,,,,,,,,,,,,,,
1799999992286348502,2027-01-15T07:59:52.286348502Z,-2.40,-0.80,0.00,-0.60,1.60,2.00,3.20,4.20,5.00,4.60,5.40,8.00,7.00,7.40,,,,,,,,,,,,,,
1799999992297447281,2027-01-15T07:59:52.297447281Z,0.40,-1.20,0.40,0.40,-1.80,0.00,0.20,2.80,1.60,4.80,4.80,7.40,6.60,8.20,,,,,,,,,,,,,,
1799999992308546060,2027-01-15T07:59:52.308546060Z,0.40,-2.20,0.40,0.80,-1.00,0.40,-0.40,3.00,1.60,5.00,3.80,7.20,7.00,7.80,,,,,,,,,,,,,,
1799999992319644840,2027-01-15T07:59:52.319644840Z,-0.80,-1.40,0.80,-1.20,2.20,2.00,1.40,2.80,3.00,4.00,3.00,6.00,6.80,7.40,,,,,,,,,,,,,,
1799999992330743619,2027-01-15T07:59:52.330743619Z,-0.20,-0.20,1.80,0.20,3.00,0.00,3.00,3.40,5.60,5.40,4.80,7.20,5.40,6.40,,,,,,,,,,,,,,
1799999992341842398,2027-01-15T07:59:52.341842398Z,0.40,0.00,1.40,1.20,3.80,-0.60,2.60,3.40,7.20,5.40,4.60,7.40,5.20,6.40,,,,,,,,,,,,,,
1799999992352941177,2027-01-15T07:59:52.352941177Z,0.80,-1.00,1.20,3.00,4.80,1.60,1.00,4.80,5.40,5.20,5.00,5.60,6.20,7.20,,,,,,,,,,,,,,
1799999992364039956,2027-01-15T07:59:52.364039956Z,0.40,-1.20,1.40,2.80,3.80,3.40,2.00,4.60,4.80,5.40,4.20,5.00,6.40,7.00,,,,,,,,,,,,,,
1799999992375138735,2027-01-15T07:59:52.375138735Z,-1.40,0.40,0.60,0.80,2.60,3.40,3.00,2.40,4.40,4.80,3.00,5.00,6.00,4.80,,,,,,,,,,,,,,
1799999992386237514,2027-01-15T07:59:52.386237514Z,1.40,-1.00,-0.40,1.40,2.80,1.20,2.80,1.80,3.20,3.20,5.20,5.80,6.40,4.60,,,,,,,,,,,,,,
1799999992397336294,2027-01-15T07:59:52.397336294Z,0.40,-1.20,1.40,2.40,3.00,0.00,2.60,3.00,2.60,4.00,5.60,6.00,6.00,5.80,,,,,,,,,,,,,,
1799999992408435073,2027-01-15T07:59:52.408435073Z,-0.80,-1.80,1.60,2.40,1.80,1.00,2.00,4.80,4.00,5.00,4.60,5.20,5.60,7.20,,,,,,,,,,,,,,
1799999992419533852,2027-01-15T07:59:52.419533852Z,0.60,-0.60,-0.20,1.80,1.00,2.40,2.00,4.00,4.40,4.40,4.80,5.40,5.80,8.00,,,,,,,,,,,,,,
1799999992430632631,2027-01-15T07:59:52.430632631Z,-0.60,-1.20,-3.40,-0.20,2.20,2.00,1.80,3.20,3.80,4.20,5.60,6.20,6.20,7.60,,,,,,,,,,,,,,
1799999992441731410,2027-01-15T07:59:52.441731410Z,-1.20,-2.00,-3.20,-0.40,2.80,1.60,1.60,4.00,3.80,4.00,5.80,6.20,6.40,7.00,,,,,,,,,,,,,,
1799999992452830189,2027-01-15T07:59:52.452830189Z,-1.60,-0.40,-3.20,1.80,1.60,2.20,1.80,5.20,5.00,3.60,5.80,5.20,6.20,7.40,,,,,,,,,,,,,,
1799999992463928968,2027-01-15T07:59:52.463928968Z,-0.60,-1.20,-2.00,2.00,0.80,2.60,3.60,4.80,2.80,4.20,6.40,5.40,6.80,7.40,,,,,,,,,,,,,,
1799999992475027747,2027-01-15T07:59:52.475027747Z,-1.80,-1.00,-0.80,1.80,0.20,2.00,3.40,3.60,1.20,4.20,5.40,5.60,6.80,6.80,,,,,,,,,,,,,,
1799999992486126527,2027-01-15T07:59:52.486126527Z,0.60,-1.00,0.20,0.80,1.20,0.60,0.20,3.00,3.00,4.80,4.40,7.20,9.20,6.00,,,,,,,,,,,,,,
1799999992497225306,2027-01-15T07:59:52.497225306Z,-0.80,-1.00,0.60,1.40,2.00,0.00,1.00,3.60,4.60,4.20,4.60,6.20,9.00,6.20,,,,,,,,,,,,,,
1799999992508324085,2027-01-15T07:59:52.508324085Z,-2.60,0.00,-0.80,0.20,0.00,0.20,4.00,3.40,5.60,2.80,5.20,5.00,7.80,6.20,,,,,,,,,,,,,,
1799999992519422864,2027-01-15T07:59:52.519422864Z,-0.60,0.00,-0.40,0.80,-1.60,1.20,3.60,2.80,4.00,3.20,5.80,5.20,6.80,6.80,,,,,,,,,,,,,,
1799999992530521643,2027-01-15T07:59:52.530521643Z,-0.40,-1.40,-0.20,2.80,0.00,3.80,2.60,4.80,2.80,4.40,4.60,6.20,4.00,8.80,,,,,,,,,,,,,,
1799999992541620422,2027-01-15T07:59:52.541620422Z,1.00,-1.00,1.20,1.80,1.80,3.40,3.20,3.00,3.40,5.20,4.80,5.60,4.40,8.00,,,,,,,,,,,,,,
1799999992552719201,2027-01-15T07:59:52.552719201Z,0.00,-2.20,2.00,0.40,0.00,2.00,2.60,1.80,3.20,5.20,4.60,5.40,5.20,7.40,,,,,,,,,,,,,,
1799999992563817981,2027-01-15T07:59:52.563817981Z,1.20,-1.00,-0.80,0.40,-1.80,3.80,3.60,2.80,2.40,4.20,4.40,6.00,5.80,5.60,,,,,,,,,,,,,,
1799999992574916760,2027-01-15T07:59:52.574916760Z,-0.20,0.40,0.00,1.00,-2.60,3.40,4.40,2.40,2.20,3.80,4.40,6.60,5.80,5.00,,,,,,,,,,,,,,
1799999992586015539,2027-01-15T07:59:52.586015539Z,0.20,-1.20,1.60,1.60,-3.60,-0.40,3.80,2.80,1.80,4.20,3.60,7.00,7.00,5.40,,,,,,,,,,,,,,
1799999992597114318,2027-01-15T07:59:52.597114318Z,0.20,-0.60,-1.00,-0.20,0.20,1.40,2.40,3.60,4.40,4.60,5.60,5.60,7.80,6.40,,,,,,,,,,,,,,
1799999992608213097,2027-01-15T07:59:52.608213097Z,-2.00,-2.40,-1.40,-0.40,1.60,3.20,2.80,3.00,4.20,5.00,5.60,5.60,7.60,7.00,,,,,,,,,,,,,,
1799999992619311876,2027-01-15T07:59:52.619311876Z,-0.40,-2.80,0.80,1.00,-0.40,2.00,3.60,2.40,4.00,4.80,3.80,5.60,6.80,7.40,,,,,,,,,,,,,,
1799999992630410655,2027-01-15T07:59:52.630410655Z,-0.40,-1.40,-0.40,1.00,-0.40,2.00,4.20,1.20,3.60,4.20,4.20,5.00,7.00,7.60,,,,,,,,,,,,,,
1799999992641509434,2027-01-15T07:59:52.641509434Z,-1.20,-3.00,-0.40,0.80,1.60,3.60,5.40,2.80,3.20,3.40,5.40,5.00,5.80,8.00,,,,,,,,,,,,,,
1799999992652608214,2027-01-15T07:59:52.652608214Z,-2.00,-2.00,0.60,0.40,2.80,4.00,3.80,4.00,3.40,3.80,5.20,5.40,5.40,7.80,,,,,,,,,,,,,,
1799999992663706993,2027-01-15T07:59:52.663706993Z,-1.00,0.20,-0.80,-0.20,2.00,1.80,1.80,2.60,2.40,3.60,5.40,5.20,5.60,6.80,,,,,,,,,,,,,,
1799999992674805772,2027-01-15T07:59:52.674805772Z,0.00,0.60,-2.20,1.00,3.40,1.00,3.00,1.80,3.00,4.40,5.80,5.00,6.00,6.80,,,,,,,,,,,,,,
1799999992685904551,2027-01-15T07:59:52.685904551Z,0.60,0.40,-1.40,1.00,3.60,1.20,2.80,2.20,4.60,5.20,5.60,5.40,6.20,7.40,,,,,,,,,,,,,,
1799999992697003330,2027-01-15T07:59:52.697003330Z,-2.00,-0.60,-0.60,0.40,0.40,2.40,3.00,3.80,6.60,5.40,5.20,6.00,6.00,7.80,,,,,,,,,,,,,,
1799999992708102109,2027-01-15T07:59:52.708102109Z,-3.00,-1.20,-1.00,0.40,0.20,3.40,1.60,4.60,5.40,4.80,5.00,6.40,5.20,6.80,,,,,,,,,,,,,,
1799999992719200888,2027-01-15T07:59:52.719200888Z,-0.60,-0.20,-1.40,1.20,-1.00,2.40,0.00,2.20,4.80,5.00,5.40,7.00,6.40,6.20,,,,,,,,,,,,,,
1799999992730299668,2027-01-15T07:59:52.730299668Z,-2.20,0.40,-1.40,2.00,0.60,1.40,0.60,1.60,6.00,5.40,4.80,7.00,6.40,5.60,,,,,,,,,,,,,,
1799999992741398447,2027-01-15T07:59:52.741398447Z,1.00,0.40,-1.80,1.60,3.40,2.00,1.80,3.40,3.00,4.80,3.60,7.00,5.20,5.60,,,,,,,,,,,,,,
1799999992752497226,2027-01-15T07:59:52.752497226Z,1.20,0.20,-0.80,0.40,1.60,3.00,2.00,3.60,3.60,4.80,4.20,5.60,5.20,7.40,,,,,,,,,,,,,,
1799999992763596005,2027-01-15T07:59:52.763596005Z,-1.60,-0.40,-0.40,0.00,1.60,3.00,2.60,3.60,3.40,4.00,5.00,4.80,5.40,8.00,,,,,,,,,,,,,,
1799999992774694784,2027-01-15T07:59:52.774694784Z,-0.80,-0.40,0.60,-0.20,1.40,1.60,2.20,3.40,1.40,3.00,5.80,5.40,6.40,7.80,,,,,,,,,,,,,,
1799999992785793563,2027-01-15T07:59:52.785793563Z,-1.20,0.20,0.80,0.00,0.40,0.60,1.40,3.20,1.20,3.40,5.60,6.20,6.00,6.60,,,,,,,,,,,,,,
1799999992796892342,2027-01-15T07:59:52.796892342Z,-0.80,0.60,-1.20,1.20,-2.40,0.60,1.60,1.00,2.40,4.40,4.60,7.60,4.80,4.80,,,,,,,,,,,,,,
1799999992807991121,2027-01-15T07:59:52.807991121Z,-1.20,-1.00,-0.80,0.60,-2.80,-1.60,3.40,0.00,4.80,5.60,5.20,5.60,7.40,6.40,,,,,,,,,,,,,,
1799999992819089901,2027-01-15T07:59:52.819089901Z,-2.60,-0.80,0.00,0.80,-0.80,-1.60,3.00,0.40,5.40,5.40,6.00,5.00,8.40,7.40,,,,,,,,,,,,,,
1799999992830188680,2027-01-15T07:59:52.830188680Z,-0.40,-0.60,0.80,2.60,2.00,-1.60,2.20,3.40,3.80,6.20,5.40,6.80,6.00,7.00,,,,,,,,,,,,,,
1799999992841287459,2027-01-15T07:59:52.841287459Z,0.20,-0.40,1.00,3.00,1.60,-2.20,2.40,3.20,3.20,6.00,5.00,7.20,5.60,5.80,,,,,,,,,,,,,,
1799999992852386238,2027-01-15T07:59:52.852386238Z,-0.60,2.20,-1.00,1.20,2.60,-0.20,0.60,1.40,3.40,4.60,5.20,5.20,5.40,6.20,,,,,,,,,,,,,,
1799999992863485017,2027-01-15T07:59:52.863485017Z,0.40,2.80,-1.00,0.20,2.00,1.00,0.40,1.00,4.00,4.40,5.20,5.60,5.00,7.00,,,,,,,,,,,,,,
1799999992874583796,2027-01-15T07:59:52.874583796Z,-2.40,4.00,-0.40,0.80,0.80,1.20,1.80,1.80,4.20,3.60,4.20,6.60,6.00,7.40,,,,,,,,,,,,,,
1799999992885682575,2027-01-15T07:59:52.885682575Z,0.40,1.40,0.40,0.20,2.20,2.40,1.40,4.80,5.20,4.60,4.60,5.40,6.20,6.60,,,,,,,,,,,,,,
1799999992896781355,2027-01-15T07:59:52.896781355Z,0.40,0.40,1.40,-0.40,2.40,2.00,1.20,5.60,5.40,4.80,4.80,4.60,6.40,6.60,,,,,,,,,,,,,,
1799999992907880134,2027-01-15T07:59:52.907880134Z,0.20,-0.60,-0.20,0.20,2.60,1.60,2.80,3.80,4.00,3.60,4.00,4.80,6.20,6.00,,,,,,,,,,,,,,
1799999992918978913,2027-01-15T07:59:52.918978913Z,0.60,-1.00,-0.40,0.40,2.40,0.60,3.60,4.00,3.40,4.00,3.80,5.40,6.60,5.20,,,,,,,,,,,,,,
1799999992930077692,2027-01-15T07:59:52.930077692Z,-0.80,-0.80,0.80,-1.80,1.60,0.20,1.60,5.60,2.00,3.80,4.40,6.40,7.00,5.80,,,,,,,,,,,,,,
1799999992941176471,2027-01-15T07:59:52.941176471Z,1.40,-1.20,1.60,-0.20,1.00,1.80,1.40,5.00,1.60,3.60,4.80,6.20,6.60,6.60,,,,,,,,,,,,,,
1799999992952275250,2027-01-15T07:59:52.952275250Z,-0.80,-2.00,1.60,3.00,1.80,2.60,2.80,3.40,2.80,5.00,3.80,6.40,6.40,5.80,,,,,,,,,,,,,,
1799999992963374029,2027-01-15T07:59:52.963374029Z,-0.80,-3.60,1.20,1.60,0.80,1.60,3.60,2.00,4.00,5.80,3.80,6.40,8.00,6.40,,,,,,,,,,,,,,
1799999992974472808,2027-01-15T07:59:52.974472808Z,-0.60,-1.60,2.20,1.60,0.80,0.80,3.60,1.40,4.60,5.60,3.80,6.60,7.20,5.40,,,,,,,,,,,,,,
1799999992985571588,2027-01-15T07:59:52.985571588Z,1.20,2.60,0.60,-0.60,1.40,1.20,3.40,1.80,5.80,5.00,5.00,6.00,5.00,4.60,,,,,,,,,,,,,,
1799999992996670367,2027-01-15T07:59:52.996670367Z,0.20,2.40,-0.20,-1.40,0.80,1.20,2.80,2.60,4.60,4.40,5.00,6.00,5.00,5.20,,,,,,,,,,,,,,
1799999993007769146,2027-01-15T07:59:53.007769146Z,0.00,-1.20,-2.60,1.40,0.80,1.20,3.00,3.00,3.20,5.00,4.20,6.40,5.80,7.40,,,,,,,,,,,,,,
1799999993018867925,2027-01-15T07:59:53.018867925Z,0.00,-1.80,-1.80,2.00,1.20,1.80,3.80,2.20,3.20,5.80,5.20,6.80,5.60,7.60,,,,,,,,,,,,,,
1799999993029966704,2027-01-15T07:59:53.029966704Z,-0.20,-1.80,-1.60,-2.00,1.00,2.60,5.00,2.00,3.00,6.20,6.40,6.00,5.60,8.00,,,,,,,,,,,,,,
1799999993041065483,2027-01-15T07:59:53.041065483Z,0.20,-0.80,-1.00,-1.80,2.00,2.20,5.60,1.60,2.80,4.40,4.60,4.80,6.00,6.80,,,,,,,,,,,,,,
1799999993052164262,2027-01-15T07:59:53.052164262Z,-2.00,0.00,-0.20,-0.20,2.20,2.80,5.00,1.40,3.20,4.00,4.60,6.00,5.80,6.80,,,,,,,,,,,,,,
1799999993063263042,2027-01-15T07:59:53.063263042Z,-1.40,-1.40,-0.40,0.00,0.60,3.00,4.40,3.80,6.20,4.00,5.60,7.20,6.00,6.60,,,,,,,,,,,,,,
1799999993074361821,2027-01-15T07:59:53.074361821Z,-0.60,-0.40,-0.80,0.60,1.00,1.60,4.60,4.20,6.40,3.20,5.00,6.60,6.20,6.80,,,,,,,,,,,,,,
1799999993085460600,2027-01-15T07:59:53.085460600Z,0.20,0.60,-0.40,-0.60,1.60,1.00,4.00,3.80,4.60,2.40,3.80,7.00,5.80,8.60,,,,,,,,,,,,,,
1799999993096559379,2027-01-15T07:59:53.096559379Z,-0.40,-1.20,-0.20,0.60,1.20,3.00,2.80,2.20,4.40,3.20,3.40,5.20,5.80,8.80,,,,,,,,,,,,,,
1799999993107658158,2027-01-15T07:59:53.107658158Z,0.80,-3.00,-1.20,1.20,1.80,3.80,3.00,1.20,5.40,3.60,4.00,4.40,5.40,7.80,,,,,,,,,,,,,,
1799999993118756937,2027-01-15T07:59:53.118756937Z,-1.00,-0.60,-0.80,1.40,1.80,2.80,4.00,0.60,7.40,4.00,5.20,5.80,6.40,6.20,,,,,,,,,,,,,,
1799999993129855716,2027-01-15T07:59:53.129855716Z,0.60,0.80,0.20,0.20,1.20,2.20,3.40,1.60,6.80,3.80,5.80,5.00,7.00,5.60,,,,,,,,,,,,,,
1799999993140954496,2027-01-15T07:59:53.140954496Z,0.20,-1.60,-0.80,0.00,0.40,1.80,2.00,3.40,5.80,4.40,5.80,4.20,7.00,6.60,,,,,,,,,,,,,,
1799999993152053275,2027-01-15T07:59:53.152053275Z,-0.80,-2.20,-0.60,1.20,-0.40,1.00,1.40,3.00,4.60,4.20,5.20,4.20,7.20,7.20,,,,,,,,,,,,,,
1799999993163152054,2027-01-15T07:59:53.163152054Z,-3.60,-1.20,-1.20,2.80,1.40,1.00,2.20,2.80,3.60,4.80,5.00,4.00,6.60,7.20,,,,,,,,,,,,,,
1799999993174250833,2027-01-15T07:59:53.174250833Z,-3.40,-1.20,-1.00,2.20,2.00,3.80,1.60,3.60,4.80,5.00,6.20,4.40,6.60,7.60,,,,,,,,,,,,,,
1799999993185349612,2027-01-15T07:59:53.185349612Z,-5.40,-1.40,-0.80,1.60,2.40,3.00,1.40,3.20,5.40,4.80,5.60,5.00,5.80,8.00,,,,,,,,,,,,,,
1799999993196448391,2027-01-15T07:59:53.196448391Z,-0.80,0.20,0.40,1.00,0.80,0.00,0.40,1.20,6.00,3.60,4.60,5.20,4.60,6.40,,,,,,,,,,,,,,
1799999993207547170,2027-01-15T07:59:53.207547170Z,1.20,0.40,-1.00,1.00,-0.20,1.20,0.20,1.80,4.20,4.80,4.80,5.80,5.40,5.40,,,,,,,,,,,,,,
1799999993218645949,2027-01-15T07:59:53.218645949Z,-0.20,0.20,-1.60,0.40,1.20,2.80,0.40,3.40,1.20,4.00,4.80,6.40,6.00,6.20,,,,,,,,,,,,,,
1799999993229744729,2027-01-15T07:59:53.229744729Z,-0.60,-0.40,-0.40,0.60,1.60,2.40,1.60,3.40,1.40,3.80,4.80,6.80,5.80,6.60,,,,,,,,,,,,,,
1799999993240843508,2027-01-15T07:59:53.240843508Z,-0.60,-0.20,1.80,1.20,1.60,2.80,2.60,2.60,2.20,6.20,3.80,6.00,6.60,5.60,,,,,,,,,,,,,,
1799999993251942287,2027-01-15T07:59:53.251942287Z,-0.60,-0.20,2.40,1.20,1.00,2.00,3.20,3.40,3.20,4.80,4.60,5.00,7.20,4.60,,,,,,,,,,,,,,
1799999993263041066,2027-01-15T07:59:53.263041066Z,0.20,-1.80,1.60,1.20,0.40,1.20,3.00,3.60,3.80,3.40,5.00,5.40,7.20,5.60,,,,,,,,,,,,,,
1799999993274139845,2027-01-15T07:59:53.274139845Z,1.20,-1.20,-0.20,-0.40,0.40,0.40,0.60,3.00,3.00,4.40,4.80,4.80,6.80,8.00,,,,,,,,,,,,,,
1799999993285238624,2027-01-15T07:59:53.285238624Z,0.40,-0.60,-0.80,-0.80,0.20,0.60,0.00,3.00,3.40,5.20,5.00,3.80,6.40,8.00,,,,,,,,,,,,,,
1799999993296337403,2027-01-15T07:59:53.296337403Z,0.40,-0.20,0.80,0.40,2.00,-0.20,0.60,2.80,3.60,4.40,5.20,5.00,5.00,7.40,,,,,,,,,,,,,,
1799999993307436183,2027-01-15T07:59:53.307436183Z,0.40,-1.60,1.80,1.20,2.60,1.00,4.40,3.80,4.60,4.20,4.60,6.00,6.00,7.00,,,,,,,,,,,,,,
1799999993318534962,2027-01-15T07:59:53.318534962Z,0.40,-1.80,1.80,1.80,2.40,1.60,5.80,4.20,4.40,5.00,5.00,7.00,6.40,6.80,,,,,,,,,,,,,,
1799999993329633741,2027-01-15T07:59:53.329633741Z,1.80,-0.60,1.00,1.20,1.00,1.40,3.40,3.20,4.60,5.60,5.40,6.60,6.80,6.40,,,,,,,,,,,,,,
1799999993340732520,2027-01-15T07:59:53.340732520Z,0.80,0.20,0.80,0.60,0.60,1.00,2.20,2.60,4.80,5.00,5.20,6.00,7.00,7.00,,,,,,,,,,,,,,
1799999993351831299,2027-01-15T07:59:53.351831299Z,-1.00,0.60,1.80,0.80,1.00,1.20,2.80,3.80,4.00,4.40,5.20,6.60,6.00,7.40,,,,,,,,,,,,,,
1799999993362930078,2027-01-15T07:59:53.362930078Z,0.00,-0.20,0.20,0.40,1.20,1.60,3.40,4.20,4.80,5.00,5.60,6.80,6.60,6.20,,,,,,,,,,,,,,
1799999993374028857,2027-01-15T07:59:53.374028857Z,,-2.00,-1.40,-0.20,1.40,1.20,4.00,3.40,6.80,6.80,5.20,5.60,7.80,5.40,,,,,,,,,,,,,,
1799999993385127636,2027-01-15T07:59:53.385127636Z,-2.80,-2.00,-0.20,-0.60,2.80,1.60,3.00,2.40,6.00,6.20,5.20,5.40,8.20,7.00,,,,,,,,,,,,,,
1799999993396226416,2027-01-15T07:59:53.396226416Z,-0.20,0.80,-0.20,1.40,3.00,2.00,2.00,2.20,5.20,4.80,6.00,5.60,8.20,8.20,,,,,,,,,,,,,,
1799999993407325195,2027-01-15T07:59:53.407325195Z,0.40,1.60,-0.60,2.40,2.40,1.20,1.60,3.40,3.80,4.40,5.00,5.80,8.80,9.20,,,,,,,,,,,,,,
1799999993418423974,2027-01-15T07:59:53.418423974Z,-0.20,0.40,-0.20,1.80,2.00,0.60,1.20,3.40,3.00,4.60,3.60,6.00,7.80,9.00,,,,,,,,,,,,,,
1799999993429522753,2027-01-15T07:59:53.429522753Z,0.20,-0.40,0.20,0.40,1.20,0.60,2.80,3.80,2.40,3.40,3.80,6.00,6.40,7.60,,,,,,,,,,,,,,
1799999993440621532,2027-01-15T07:59:53.440621532Z,-2.00,-0.80,-0.20,0.80,3.80,1.60,4.00,4.80,2.80,2.60,4.00,5.60,5.40,7.00,,,,,,,,,,,,,,
1799999993451720311,2027-01-15T07:59:53.451720311Z,,-1.40,-1.60,-0.20,4.60,2.80,4.40,4.20,3.60,1.80,5.60,7.00,4.40,5.80,,,,,,,,,,,,,,
1799999993462819090,2027-01-15T07:59:53.462819090Z,-5.20,-0.40,-3.00,0.00,-1.20,2.80,2.40,4.40,3.00,2.20,4.80,7.80,6.80,6.00,,,,,,,,,,,,,,
1799999993473917870,2027-01-15T07:59:53.473917870Z,-2.60,-0.60,-2.80,0.00,0.00,3.00,2.20,4.40,4.80,3.00,4.40,7.60,7.00,6.40,,,,,,,,,,,,,,
1799999993485016649,2027-01-15T07:59:53.485016649Z,1.60,-1.00,-2.40,-0.40,3.20,2.40,1.80,3.20,6.80,4.40,4.00,7.20,5.40,7.00,,,,,,,,,,,,,,
1799999993496115428,2027-01-15T07:59:53.496115428Z,-0.80,-1.20,-2.40,-0.40,1.20,2.80,2.00,3.80,6.00,4.60,3.80,6.20,6.20,7.60,,,,,,,,,,,,,,
1799999993507214207,2027-01-15T07:59:53.507214207Z,-0.40,-3.20,-1.80,-1.40,1.00,4.80,2.80,5.40,3.80,4.60,4.60,4.80,8.40,6.80,,,,,,,,,,,,,,
1799999993518312986,2027-01-15T07:59:53.518312986Z,0.00,-2.40,0.20,-0.40,0.40,4.00,1.20,2.80,3.00,3.40,4.80,5.60,6.80,4.40,,,,,,,,,,,,,,
1799999993529411765,2027-01-15T07:59:53.529411765Z,-0.80,-1.20,0.80,0.20,0.40,4.20,0.60,2.00,3.00,3.00,4.60,5.00,5.40,5.40,,,,,,,,,,,,,,
1799999993540510544,2027-01-15T07:59:53.540510544Z,1.40,-1.40,0.60,2.40,1.20,2.60,1.80,1.80,4.80,3.80,5.60,3.40,5.40,6.40,,,,,,,,,,,,,,
1799999993551609323,2027-01-15T07:59:53.551609323Z,-0.60,-1.40,1.00,2.60,0.20,1.00,1.80,1.80,5.40,4.20,5.40,3.60,6.20,5.80,,,,,,,,,,,,,,
1799999993562708103,2027-01-15T07:59:53.562708103Z,-0.20,-0.60,0.60,1.40,0.40,1.80,1.80,2.80,4.80,5.00,5.00,5.40,5.40,7.20,,,,,,,,,,,,,,
1799999993573806882,2027-01-15T07:59:53.573806882Z,0.00,-0.20,1.60,1.20,0.20,0.80,1.80,3.00,4.00,5.40,4.20,6.00,6.40,7.20,,,,,,,,,,,,,,
1799999993584905661,2027-01-15T07:59:53.584905661Z,-0.60,-1.60,3.20,1.60,-0.80,-1.40,1.80,4.40,3.00,5.20,3.20,7.40,9.40,8.00,,,,,,,,,,,,,,
1799999993596004440,2027-01-15T07:59:53.596004440Z,-0.80,-4.40,0.40,0.80,-0.20,-0.80,2.00,3.60,2.80,4.80,4.80,6.40,8.80,8.20,,,,,,,,,,,,,,
1799999993607103219,2027-01-15T07:59:53.607103219Z,0.80,-4.20,-0.60,0.20,0.20,-0.40,2.00,4.20,3.00,4.20,5.40,5.60,7.20,7.40,,,,,,,,,,,,,,
1799999993618201998,2027-01-15T07:59:53.618201998Z,-2.40,-1.80,0.00,0.20,2.40,1.40,2.00,3.60,3.20,4.00,4.80,4.80,6.00,7.20,,,,,,,,,,,,,,
1799999993629300777,2027-01-15T07:59:53.629300777Z,0.20,-1.40,-0.40,-0.60,3.60,1.00,2.20,2.60,3.20,4.40,5.60,5.80,6.20,7.40,,,,,,,,,,,,,,
1799999993640399557,2027-01-15T07:59:53.640399557Z,-0.60,0.40,-0.40,-1.20,1.60,4.20,3.00,4.40,2.60,4.40,5.80,6.20,5.80,7.40,,,,,,,,,,,,,,
1799999993651498336,2027-01-15T07:59:53.651498336Z,-1.60,1.60,-0.20,-0.40,0.60,5.40,3.20,4.40,2.60,5.00,5.00,5.60,5.60,6.80,,,,,,,,,,,,,,
1799999993662597115,2027-01-15T07:59:53.662597115Z,1.60,0.80,1.40,1.00,1.40,1.60,3.40,3.20,1.20,5.60,5.20,4.40,5.80,6.60,,,,,,,,,,,,,,
1799999993673695894,2027-01-15T07:59:53.673695894Z,-0.20,2.60,0.80,2.00,1.40,1.00,2.20,2.60,0.60,4.60,5.20,4.40,5.20,7.20,,,,,,,,,,,,,,
1799999993684794673,2027-01-15T07:59:53.684794673Z,1.20,3.40,-0.20,1.00,1.00,0.80,2.40,2.80,1.20,4.00,5.40,4.60,5.20,7.20,,,,,,,,,,,,,,
1799999993695893452,2027-01-15T07:59:53.695893452Z,-2.20,1.20,-2.00,0.60,1.60,2.40,2.80,3.20,2.20,3.80,5.20,5.20,5.40,5.80,,,,,,,,,,,,,,
1799999993706992231,2027-01-15T07:59:53.706992231Z,-0.40,-0.20,-2.40,1.20,1.60,3.00,2.40,3.80,3.40,4.40,4.60,5.40,7.00,6.20,,,,,,,,,,,,,,
1799999993718091010,2027-01-15T07:59:53.718091010Z,-0.40,-0.60,-1.40,0.20,0.60,2.60,3.00,5.00,5.40,5.00,3.80,6.80,7.80,8.20,,,,,,,,,,,,,,
1799999993729189790,2027-01-15T07:59:53.729189790Z,-1.00,-1.20,0.40,-0.40,-0.20,-0.20,2.60,3.60,4.80,3.40,2.80,6.80,5.00,7.60,,,,,,,,,,,,,,
1799999993740288569,2027-01-15T07:59:53.740288569Z,0.00,0.60,1.00,0.20,0.80,0.40,2.20,2.60,5.00,3.60,3.60,5.20,5.20,7.60,,,,,,,,,,,,,,
1799999993751387348,2027-01-15T07:59:53.751387348Z,0.40,1.20,1.60,1.00,2.40,3.20,2.60,2.40,5.80,4.40,5.00,5.20,7.20,7.80,,,,,,,,,,,,,,
1799999993762486127,2027-01-15T07:59:53.762486127Z,0.40,-0.40,1.60,1.00,1.20,2.00,3.00,3.60,5.20,4.20,5.00,5.80,5.80,8.00,,,,,,,,,,,,,,
1799999993773584906,2027-01-15T07:59:53.773584906Z,-0.80,0.00,1.00,0.80,0.00,0.20,3.40,4.80,3.20,4.40,4.40,6.20,4.00,7.80,,,,,,,,,,,,,,
1799999993784683685,2027-01-15T07:59:53.784683685Z,-1.40,-0.60,-0.80,0.40,1.00,0.60,3.60,4.60,2.40,5.00,4.00,5.40,4.00,6.20,,,,,,,,,,,,,,
1799999993795782464,2027-01-15T07:59:53.795782464Z,-2.00,-1.40,-2.20,-0.20,2.20,0.20,2.60,4.00,1.20,4.60,4.60,5.20,4.60,5.00,,,,,,,,,,,,,,
1799999993806881244,2027-01-15T07:59:53.806881244Z,-3.60,-1.60,-0.80,0.20,1.00,1.60,1.60,3.60,2.80,3.60,6.40,7.20,5.20,6.00,,,,,,,,,,,,,,
1799999993817980023,2027-01-15T07:59:53.817980023Z,-2.00,-1.80,-0.80,0.60,1.20,2.40,1.60,3.40,3.40,3.60,6.80,8.00,8.20,5.40,,,,,,,,,,,,,,
1799999993829078802,2027-01-15T07:59:53.829078802Z,,-0.20,-0.80,0.80,1.00,0.60,2.60,4.20,3.80,4.80,5.40,6.40,8.20,5.00,,,,,,,,,,,,,,
1799999993840177581,2027-01-15T07:59:53.840177581Z,0.20,-0.80,-0.20,1.20,2.00,0.20,3.00,4.00,4.40,4.60,5.00,6.00,7.00,6.40,,,,,,,,,,,,,,
1799999993851276360,2027-01-15T07:59:53.851276360Z,-1.20,-3.00,-0.60,0.80,3.40,4.00,1.80,3.80,4.00,5.60,5.40,5.80,3.80,7.00,,,,,,,,,,,,,,
1799999993862375139,2027-01-15T07:59:53.862375139Z,-1.80,-3.00,-1.00,0.00,2.40,4.20,2.00,4.80,4.40,6.60,4.80,6.00,4.80,7.20,,,,,,,,,,,,,,
1799999993873473918,2027-01-15T07:59:53.873473918Z,-3.40,-2.20,0.00,0.60,0.20,1.40,4.60,5.00,5.00,5.60,3.40,5.00,4.40,6.40,,,,,,,,,,,,,,
1799999993884572698,2027-01-15T07:59:53.884572698Z,-3.00,-2.00,-1.40,-0.80,0.60,1.00,4.00,2.00,4.40,5.20,4.60,5.80,7.00,6.00,,,,,,,,,,,,,,
1799999993895671477,2027-01-15T07:59:53.895671477Z,1.00,0.20,-2.20,1.20,0.60,1.60,2.60,2.40,3.20,4.80,5.00,5.60,8.20,6.40,,,,,,,,,,,,,,
1799999993906770256,2027-01-15T07:59:53.906770256Z,-2.80,-0.20,-0.40,0.80,1.60,2.60,2.00,3.20,3.20,4.40,4.40,6.40,5.80,5.60,,,,,,,,,,,,,,
1799999993917869035,2027-01-15T07:59:53.917869035Z,0.80,-1.60,1.00,-0.20,1.20,2.80,1.60,2.20,3.40,4.60,4.20,7.00,5.00,5.80,,,,,,,,,,,,,,
1799999993928967814,2027-01-15T07:59:53.928967814Z,-0.20,-1.40,1.00,0.80,-0.40,1.60,1.60,3.00,4.20,4.40,4.80,5.60,5.80,7.40,,,,,,,,,,,,,,
1799999993940066593,2027-01-15T07:59:53.940066593Z,-0.80,-0.40,1.60,2.60,0.20,0.80,2.20,4.20,4.40,4.40,4.60,5.40,6.40,6.80,,,,,,,,,,,,,,
1799999993951165372,2027-01-15T07:59:53.951165372Z,-1.20,0.80,2.80,4.20,1.20,0.80,3.40,3.80,3.80,4.00,4.60,6.20,7.00,6.20,,,,,,,,,,,,,,
1799999993962264151,2027-01-15T07:59:53.962264151Z,-0.80,0.00,0.20,1.80,-0.20,2.00,2.20,1.80,4.40,5.80,5.20,5.20,6.40,7.80,,,,,,,,,,,,,,
1799999993973362931,2027-01-15T07:59:53.973362931Z,-0.60,1.40,-0.60,1.20,-0.20,3.00,2.00,1.80,4.80,6.60,5.00,4.80,5.80,7.60,,,,,,,,,,,,,,
1799999993984461710,2027-01-15T07:59:53.984461710Z,-1.80,0.00,2.40,1.00,0.60,3.60,2.40,2.40,5.00,5.40,5.60,5.20,5.80,5.80,,,,,,,,,,,,,,
1799999993995560489,2027-01-15T07:59:53.995560489Z,1.00,-1.80,2.80,1.00,1.00,3.00,1.60,1.20,5.20,5.00,6.00,5.20,6.20,4.80,,,,,,,,,,,,,,
1799999994006659268,2027-01-15T07:59:54.006659268Z,0.40,-0.60,1.00,1.00,1.20,2.60,0.40,0.40,5.60,3.80,5.80,5.60,6.60,4.20,,,,,,,,,,,,,,
1799999994017758047,2027-01-15T07:59:54.017758047Z,0.60,-1.20,-0.20,2.40,0.80,2.00,1.60,0.60,5.40,4.40,7.60,4.40,5.80,7.20,,,,,,,,,,,,,,
1799999994028856826,2027-01-15T07:59:54.028856826Z,-0.40,-1.20,-1.00,2.80,0.00,0.80,1.40,0.80,4.80,4.40,7.40,3.80,5.20,6.80,,,,,,,,,,,,,,
1799999994039955605,2027-01-15T07:59:54.039955605Z,-0.20,-1.20,-1.40,1.00,-0.20,0.00,2.20,1.00,2.80,4.00,5.40,6.40,6.00,6.80,,,,,,,,,,,,,,
1799999994051054385,2027-01-15T07:59:54.051054385Z,0.20,-1.00,-1.80,0.00,0.60,0.80,3.00,1.20,2.80,4.60,5.00,6.60,6.60,8.00,,,,,,,,,,,,,,
1799999994062153164,2027-01-15T07:59:54.062153164Z,-1.20,0.40,-2.60,-0.80,2.00,2.60,1.20,2.00,3.80,5.60,4.80,5.60,7.20,7.00,,,,,,,,,,,,,,
1799999994073251943,2027-01-15T07:59:54.073251943Z,0.60,0.60,-2.20,0.40,2.20,2.60,1.40,2.20,2.40,5.20,4.60,6.20,7.60,6.60,,,,,,,,,,,,,,
1799999994084350722,2027-01-15T07:59:54.084350722Z,-1.20,1.00,-2.00,1.60,1.80,3.40,2.00,2.80,1.20,4.00,3.60,6.00,6.20,5.00,,,,,,,,,,,,,,
1799999994095449501,2027-01-15T07:59:54.095449501Z,-2.20,-1.00,0.20,0.60,0.60,2.60,3.20,4.20,3.60,3.20,3.20,6.80,5.20,5.40,,,,,,,,,,,,,,
1799999994106548280,2027-01-15T07:59:54.106548280Z,-2.60,-1.60,0.80,-0.40,0.20,2.20,4.20,4.20,3.60,2.60,3.40,7.00,5.40,5.00,,,,,,,,,,,,,,
1799999994117647059,2027-01-15T07:59:54.117647059Z,-0.80,-1.20,0.20,-0.80,0.40,0.40,5.20,3.00,4.00,2.80,4.60,6.20,4.80,5.40,,,,,,,,,,,,,,
1799999994128745838,2027-01-15T07:59:54.128745838Z,-2.20,-2.80,-0.60,0.00,0.40,0.40,5.20,2.40,4.80,3.80,5.20,6.00,5.00,5.60,,,,,,,,,,,,,,
1799999994139844618,2027-01-15T07:59:54.139844618Z,1.40,-3.00,-1.00,0.40,0.80,1.20,4.40,1.80,5.20,5.00,5.40,5.80,5.40,6.40,,,,,,,,,,,,,,
1799999994150943397,2027-01-15T07:59:54.150943397Z,0.20,-1.40,0.40,1.00,0.80,1.20,3.60,1.80,5.40,4.00,5.00,5.00,6.20,6.80,,,,,,,,,,,,,,
1799999994162042176,2027-01-15T07:59:54.162042176Z,-1.80,-1.20,1.60,0.60,0.60,2.80,4.80,1.80,2.60,2.60,4.00,5.80,8.40,7.20,,,,,,,,,,,,,,
1799999994173140955,2027-01-15T07:59:54.173140955Z,-0.20,-0.20,-0.60,2.20,-0.40,0.80,4.40,2.00,1.80,3.80,4.00,5.00,8.40,5.00,,,,,,,,,,,,,,
1799999994184239734,2027-01-15T07:59:54.184239734Z,0.60,-1.40,-1.20,2.40,1.40,0.20,4.20,2.40,3.00,4.60,4.60,4.80,7.80,6.00,,,,,,,,,,,,,,
1799999994195338513,2027-01-15T07:59:54.195338513Z,1.80,-0.20,-0.60,-0.20,2.80,1.00,4.00,4.40,5.20,5.60,4.60,6.00,7.80,7.40,,,,,,,,,,,,,,
1799999994206437292,2027-01-15T07:59:54.206437292Z,-1.40,0.60,-1.40,-0.80,2.40,0.40,3.20,3.40,5.20,4.80,5.40,4.80,7.20,7.00,,,,,,,,,,,,,,
1799999994217536072,2027-01-15T07:59:54.217536072Z,-1.80,-0.20,-1.00,0.60,0.60,-1.60,1.80,1.40,3.20,4.00,6.40,3.20,5.80,7.20,,,,,,,,,,,,,,
1799999994228634851,2027-01-15T07:59:54.228634851Z,1.40,0.40,-1.00,2.60,-0.80,0.00,2.20,3.60,4.20,4.00,5.00,5.20,4.80,8.00,,,,,,,,,,,,,,
1799999994239733630,2027-01-15T07:59:54.239733630Z,-0.40,0.20,-1.80,3.00,0.60,1.20,2.60,3.80,5.40,3.80,5.40,5.80,5.20,7.40,,,,,,,,,,,,,,
1799999994250832409,2027-01-15T07:59:54.250832409Z,0.40,1.00,-0.60,2.20,1.60,2.80,3.80,2.40,5.20,4.60,5.00,4.80,5.60,6.00,,,,,,,,,,,,,,
1799999994261931188,2027-01-15T07:59:54.261931188Z,1.80,0.60,1.00,1.60,1.40,2.00,4.40,3.60,3.80,5.20,4.20,5.60,5.40,6.60,,,,,,,,,,,,,,
1799999994273029967,2027-01-15T07:59:54.273029967Z,-0.80,0.20,-0.80,-1.20,2.00,0.40,4.20,2.60,4.40,3.80,3.40,6.00,6.20,7.40,,,,,,,,,,,,,,
1799999994284128746,2027-01-15T07:59:54.284128746Z,0.80,0.20,-0.80,-1.80,1.00,0.00,4.40,2.20,4.20,3.40,3.00,6.00,6.20,7.20,,,,,,,,,,,,,,
1799999994295227525,2027-01-15T07:59:54.295227525Z,-0.40,-0.60,0.00,-1.20,-0.20,-0.80,3.80,4.60,3.60,3.80,2.60,6.80,6.20,6.80,,,,,,,,,,,,,,
1799999994306326305,2027-01-15T07:59:54.306326305Z,-0.60,1.40,0.20,0.60,1.20,2.20,2.60,4.60,5.60,3.60,4.20,6.60,6.40,6.20,,,,,,,,,,,,,,
1799999994317425084,2027-01-15T07:59:54.317425084Z,2.60,3.00,1.40,1.80,1.20,3.40,2.20,3.00,5.60,4.20,5.00,6.00,6.40,6.60,,,,,,,,,,,,,,
1799999994328523863,2027-01-15T07:59:54.328523863Z,-3.20,2.20,1.00,2.00,2.20,4.40,2.40,1.40,5.20,4.40,5.40,5.20,6.80,8.00,,,,,,,,,,,,,,
1799999994339622642,2027-01-15T07:59:54.339622642Z,-1.60,1.80,-0.20,1.80,1.80,3.60,1.80,1.60,5.20,4.20,4.60,5.40,6.80,7.80,,,,,,,,,,,,,,
1799999994350721421,2027-01-15T07:59:54.350721421Z,-3.40,-1.00,-1.20,1.60,0.20,-1.40,1.40,2.80,4.60,4.60,3.60,5.20,9.20,6.60,,,,,,,,,,,,,,
1799999994361820200,2027-01-15T07:59:54.361820200Z,1.40,-3.20,-1.20,0.60,0.40,-0.80,1.60,2.80,3.00,4.80,4.20,4.20,11.20,7.00,,,,,,,,,,,,,,
1799999994372918979,2027-01-15T07:59:54.372918979Z,0.20,-0.60,1.40,0.40,-1.00,2.20,0.20,2.60,2.60,4.00,5.80,4.20,12.20,8.80,,,,,,,,,,,,,,
1799999994384017759,2027-01-15T07:59:54.384017759Z,-0.20,-1.40,1.20,0.00,-1.60,3.00,1.20,2.80,3.60,4.80,4.80,5.20,6.20,9.20,,,,,,,,,,,,,,
1799999994395116538,2027-01-15T07:59:54.395116538Z,-0.40,-2.80,0.20,-0.20,-0.40,3.60,2.20,3.20,4.20,4.60,4.20,6.20,4.20,9.40,,,,,,,,,,,,,,
1799999994406215317,2027-01-15T07:59:54.406215317Z,0.40,-5.00,-0.60,1.00,1.20,2.80,2.40,4.00,4.20,5.00,4.60,5.20,6.20,9.00,,,,,,,,,,,,,,
1799999994417314096,2027-01-15T07:59:54.417314096Z,-2.00,-6.20,-1.20,0.60,0.40,1.20,2.40,5.20,2.80,5.20,5.00,5.00,6.80,8.00,,,,,,,,,,,,,,
1799999994428412875,2027-01-15T07:59:54.428412875Z,-5.60,-4.60,-2.00,-1.40,1.60,-1.00,1.00,6.60,1.60,4.20,6.00,6.40,7.40,7.00,,,,,,,,,,,,,,
1799999994439511654,2027-01-15T07:59:54.439511654Z,-5.20,-2.00,-2.00,-1.20,2.80,-0.20,1.00,4.00,2.40,3.80,3.80,6.80,6.20,6.80,,,,,,,,,,,,,,
1799999994450610433,2027-01-15T07:59:54.450610433Z,-3.80,-1.80,-2.20,-1.40,2.00,0.40,0.60,5.60,2.60,3.60,3.40,6.80,6.20,6.40,,,,,,,,,,,,,,
1799999994461709212,2027-01-15T07:59:54.461709212Z,-5.20,-4.00,-1.40,-1.00,0.60,1.00,1.20,5.80,3.40,4.40,5.60,6.00,6.60,7.00,,,,,,,,,,,,,,
1799999994472807992,2027-01-15T07:59:54.472807992Z,-4.80,-3.60,-1.00,-0.80,0.80,1.60,2.00,3.80,4.60,4.80,7.00,5.60,6.00,7.60,,,,,,,,,,,,,,
1799999994483906771,2027-01-15T07:59:54.483906771Z,-2.60,-1.80,-1.20,-1.80,2.40,3.60,3.40,3.00,5.00,6.20,5.40,6.80,4.60,7.40,,,,,,,,,,,,,,
1799999994495005550,2027-01-15T07:59:54.495005550Z,-2.20,0.40,-0.80,-1.20,3.00,3.20,2.60,3.80,4.40,6.40,4.40,7.00,6.40,7.60,,,,,,,,,,,,,,
1799999994506104329,2027-01-15T07:59:54.506104329Z,-1.80,1.40,-0.80,0.40,3.60,4.00,1.20,4.60,4.60,5.60,5.40,5.80,7.80,6.00,,,,,,,,,,,,,,
1799999994517203108,2027-01-15T07:59:54.517203108Z,-0.80,-1.20,0.00,1.60,2.00,1.00,1.60,3.60,4.20,7.00,6.40,5.00,6.20,6.80,,,,,,,,,,,,,,
1799999994528301887,2027-01-15T07:59:54.528301887Z,1.60,0.80,-0.20,1.80,2.00,-0.60,2.00,3.60,3.80,5.60,5.80,5.20,6.40,7.80,,,,,,,,,,,,,,
1799999994539400666,2027-01-15T07:59:54.539400666Z,0.80,4.40,-2.20,2.00,2.60,-1.40,2.20,2.80,4.20,3.20,6.00,7.20,5.80,7.60,,,,,,,,,,,,,,
1799999994550499446,2027-01-15T07:59:54.550499446Z,2.20,4.00,-0.60,2.40,1.00,-1.40,2.20,2.20,4.00,3.00,6.20,7.20,5.00,7.80,,,,,,,,,,,,,,
1799999994561598225,2027-01-15T07:59:54.561598225Z,1.40,3.60,2.60,1.40,1.20,2.00,1.40,3.60,3.40,3.80,5.20,5.80,5.00,7.40,,,,,,,,,,,,,,
1799999994572697004,2027-01-15T07:59:54.572697004Z,1.40,2.60,2.60,0.20,1.60,3.80,2.00,3.00,3.40,4.40,4.60,6.60,4.60,7.20,,,,,,,,,,,,,,
1799999994583795783,2027-01-15T07:59:54.583795783Z,,-0.20,1.80,0.60,3.00,1.80,3.40,2.00,3.20,3.40,3.80,8.40,6.00,7.80,,,,,,,,,,,,,,
1799999994594894562,2027-01-15T07:59:54.594894562Z,1.00,-0.80,0.60,2.40,1.00,0.00,2.60,2.20,3.40,3.40,4.80,6.00,5.20,5.60,,,,,,,,,,,,,,
1799999994605993341,2027-01-15T07:59:54.605993341Z,-3.20,-2.20,0.00,2.60,0.40,1.00,3.00,2.20,2.80,3.40,5.20,5.00,6.20,4.20,,,,,,,,,,,,,,
1799999994617092120,2027-01-15T07:59:54.617092120Z,0.40,-1.00,0.40,1.20,0.00,2.20,5.20,2.60,2.00,3.20,4.60,7.00,6.00,6.00,,,,,,,,,,,,,,
1799999994628190900,2027-01-15T07:59:54.628190900Z,-0.80,-0.20,0.60,1.40,0.00,1.20,4.00,3.80,3.00,3.40,4.00,7.20,5.00,6.80,,,,,,,,,,,,,,
1799999994639289679,2027-01-15T07:59:54.639289679Z,-0.20,-1.00,2.00,1.20,1.80,2.40,2.20,3.60,4.20,4.00,4.20,5.60,5.40,6.60,,,,,,,,,,,,,,
1799999994650388458,2027-01-15T07:59:54.650388458Z,0.40,-0.20,2.60,0.80,3.20,3.20,1.20,3.00,3.40,4.60,5.20,5.40,6.00,6.80,,,,,,,,,,,,,,
1799999994661487237,2027-01-15T07:59:54.661487237Z,0.00,1.00,3.20,2.20,4.00,4.60,0.00,2.20,2.00,4.80,5.00,5.80,6.60,7.40,,,,,,,,,,,,,,
1799999994672586016,2027-01-15T07:59:54.672586016Z,2.20,1.00,1.20,1.60,2.40,2.20,1.80,2.60,2.80,4.40,7.00,6.60,6.40,7.20,,,,,,,,,,,,,,
1799999994683684795,2027-01-15T07:59:54.683684795Z,1.20,1.60,0.60,1.00,2.80,1.00,2.00,3.00,3.40,4.80,7.20,5.00,7.00,5.80,,,,,,,,,,,,,,
1799999994694783574,2027-01-15T07:59:54.694783574Z,1.80,1.40,-0.20,1.40,3.40,1.00,1.60,1.00,3.60,4.40,4.80,4.40,7.80,6.80,,,,,,,,,,,,,,
1799999994705882353,2027-01-15T07:59:54.705882353Z,1.80,2.00,-0.60,2.40,3.00,1.80,2.60,0.80,4.00,3.60,4.40,5.40,6.40,8.20,,,,,,,,,,,,,,
1799999994716981133,2027-01-15T07:59:54.716981133Z,4.80,4.80,-0.20,2.00,3.00,0.40,2.80,2.40,3.40,2.20,5.40,6.80,5.80,6.00,,,,,,,,,,,,,,
1799999994728079912,2027-01-15T07:59:54.728079912Z,4.20,4.40,-0.40,3.40,2.00,0.40,3.60,0.80,4.00,3.40,5.20,4.80,7.00,5.40,,,,,,,,,,,,,,
1799999994739178691,2027-01-15T07:59:54.739178691Z,3.00,2.40,-1.40,4.20,1.60,0.80,3.80,0.20,4.60,3.60,4.80,4.20,7.60,5.60,,,,,,,,,,,,,,
1799999994750277470,2027-01-15T07:59:54.750277470Z,0.80,-0.60,0.00,3.60,1.40,0.60,1.80,2.00,4.20,4.00,6.00,5.60,8.00,6.00,,,,,,,,,,,,,,
1799999994761376249,2027-01-15T07:59:54.761376249Z,0.20,-0.40,0.60,1.60,1.20,0.80,1.40,3.00,3.80,3.80,6.40,6.00,7.40,6.60,,,,,,,,,,,,,,
1799999994772475028,2027-01-15T07:59:54.772475028Z,0.20,-0.20,-2.00,1.60,-0.20,1.40,0.60,3.20,4.20,3.80,5.40,6.60,5.80,6.80,,,,,,,,,,,,,,
1799999994783573807,2027-01-15T07:59:54.783573807Z,-2.20,-1.40,-1.20,1.20,-0.60,3.20,1.60,2.20,4.00,4.60,6.00,5.40,5.20,5.20,,,,,,,,,,,,,,
1799999994794672587,2027-01-15T07:59:54.794672587Z,-0.80,-1.00,1.00,1.60,0.00,3.80,2.60,2.80,2.20,5.20,6.60,5.00,4.80,3.80,,,,,,,,,,,,,,
1799999994805771366,2027-01-15T07:59:54.805771366Z,-2.20,-2.40,-1.80,1.80,-0.20,1.00,1.80,4.20,4.20,4.00,4.40,6.20,5.00,7.00,,,,,,,,,,,,,,
1799999994816870145,2027-01-15T07:59:54.816870145Z,-3.60,-2.60,-2.40,0.80,0.80,1.00,1.80,4.60,5.60,3.80,3.40,7.00,5.40,6.80,,,,,,,,,,,,,,
1799999994827968924,2027-01-15T07:59:54.827968924Z,-4.00,-3.40,-0.20,0.80,1.40,0.20,1.60,3.80,3.80,4.20,3.40,6.00,5.60,5.20,,,,,,,,,,,,,,
1799999994839067703,2027-01-15T07:59:54.839067703Z,-5.20,-5.40,0.60,0.60,1.20,0.60,2.20,4.20,3.60,4.20,4.00,5.60,7.20,6.20,,,,,,,,,,,,,,
1799999994850166482,2027-01-15T07:59:54.850166482Z,-6.60,-6.40,0.00,-3.00,1.00,2.20,3.60,4.00,6.20,4.00,4.20,6.00,8.00,7.20,,,,,,,,,,,,,,
1799999994861265261,2027-01-15T07:59:54.861265261Z,-5.00,-5.80,-0.40,-3.20,3.40,3.40,3.60,3.60,5.60,4.20,3.80,5.20,7.20,6.80,,,,,,,,,,,,,,
1799999994872364040,2027-01-15T07:59:54.872364040Z,-8.20,-4.40,-1.20,-2.00,5.40,5.40,4.80,2.80,3.40,5.00,3.80,4.20,7.80,6.00,,,,,,,,,,,,,,
1799999994883462820,2027-01-15T07:59:54.883462820Z,-8.60,-4.60,-0.80,-3.80,2.60,4.20,5.60,4.60,3.40,4.40,4.00,3.00,5.80,5.80,,,,,,,,,,,,,,
1799999994894561599,2027-01-15T07:59:54.894561599Z,-5.20,-3.80,-1.20,-4.20,0.00,4.00,4.00,4.60,3.20,4.20,4.20,2.80,4.80,5.40,,,,,,,,,,,,,,
1799999994905660378,2027-01-15T07:59:54.905660378Z,-5.60,-6.00,-2.20,-2.80,0.80,3.60,1.80,6.40,4.80,5.40,4.80,4.20,5.20,5.60,,,,,,,,,,,,,,
1799999994916759157,2027-01-15T07:59:54.916759157Z,-0.80,-3.80,-1.40,-1.60,1.00,3.00,2.60,7.00,5.60,6.00,3.20,5.60,6.00,6.40,,,,,,,,,,,,,,
1799999994927857936,2027-01-15T07:59:54.927857936Z,0.40,-1.00,-0.60,-0.40,1.00,3.40,4.60,5.40,6.40,6.60,1.40,6.20,6.80,6.20,,,,,,,,,,,,,,
1799999994938956715,2027-01-15T07:59:54.938956715Z,-2.80,-0.40,0.20,-0.20,1.80,1.40,3.40,3.00,4.40,5.00,2.80,6.20,7.00,6.60,,,,,,,,,,,,,,
1799999994950055494,2027-01-15T07:59:54.950055494Z,-4.60,-0.20,0.60,0.00,1.60,0.60,2.60,3.80,3.00,4.60,4.20,6.80,7.20,6.60,,,,,,,,,,,,,,
1799999994961154274,2027-01-15T07:59:54.961154274Z,-0.20,-2.40,-0.20,0.00,-0.20,0.80,2.20,3.20,4.00,5.20,5.80,8.00,7.60,7.20,,,,,,,,,,,,,,
1799999994972253053,2027-01-15T07:59:54.972253053Z,-0.20,-2.40,0.60,0.20,0.20,0.20,1.60,2.40,5.60,5.20,6.60,6.60,7.60,7.40,,,,,,,,,,,,,,
1799999994983351832,2027-01-15T07:59:54.983351832Z,0.40,-3.00,2.00,0.40,1.80,2.40,1.60,2.60,5.40,4.80,6.00,5.40,8.20,6.60,,,,,,,,,,,,,,
1799999994994450611,2027-01-15T07:59:54.994450611Z,-0.20,-3.40,1.80,0.20,1.40,3.60,1.40,2.60,4.60,4.80,5.80,6.00,7.60,7.40,,,,,,,,,,,,,,
1799999995005549390,2027-01-15T07:59:55.005549390Z,3.40,-0.40,0.20,0.00,-0.20,-1.20,1.20,1.60,4.20,4.80,5.80,7.20,6.20,8.60,,,,,,,,,,,,,,
1799999995016648169,2027-01-15T07:59:55.016648169Z,0.00,2.20,1.00,1.20,0.00,-2.40,1.00,3.20,4.40,3.60,6.00,6.40,5.40,7.80,,,,,,,,,,,,,,
1799999995027746948,2027-01-15T07:59:55.027746948Z,0.80,2.80,1.60,1.60,0.60,-1.80,1.60,3.80,3.80,4.00,5.60,6.80,5.40,7.00,,,,,,,,,,,,,,
1799999995038845727,2027-01-15T07:59:55.038845727Z,2.00,3.00,1.20,2.00,-0.20,0.60,4.00,2.80,2.20,4.80,5.60,6.00,6.20,7.60,,,,,,,,,,,,,,
1799999995049944507,2027-01-15T07:59:55.049944507Z,2.00,3.60,1.80,2.40,-1.00,2.40,2.80,2.20,2.00,4.60,5.00,5.40,6.40,8.20,,,,,,,,,,,,,,
1799999995061043286,2027-01-15T07:59:55.061043286Z,8.00,3.40,1.80,1.60,-0.40,4.00,3.60,0.20,4.80,3.20,4.80,3.40,6.00,7.00,,,,,,,,,,,,,,
1799999995072142065,2027-01-15T07:59:55.072142065Z,6.60,4.60,1.20,2.40,0.20,3.00,4.20,-0.20,6.00,2.20,6.00,4.40,6.00,6.40,,,,,,,,,,,,,,
1799999995083240844,2027-01-15T07:59:55.083240844Z,6.40,4.40,0.80,4.40,1.80,1.40,4.60,-1.60,4.60,3.40,6.40,7.60,6.40,6.60,,,,,,,,,,,,,,
1799999995094339623,2027-01-15T07:59:55.094339623Z,4.20,2.40,1.00,3.40,0.80,1.60,2.00,-0.60,3.00,3.80,4.00,8.00,5.80,6.20,,,,,,,,,,,,,,
1799999995105438402,2027-01-15T07:59:55.105438402Z,-0.20,2.40,1.40,1.80,1.00,3.00,0.60,0.40,1.80,4.20,4.60,7.20,6.80,6.00,,,,,,,,,,,,,,
1799999995116537181,2027-01-15T07:59:55.116537181Z,-0.80,0.60,0.60,2.20,2.00,2.60,1.20,2.60,2.80,4.60,5.80,6.40,6.00,4.80,,,,,,,,,,,,,,
1799999995127635961,2027-01-15T07:59:55.127635961Z,0.20,0.20,0.00,2.80,2.60,1.40,1.40,2.80,5.00,5.00,5.20,5.20,4.60,4.40,,,,,,,,,,,,,,
1799999995138734740,2027-01-15T07:59:55.138734740Z,-0.40,2.40,-0.40,1.60,2.60,2.40,1.00,3.00,2.20,6.20,3.40,3.60,5.00,5.80,,,,,,,,,,,,,,
1799999995149833519,2027-01-15T07:59:55.149833519Z,0.20,0.20,-1.00,1.40,1.20,1.00,2.00,2.60,3.20,5.60,5.20,5.80,5.20,7.80,,,,,,,,,,,,,,
1799999995160932298,2027-01-15T07:59:55.160932298Z,-2.00,-1.80,-1.60,0.80,2.00,1.00,1.60,2.40,3.40,4.60,6.00,6.20,5.60,8.20,,,,,,,,,,,,,,
1799999995172031077,2027-01-15T07:59:55.172031077Z,1.40,0.40,-0.80,0.80,2.40,2.20,0.20,0.80,4.20,3.60,6.80,6.00,5.60,7.20,,,,,,,,,,,,,,
1799999995183129856,2027-01-15T07:59:55.183129856Z,0.40,0.60,-1.60,1.00,1.60,2.20,1.00,1.20,5.80,3.40,5.60,5.40,5.20,7.80,,,,,,,,,,,,,,
1799999995194228635,2027-01-15T07:59:55.194228635Z,-1.00,1.40,-1.80,0.40,0.80,0.40,3.00,2.80,4.00,4.00,4.40,5.40,5.80,7.80,,,,,,,,,,,,,,
1799999995205327414,2027-01-15T07:59:55.205327414Z,1.20,0.20,-1.60,-1.20,0.40,0.20,3.40,4.00,3.20,4.40,4.80,5.60,6.60,7.00,,,,,,,,,,,,,,
1799999995216426194,2027-01-15T07:59:55.216426194Z,-5.00,-2.80,-3.00,-0.80,0.80,1.00,4.40,6.40,4.40,3.60,4.00,7.00,5.00,6.80,,,,,,,,,,,,,,
1799999995227524973,2027-01-15T07:59:55.227524973Z,-0.20,-2.60,-2.20,0.60,0.00,2.20,4.40,5.60,6.20,3.60,4.40,7.00,4.40,5.60,,,,,,,,,,,,,,
1799999995238623752,2027-01-15T07:59:55.238623752Z,-3.80,-3.00,-1.20,0.60,-0.60,4.00,4.40,4.80,6.60,3.80,5.00,7.40,4.20,5.00,,,,,,,,,,,,,,
1799999995249722531,2027-01-15T07:59:55.249722531Z,-5.20,-2.60,0.60,-0.60,0.00,4.60,2.80,6.20,4.40,2.80,4.20,6.20,5.20,6.20,,,,,,,,,,,,,,
1799999995260821310,2027-01-15T07:59:55.260821310Z,-2.40,-1.40,0.20,-1.40,2.00,3.40,2.20,5.80,3.40,2.40,4.20,5.80,6.20,7.20,,,,,,,,,,,,,,
1799999995271920089,2027-01-15T07:59:55.271920089Z,-3.80,-2.60,-0.20,-2.20,2.20,-0.20,2.40,3.40,2.60,4.00,4.20,6.40,7.40,7.20,,,,,,,,,,,,,,
1799999995283018868,2027-01-15T07:59:55.283018868Z,-6.00,-4.00,-0.40,-1.40,1.40,-0.40,2.80,3.20,3.20,4.80,4.00,6.80,7.00,6.60,,,,,,,,,,,,,,
1799999995294117648,2027-01-15T07:59:55.294117648Z,-0.60,-3.00,-1.00,0.40,-0.20,2.00,3.20,3.20,4.40,6.20,5.00,5.60,6.60,6.00,,,,,,,,,,,,,,
1799999995305216427,2027-01-15T07:59:55.305216427Z,0.40,-0.40,-1.20,-1.00,0.80,2.80,4.00,4.80,3.60,6.00,5.80,5.20,6.60,6.00,,,,,,,,,,,,,,
1799999995316315206,2027-01-15T07:59:55.316315206Z,-2.20,-0.80,-1.40,-0.60,0.60,1.40,3.40,5.00,4.40,5.80,5.40,5.80,6.20,6.60,,,,,,,,,,,,,,
1799999995327413985,2027-01-15T07:59:55.327413985Z,-2.20,-4.00,-1.20,0.60,0.60,2.80,2.00,4.20,2.80,4.20,4.20,5.60,5.20,8.00,,,,,,,,,,,,,,
1799999995338512764,2027-01-15T07:59:55.338512764Z,-3.80,-3.20,-1.40,0.40,0.80,3.20,2.40,4.20,2.00,3.60,4.80,4.80,6.00,7.80,,,,,,,,,,,,,,
1799999995349611543,2027-01-15T07:59:55.349611543Z,-3.40,-2.60,-1.00,-0.40,0.40,0.60,3.20,4.80,1.20,5.20,4.80,5.60,7.40,7.60,,,,,,,,,,,,,,
1799999995360710322,2027-01-15T07:59:55.360710322Z,-6.80,-2.80,0.20,0.20,1.00,0.20,3.60,3.20,1.00,5.00,4.40,6.40,6.40,7.80,,,,,,,,,,,,,,
1799999995371809101,2027-01-15T07:59:55.371809101Z,-6.80,-4.20,-0.80,0.00,0.60,-0.40,3.40,2.60,1.80,4.40,4.40,6.40,5.60,7.40,,,,,,,,,,,,,,
1799999995382907881,2027-01-15T07:59:55.382907881Z,-7.80,-4.20,-1.40,-0.40,2.80,0.60,4.00,4.40,5.20,5.40,4.00,6.40,5.20,7.60,,,,,,,,,,,,,,
1799999995394006660,2027-01-15T07:59:55.394006660Z,-7.20,-3.20,-0.60,-0.20,4.00,1.60,3.00,5.00,5.20,5.40,3.40,4.80,5.00,7.00,,,,,,,,,,,,,,
1799999995405105439,2027-01-15T07:59:55.405105439Z,-6.40,-4.20,-0.20,-1.00,2.40,2.00,3.80,4.80,5.40,3.80,3.60,5.60,5.20,6.60,,,,,,,,,,,,,,
1799999995416204218,2027-01-15T07:59:55.416204218Z,-5.00,-4.00,0.80,-1.40,2.00,2.60,4.00,3.20,5.80,3.60,4.00,6.40,6.80,6.80,,,,,,,,,,,,,,
1799999995427302997,2027-01-15T07:59:55.427302997Z,-4.60,-3.20,1.00,-3.20,3.00,3.00,4.20,1.80,3.20,4.00,5.20,7.00,8.00,6.20,,,,,,,,,,,,,,
1799999995438401776,2027-01-15T07:59:55.438401776Z,-2.60,-3.00,-1.60,-1.00,3.20,1.80,5.80,2.80,3.60,4.00,5.60,6.00,6.60,7.60,,,,,,,,,,,,,,
1799999995449500555,2027-01-15T07:59:55.449500555Z,-2.60,-1.40,-2.00,0.20,3.40,2.00,6.80,3.00,4.40,3.60,5.20,5.80,7.20,8.20,,,,,,,,,,,,,,
1799999995460599335,2027-01-15T07:59:55.460599335Z,0.80,0.60,-0.20,1.20,1.20,4.20,4.20,3.40,3.60,4.00,4.60,6.40,7.20,7.40,,,,,,,,,,,,,,
1799999995471698114,2027-01-15T07:59:55.471698114Z,0.20,0.60,0.40,0.00,-0.20,4.40,2.40,3.20,3.80,4.60,5.20,6.60,6.80,7.20,,,,,,,,,,,,,,
1799999995482796893,2027-01-15T07:59:55.482796893Z,0.60,1.20,1.80,1.00,2.00,1.80,2.00,2.60,3.20,4.40,5.60,5.60,7.60,8.80,,,,,,,,,,,,,,
1799999995493895672,2027-01-15T07:59:55.493895672Z,2.40,1.80,1.80,2.00,1.80,0.80,1.20,2.00,3.00,4.00,5.20,4.80,6.80,7.80,,,,,,,,,,,,,,
1799999995504994451,2027-01-15T07:59:55.504994451Z,2.60,3.00,3.00,3.40,-0.40,-0.60,-0.20,1.40,2.60,5.00,4.80,4.00,5.20,4.80,,,,,,,,,,,,,,
1799999995516093230,2027-01-15T07:59:55.516093230Z,5.00,2.80,2.80,3.00,1.20,-1.00,0.60,1.80,3.00,4.60,4.00,5.00,7.00,6.20,,,,,,,,,,,,,,
1799999995527192009,2027-01-15T07:59:55.527192009Z,6.40,2.60,1.80,2.80,1.00,0.40,0.60,2.80,2.20,4.00,4.60,5.20,8.00,7.40,,,,,,,,,,,,,,
1799999995538290789,2027-01-15T07:59:55.538290789Z,6.40,4.40,0.80,3.00,2.00,2.20,-0.60,1.60,1.60,4.00,4.60,5.00,6.20,7.40,,,,,,,,,,,,,,
1799999995549389568,2027-01-15T07:59:55.549389568Z,7.60,5.40,1.40,3.40,3.40,2.80,0.40,-0.20,1.80,4.80,3.80,5.60,5.20,6.80,,,,,,,,,,,,,,
1799999995560488347,2027-01-15T07:59:55.560488347Z,7.80,6.00,0.80,4.60,1.20,3.20,1.80,-1.00,3.60,4.20,3.00,6.20,7.00,7.00,,,,,,,,,,,,,,
1799999995571587126,2027-01-15T07:59:55.571587126Z,4.60,6.00,1.00,5.40,0.80,2.80,1.80,0.00,4.40,4.40,3.40,6.00,7.40,7.00,,,,,,,,,,,,,,
1799999995582685905,2027-01-15T07:59:55.582685905Z,4.40,4.00,1.60,3.00,1.60,3.20,2.60,1.40,2.80,4.40,4.20,7.20,6.80,6.80,,,,,,,,,,,,,,
1799999995593784684,2027-01-15T07:59:55.593784684Z,1.60,0.60,-1.60,0.80,1.20,2.80,3.00,0.80,5.00,4.20,4.40,6.60,7.60,5.40,,,,,,,,,,,,,,
1799999995604883463,2027-01-15T07:59:55.604883463Z,3.80,-0.20,-2.80,1.00,1.80,2.60,2.80,0.80,6.80,4.40,5.00,6.00,7.40,6.00,,,,,,,,,,,,,,
1799999995615982242,2027-01-15T07:59:55.615982242Z,1.80,0.80,-0.60,1.80,2.20,2.40,2.00,1.80,5.20,2.80,6.60,5.60,6.40,8.20,,,,,,,,,,,,,,
1799999995627081022,2027-01-15T07:59:55.627081022Z,1.00,-0.40,-0.80,1.20,1.40,2.60,2.00,2.60,4.40,2.00,6.20,6.00,5.80,7.80,,,,,,,,,,,,,,
1799999995638179801,2027-01-15T07:59:55.638179801Z,-4.60,-2.40,-1.40,1.20,0.60,3.20,2.20,1.60,4.60,2.40,6.60,6.60,6.80,6.60,,,,,,,,,,,,,,
1799999995649278580,2027-01-15T07:59:55.649278580Z,-3.20,-2.40,-0.20,2.00,-0.80,3.00,2.80,0.40,2.80,4.80,6.40,6.00,7.40,5.40,,,,,,,,,,,,,,
1799999995660377359,2027-01-15T07:59:55.660377359Z,-3.00,-1.80,0.20,2.40,-0.80,3.40,3.60,0.80,2.40,5.60,5.20,5.60,6.80,5.40,,,,,,,,,,,,,,
1799999995671476138,2027-01-15T07:59:55.671476138Z,-1.40,-1.00,-0.20,0.60,-1.20,1.40,3.40,0.40,4.20,6.40,4.20,5.00,5.60,6.20,,,,,,,,,,,,,,
1799999995682574917,2027-01-15T07:59:55.682574917Z,0.40,-2.60,-0.40,-1.00,-1.20,0.80,3.00,1.80,4.40,6.60,4.40,4.40,7.20,6.00,,,,,,,,,,,,,,
1799999995693673696,2027-01-15T07:59:55.693673696Z,-1.00,-1.80,-0.40,0.60,-1.00,1.20,1.80,5.20,3.60,5.00,3.40,5.40,7.40,6.00,,,,,,,,,,,,,,
1799999995704772476,2027-01-15T07:59:55.704772476Z,-1.80,-0.80,-0.60,0.60,-0.40,1.60,1.20,5.80,3.40,4.80,4.40,5.60,6.60,6.80,,,,,,,,,,,,,,
1799999995715871255,2027-01-15T07:59:55.715871255Z,,-1.60,-0.20,1.40,1.20,0.20,2.00,3.40,4.40,4.60,6.40,4.60,5.00,7.20,,,,,,,,,,,,,,
1799999995726970034,2027-01-15T07:59:55.726970034Z,-3.60,-2.20,-1.40,0.80,-0.40,0.80,4.20,3.20,4.80,5.00,5.80,4.60,5.00,5.00,,,,,,,,,,,,,,
1799999995738068813,2027-01-15T07:59:55.738068813Z,-3.40,-2.40,-1.40,1.60,-1.40,0.80,4.20,4.40,4.80,5.00,5.40,5.40,4.20,4.40,,,,,,,,,,,,,,
1799999995749167592,2027-01-15T07:59:55.749167592Z,-3.60,-2.00,-0.60,0.60,-0.80,1.60,4.40,7.20,4.20,3.40,5.40,5.20,4.40,6.60,,,,,,,,,,,,,,
1799999995760266371,2027-01-15T07:59:55.760266371Z,-4.80,-2.00,-0.60,-0.60,0.40,2.00,4.40,7.20,4.00,4.00,5.60,5.20,4.80,8.00,,,,,,,,,,,,,,
1799999995771365150,2027-01-15T07:59:55.771365150Z,-4.80,-3.60,0.00,-0.60,0.60,0.60,2.60,5.00,3.00,6.20,5.40,6.20,5.20,6.80,,,,,,,,,,,,,,
1799999995782463929,2027-01-15T07:59:55.782463929Z,-3.40,-3.60,0.20,0.00,0.60,1.20,2.80,4.60,2.60,5.60,5.80,6.20,5.40,6.20,,,,,,,,,,,,,,
1799999995793562709,2027-01-15T07:59:55.793562709Z,-6.40,-3.40,0.20,-0.60,0.40,1.40,3.40,5.20,4.40,5.20,6.20,6.20,5.40,7.00,,,,,,,,,,,,,,
1799999995804661488,2027-01-15T07:59:55.804661488Z,-5.20,-3.20,0.40,-1.60,0.60,-0.80,3.40,6.00,4.20,6.00,4.80,6.60,6.20,7.20,,,,,,,,,,,,,,
1799999995815760267,2027-01-15T07:59:55.815760267Z,-4.40,-2.60,-1.20,-2.40,1.20,1.20,3.60,5.60,3.60,6.40,4.40,6.00,6.20,6.80,,,,,,,,,,,,,,
1799999995826859046,2027-01-15T07:59:55.826859046Z,-2.80,-2.20,-1.40,-1.80,2.00,3.00,4.00,4.20,3.40,6.40,5.20,4.80,6.20,5.40,,,,,,,,,,,,,,
1799999995837957825,2027-01-15T07:59:55.837957825Z,-0.20,-2.60,-0.80,-1.60,2.00,2.00,2.40,4.00,3.40,6.60,5.40,5.00,6.00,5.00,,,,,,,,,,,,,,
1799999995849056604,2027-01-15T07:59:55.849056604Z,-3.60,-2.00,-0.40,-1.40,2.60,0.40,1.40,3.80,6.00,5.40,5.60,5.80,5.00,7.00,,,,,,,,,,,,,,
1799999995860155383,2027-01-15T07:59:55.860155383Z,0.00,-2.00,-0.80,-0.40,1.80,0.60,3.00,4.00,5.60,4.00,4.80,5.80,6.00,7.20,,,,,,,,,,,,,,
1799999995871254163,2027-01-15T07:59:55.871254163Z,-0.60,-2.20,-1.00,0.40,1.00,0.40,3.40,4.20,4.60,3.60,5.00,5.60,6.60,7.00,,,,,,,,,,,,,,
1799999995882352942,2027-01-15T07:59:55.882352942Z,0.40,-2.00,0.20,0.40,0.60,1.80,1.60,3.80,2.80,3.40,6.00,6.00,5.60,6.40,,,,,,,,,,,,,,
1799999995893451721,2027-01-15T07:59:55.893451721Z,-0.80,-0.60,1.60,1.00,1.20,3.00,1.60,2.60,2.60,3.60,5.80,6.40,5.40,5.80,,,,,,,,,,,,,,
1799999995904550500,2027-01-15T07:59:55.904550500Z,1.00,0.60,0.60,1.80,1.40,1.80,0.80,3.20,5.00,5.80,5.00,5.40,6.40,5.60,,,,,,,,,,,,,,
1799999995915649279,2027-01-15T07:59:55.915649279Z,1.20,1.20,0.40,1.60,3.00,1.20,1.40,3.20,6.40,6.40,4.40,5.00,7.00,6.00,,,,,,,,,,,,,,
1799999995926748058,2027-01-15T07:59:55.926748058Z,2.60,1.80,1.00,1.40,5.60,1.20,3.40,1.00,4.40,5.20,3.00,6.40,8.20,4.20,,,,,,,,,,,,,,
1799999995937846837,2027-01-15T07:59:55.937846837Z,4.40,1.80,1.20,3.60,4.80,2.60,2.20,0.40,4.20,4.00,3.60,6.60,8.00,6.20,,,,,,,,,,,,,,
1799999995948945616,2027-01-15T07:59:55.948945616Z,3.00,2.20,1.40,3.60,3.40,3.00,1.40,1.00,3.40,4.60,4.20,6.00,8.00,7.80,,,,,,,,,,,,,,
1799999995960044396,2027-01-15T07:59:55.960044396Z,3.20,4.40,-0.20,1.40,2.80,2.20,0.40,2.20,3.60,4.00,4.60,6.40,6.80,9.60,,,,,,,,,,,,,,
1799999995971143175,2027-01-15T07:59:55.971143175Z,1.80,3.80,-1.00,1.20,2.20,1.40,-0.20,2.60,4.20,3.20,5.80,6.80,6.20,10.60,,,,,,,,,,,,,,
1799999995982241954,2027-01-15T07:59:55.982241954Z,0.80,1.40,-0.20,2.00,0.80,0.20,0.20,3.80,4.00,4.60,6.20,5.80,6.80,9.60,,,,,,,,,,,,,,
1799999995993340733,2027-01-15T07:59:55.993340733Z,0.80,2.40,1.00,3.60,0.20,1.00,1.40,3.20,4.40,5.40,5.60,5.40,5.80,8.20,,,,,,,,,,,,,,
1799999996004439512,2027-01-15T07:59:56.004439512Z,2.20,2.80,1.60,3.40,0.80,2.80,2.60,1.80,5.60,4.60,5.40,6.20,4.20,5.60,,,,,,,,,,,,,,
1799999996015538291,2027-01-15T07:59:56.015538291Z,-0.20,1.20,0.00,-0.80,2.40,3.00,4.80,0.80,4.00,3.20,5.40,6.60,5.40,5.80,,,,,,,,,,,,,,
1799999996026637070,2027-01-15T07:59:56.026637070Z,-1.20,0.40,-1.20,-0.40,2.40,1.40,5.60,2.20,3.00,3.20,5.40,5.60,6.20,6.20,,,,,,,,,,,,,,
1799999996037735850,2027-01-15T07:59:56.037735850Z,-1.60,-0.40,-1.80,1.00,1.60,-0.80,2.80,4.00,4.20,3.40,5.20,4.60,9.60,7.20,,,,,,,,,,,,,,
1799999996048834629,2027-01-15T07:59:56.048834629Z,1.20,0.40,-0.80,1.40,1.80,0.20,2.00,4.20,4.60,3.40,5.00,4.60,10.60,7.40,,,,,,,,,,,,,,
1799999996059933408,2027-01-15T07:59:56.059933408Z,0.00,1.00,1.00,3.20,0.80,2.40,2.00,3.40,3.00,3.20,4.20,3.80,8.40,7.00,,,,,,,,,,,,,,
1799999996071032187,2027-01-15T07:59:56.071032187Z,-0.40,-1.00,-0.60,1.40,1.20,2.20,3.20,4.00,5.00,5.40,4.60,4.80,8.00,7.00,,,,,,,,,,,,,,
1799999996082130966,2027-01-15T07:59:56.082130966Z,-4.40,-1.20,-0.80,-0.20,1.60,2.80,3.60,4.60,6.60,6.20,5.20,6.00,6.20,7.60,,,,,,,,,,,,,,
1799999996093229745,2027-01-15T07:59:56.093229745Z,-2.40,-1.40,-1.60,0.20,-0.60,1.40,4.00,3.80,5.80,5.40,5.20,6.60,3.60,7.00,,,,,,,,,,,,,,
1799999996104328524,2027-01-15T07:59:56.104328524Z,-1.60,-2.60,-3.20,1.20,-1.20,-0.20,3.60,2.40,5.80,5.60,5.20,6.40,6.00,6.00,,,,,,,,,,,,,,
1799999996115427303,2027-01-15T07:59:56.115427303Z,-2.80,-2.60,-1.60,1.80,0.80,-0.40,2.40,2.20,4.60,4.60,3.80,5.80,5.60,6.20,,,,,,,,,,,,,,
1799999996126526083,2027-01-15T07:59:56.126526083Z,-2.20,-1.60,0.00,1.00,1.00,1.20,2.60,2.60,3.40,4.60,4.80,6.20,5.80,7.20,,,,,,,,,,,,,,
1799999996137624862,2027-01-15T07:59:56.137624862Z,-2.60,-1.00,0.80,0.40,0.80,1.80,3.40,3.20,3.40,3.60,6.40,7.40,5.00,7.60,,,,,,,,,,,,,,
1799999996148723641,2027-01-15T07:59:56.148723641Z,-2.60,-2.00,0.20,0.20,2.00,0.80,3.00,5.00,2.60,2.40,4.60,6.40,5.80,5.60,,,,,,,,,,,,,,
1799999996159822420,2027-01-15T07:59:56.159822420Z,-2.40,-1.20,0.80,0.20,3.00,1.60,2.40,4.20,1.80,2.60,4.60,5.20,5.80,4.40,,,,,,,,,,,,,,
1799999996170921199,2027-01-15T07:59:56.170921199Z,-2.40,-0.40,-0.40,1.20,2.60,2.40,2.00,2.80,1.60,3.60,4.20,3.80,4.60,5.80,,,,,,,,,,,,,,
1799999996182019978,2027-01-15T07:59:56.182019978Z,-3.60,-0.40,-1.80,0.80,1.60,2.60,2.60,3.40,3.80,4.20,4.40,4.80,5.00,6.20,,,,,,,,,,,,,,
1799999996193118757,2027-01-15T07:59:56.193118757Z,0.40,0.20,-1.20,-0.20,0.80,1.80,2.40,2.20,4.20,4.00,6.60,5.80,5.80,7.40,,,,,,,,,,,,,,
1799999996204217537,2027-01-15T07:59:56.204217537Z,-1.00,-1.60,-1.40,0.20,0.60,2.00,3.40,2.60,4.40,3.00,6.40,5.80,5.80,7.60,,,,,,,,,,,,,,
1799999996215316316,2027-01-15T07:59:56.215316316Z,-1.00,-1.40,1.20,1.00,-1.40,4.60,5.20,3.20,2.60,3.20,4.80,6.20,5.40,5.80,,,,,,,,,,,,,,
1799999996226415095,2027-01-15T07:59:56.226415095Z,-2.20,-1.20,3.40,-0.20,-0.40,3.20,3.80,3.40,4.40,4.60,5.00,4.60,4.40,6.40,,,,,,,,,,,,,,
1799999996237513874,2027-01-15T07:59:56.237513874Z,-0.80,-1.60,2.60,0.20,0.60,2.60,2.80,2.60,5.40,5.40,4.80,4.20,5.20,7.20,,,,,,,,,,,,,,
1799999996248612653,2027-01-15T07:59:56.248612653Z,-1.00,-3.00,0.40,0.80,1.40,1.40,1.60,3.00,4.60,5.40,4.80,5.60,6.80,7.00,,,,,,,,,,,,,,
1799999996259711432,2027-01-15T07:59:56.259711432Z,-2.60,-2.60,-0.60,0.60,1.20,0.60,2.00,3.40,5.00,4.40,5.40,6.60,6.60,7.60,,,,,,,,,,,,,,
1799999996270810211,2027-01-15T07:59:56.270810211Z,-1.00,-2.40,0.60,0.60,-0.20,1.80,2.20,4.00,4.60,3.60,5.20,6.60,5.80,8.40,,,,,,,,,,,,,,
1799999996281908991,2027-01-15T07:59:56.281908991Z,-2.00,-2.00,1.40,0.20,0.60,1.60,2.20,4.20,3.20,4.40,4.80,6.20,6.20,7.20,,,,,,,,,,,,,,
1799999996293007770,2027-01-15T07:59:56.293007770Z,-0.40,-0.40,1.80,-0.60,2.00,0.60,1.60,1.80,3.80,5.60,5.40,6.20,6.60,6.20,,,,,,,,,,,,,,
1799999996304106549,2027-01-15T07:59:56.304106549Z,-0.40,-1.00,0.60,0.40,0.40,0.00,1.00,3.40,5.80,4.40,6.80,6.80,5.00,5.80,,,,,,,,,,,,,,
1799999996315205328,2027-01-15T07:59:56.315205328Z,-0.60,-1.40,0.40,0.60,0.40,-0.60,0.80,5.40,6.60,4.00,6.20,6.80,6.00,6.20,,,,,,,,,,,,,,
1799999996326304107,2027-01-15T07:59:56.326304107Z,-2.20,1.00,-1.00,-0.20,-0.20,2.00,2.00,5.40,3.80,3.80,5.00,6.40,6.80,6.00,,,,,,,,,,,,,,
1799999996337402886,2027-01-15T07:59:56.337402886Z,-1.80,1.60,-0.80,0.60,0.20,3.40,2.20,3.40,2.20,4.40,5.40,6.40,6.40,4.60,,,,,,,,,,,,,,
1799999996348501665,2027-01-15T07:59:56.348501665Z,1.20,2.60,0.20,1.60,3.00,1.40,1.80,1.40,2.60,3.20,3.80,6.40,7.60,4.60,,,,,,,,,,,,,,
1799999996359600444,2027-01-15T07:59:56.359600444Z,0.40,1.00,0.80,-0.60,2.60,0.00,3.20,2.40,0.80,2.60,3.60,6.20,7.00,5.80,,,,,,,,,,,,,,
1799999996370699224,2027-01-15T07:59:56.370699224Z,0.20,0.80,1.00,-0.80,1.60,0.20,3.40,2.40,2.20,3.00,3.80,6.00,6.40,6.80,,,,,,,,,,,,,,
1799999996381798003,2027-01-15T07:59:56.381798003Z,0.00,0.60,0.80,0.60,0.20,0.60,4.40,3.00,4.00,4.20,3.40,6.20,6.40,7.60,,,,,,,,,,,,,,
1799999996392896782,2027-01-15T07:59:56.392896782Z,-0.80,0.60,0.40,1.20,1.20,1.80,4.40,2.40,3.20,4.60,3.00,6.40,6.20,7.40,,,,,,,,,,,,,,
1799999996403995561,2027-01-15T07:59:56.403995561Z,-2.00,0.00,-1.00,0.60,3.40,2.20,3.00,2.80,5.40,4.00,3.80,7.40,7.20,7.60,,,,,,,,,,,,,,
1799999996415094340,2027-01-15T07:59:56.415094340Z,-2.60,-0.60,-1.80,0.00,3.40,1.00,2.80,2.80,6.00,5.40,4.60,7.60,7.60,7.80,,,,,,,,,,,,,,
1799999996426193119,2027-01-15T07:59:56.426193119Z,-2.40,-2.00,-1.00,-1.20,4.20,1.00,2.20,1.40,4.60,7.20,4.80,5.00,6.60,7.40,,,,,,,,,,,,,,
1799999996437291898,2027-01-15T07:59:56.437291898Z,-0.40,-2.40,0.00,-1.00,2.20,0.80,1.60,2.40,4.80,4.20,3.40,4.60,6.80,8.40,,,,,,,,,,,,,,
1799999996448390678,2027-01-15T07:59:56.448390678Z,0.40,-3.20,-1.20,0.60,0.60,1.40,1.40,2.20,5.20,4.40,3.80,5.40,6.80,8.40,,,,,,,,,,,,,,
1799999996459489457,2027-01-15T07:59:56.459489457Z,-0.80,-2.20,-2.40,2.20,0.00,0.20,3.60,4.00,4.60,5.00,4.00,6.20,7.00,6.60,,,,,,,,,,,,,,
1799999996470588236,2027-01-15T07:59:56.470588236Z,-0.20,-0.60,-2.40,2.00,0.00,-1.20,5.20,5.20,4.40,4.80,5.00,6.40,7.20,6.60,,,,,,,,,,,,,,
1799999996481687015,2027-01-15T07:59:56.481687015Z,-1.00,0.60,-1.00,0.00,1.00,0.00,2.40,2.40,2.60,4.20,6.00,5.80,5.80,6.00,,,,,,,,,,,,,,
1799999996492785794,2027-01-15T07:59:56.492785794Z,-1.80,0.20,0.20,0.40,0.60,0.60,1.40,1.80,2.60,2.80,5.80,5.60,4.80,5.60,,,,,,,,,,,,,,
1799999996503884573,2027-01-15T07:59:56.503884573Z,-3.00,-2.40,0.20,1.20,0.20,0.20,1.00,4.40,3.60,1.80,5.80,4.80,4.00,6.40,,,,,,,,,,,,,,
1799999996514983352,2027-01-15T07:59:56.514983352Z,-2.00,-1.00,-2.20,0.60,0.80,2.20,2.40,2.40,3.60,3.40,5.20,6.00,5.00,6.00,,,,,,,,,,,,,,
1799999996526082131,2027-01-15T07:59:56.526082131Z,-0.60,0.40,-3.00,0.60,0.20,3.40,2.60,1.60,4.00,3.80,4.40,6.80,4.80,6.20,,,,,,,,,,,,,,
1799999996537180911,2027-01-15T07:59:56.537180911Z,0.20,-1.80,-2.80,1.20,2.80,1.60,1.80,1.00,4.80,3.00,4.20,5.80,6.40,6.60,,,,,,,,,,,,,,
1799999996548279690,2027-01-15T07:59:56.548279690Z,0.00,-1.20,-0.40,1.60,4.00,0.00,2.00,2.20,3.40,3.40,4.40,5.00,8.00,6.40,,,,,,,,,,,,,,
1799999996559378469,2027-01-15T07:59:56.559378469Z,-0.40,0.80,2.00,2.60,0.60,2.00,1.60,2.80,0.60,4.20,4.00,6.60,7.20,6.20,,,,,,,,,,,,,,
1799999996570477248,2027-01-15T07:59:56.570477248Z,-1.60,0.20,0.00,2.60,-0.40,1.60,1.60,2.40,2.00,3.40,5.20,7.60,8.40,7.00,,,,,,,,,,,,,,
1799999996581576027,2027-01-15T07:59:56.581576027Z,-1.20,-0.20,-0.20,1.80,0.40,2.20,2.00,2.80,3.20,3.40,5.60,7.40,10.00,6.60,,,,,,,,,,,,,,
1799999996592674806,2027-01-15T07:59:56.592674806Z,0.40,-0.20,1.20,1.20,0.40,4.80,2.00,2.20,3.80,4.20,4.40,7.00,9.20,4.80,,,,,,,,,,,,,,
1799999996603773585,2027-01-15T07:59:56.603773585Z,-0.40,-0.20,0.60,1.00,1.20,4.60,1.40,1.80,4.20,3.80,3.40,6.00,7.00,5.20,,,,,,,,,,,,,,
1799999996614872365,2027-01-15T07:59:56.614872365Z,-1.40,-1.60,-0.40,2.20,2.40,0.60,1.00,2.40,4.40,3.40,4.40,4.20,6.40,7.40,,,,,,,,,,,,,,
1799999996625971144,2027-01-15T07:59:56.625971144Z,-0.80,-2.20,0.40,2.00,1.80,0.00,0.80,3.20,4.60,4.20,4.80,4.40,6.60,7.60,,,,,,,,,,,,,,
1799999996637069923,2027-01-15T07:59:56.637069923Z,0.60,-0.60,0.00,0.60,1.40,2.00,1.60,3.60,3.80,5.60,6.40,5.80,7.20,8.20,,,,,,,,,,,,,,
1799999996648168702,2027-01-15T07:59:56.648168702Z,0.80,-1.20,1.00,1.40,2.20,3.20,2.20,3.60,4.00,5.00,5.60,5.20,6.80,7.60,,,,,,,,,,,,,,
1799999996659267481,2027-01-15T07:59:56.659267481Z,-1.40,-2.60,1.20,2.20,1.20,3.00,3.00,4.20,4.20,4.60,4.80,5.40,6.20,6.80,,,,,,,,,,,,,,
1799999996670366260,2027-01-15T07:59:56.670366260Z,0.00,-0.20,2.60,2.60,0.20,3.80,3.60,3.20,3.00,5.00,4.20,5.60,5.60,6.20,,,,,,,,,,,,,,
1799999996681465039,2027-01-15T07:59:56.681465039Z,1.20,0.40,2.60,1.40,0.80,2.60,3.60,2.00,3.60,4.80,4.60,5.80,5.40,6.40,,,,,,,,,,,,,,
1799999996692563818,2027-01-15T07:59:56.692563818Z,-0.20,-1.00,0.40,0.60,1.40,0.00,4.00,3.60,3.40,3.80,5.00,5.20,5.80,7.40,,,,,,,,,,,,,,
1799999996703662598,2027-01-15T07:59:56.703662598Z,-0.80,-1.00,0.40,1.00,1.80,1.00,4.00,3.40,2.60,3.60,4.20,4.60,5.40,7.40,,,,,,,,,,,,,,
1799999996714761377,2027-01-15T07:59:56.714761377Z,-1.40,-2.40,1.40,0.60,1.80,3.20,3.60,1.80,4.00,3.40,3.00,5.60,5.40,7.00,,,,,,,,,,,,,,
1799999996725860156,2027-01-15T07:59:56.725860156Z,-1.80,-3.00,0.40,0.20,0.60,1.60,3.80,2.20,2.80,3.40,3.80,6.60,6.60,7.20,,,,,,,,,,,,,,
1799999996736958935,2027-01-15T07:59:56.736958935Z,1.20,-1.60,0.80,0.20,0.80,0.60,3.80,2.80,1.60,3.80,4.40,7.00,5.80,7.00,,,,,,,,,,,,,,
1799999996748057714,2027-01-15T07:59:56.748057714Z,0.80,-0.20,-0.20,-0.60,1.80,2.20,3.60,3.00,4.20,5.20,5.80,5.40,4.80,7.40,,,,,,,,,,,,,,
1799999996759156493,2027-01-15T07:59:56.759156493Z,-1.60,-1.00,-1.20,-0.20,2.80,3.60,4.00,2.40,5.80,5.80,6.20,4.20,5.40,7.60,,,,,,,,,,,,,,
1799999996770255272,2027-01-15T07:59:56.770255272Z,-1.40,-0.80,-0.40,2.20,3.40,3.20,2.80,2.20,6.20,6.20,4.20,5.00,4.40,6.40,,,,,,,,,,,,,,
1799999996781354052,2027-01-15T07:59:56.781354052Z,-1.80,-2.20,0.60,1.40,1.00,2.80,2.60,3.40,4.00,5.60,5.20,4.40,6.20,6.40,,,,,,,,,,,,,,
1799999996792452831,2027-01-15T07:59:56.792452831Z,-1.80,-1.40,0.00,1.00,0.40,2.00,2.80,3.80,3.20,5.40,6.20,4.80,7.00,6.60,,,,,,,,,,,,,,
1799999996803551610,2027-01-15T07:59:56.803551610Z,-3.00,-0.40,-0.20,0.40,0.20,2.20,3.20,3.20,3.20,4.80,6.00,5.80,5.40,6.60,,,,,,,,,,,,,,
1799999996814650389,2027-01-15T07:59:56.814650389Z,-1.00,-0.60,0.60,0.40,0.80,2.40,2.40,2.60,3.40,4.80,6.00,6.20,4.60,6.20,,,,,,,,,,,,,,
1799999996825749168,2027-01-15T07:59:56.825749168Z,-1.20,-1.20,0.60,1.40,1.00,1.20,2.20,3.20,4.00,5.60,5.00,5.60,3.40,7.60,,,,,,,,,,,,,,
1799999996836847947,2027-01-15T07:59:56.836847947Z,-0.40,-0.20,-0.40,1.20,0.00,0.40,1.60,3.60,4.40,6.20,5.20,5.00,3.60,8.00,,,,,,,,,,,,,,
1799999996847946726,2027-01-15T07:59:56.847946726Z,-0.60,1.00,-1.40,-0.60,0.40,0.00,0.80,3.60,2.60,5.00,5.60,5.80,4.80,8.20,,,,,,,,,,,,,,
1799999996859045505,2027-01-15T07:59:56.859045505Z,0.20,-1.20,-0.80,0.60,0.20,1.00,1.60,2.40,3.40,4.20,5.20,5.40,4.60,7.20,,,,,,,,,,,,,,
1799999996870144285,2027-01-15T07:59:56.870144285Z,0.40,-1.20,-2.20,1.60,0.80,2.60,2.20,2.00,4.80,4.20,4.40,5.40,4.40,6.20,,,,,,,,,,,,,,
1799999996881243064,2027-01-15T07:59:56.881243064Z,-1.20,-0.60,-2.60,0.80,1.20,2.20,1.80,3.40,6.20,4.80,4.60,5.00,5.80,5.40,,,,,,,,,,,,,,
1799999996892341843,2027-01-15T07:59:56.892341843Z,0.20,-0.60,-1.00,-0.20,0.20,0.80,1.60,3.40,4.80,4.20,4.80,5.00,6.80,5.40,,,,,,,,,,,,,,
1799999996903440622,2027-01-15T07:59:56.903440622Z,-2.80,-0.80,-1.20,-1.80,0.20,-1.00,1.80,1.40,4.40,4.00,4.80,4.40,7.00,6.40,,,,,,,,,,,,,,
1799999996914539401,2027-01-15T07:59:56.914539401Z,-3.20,-0.20,-0.40,-0.60,1.60,0.80,1.60,2.00,4.80,5.00,5.00,4.00,7.00,7.60,,,,,,,,,,,,,,
1799999996925638180,2027-01-15T07:59:56.925638180Z,-5.00,-1.80,0.40,0.20,4.00,2.80,1.40,4.00,2.80,6.00,3.60,5.40,5.60,6.60,,,,,,,,,,,,,,
1799999996936736959,2027-01-15T07:59:56.936736959Z,0.40,-2.40,-1.40,0.00,3.20,2.40,3.20,3.00,4.20,6.20,4.00,5.80,8.60,6.20,,,,,,,,,,,,,,
1799999996947835739,2027-01-15T07:59:56.947835739Z,0.40,-1.40,-2.00,0.00,2.40,2.20,3.80,2.20,4.80,6.60,5.00,6.80,10.20,5.80,,,,,,,,,,,,,,
1799999996958934518,2027-01-15T07:59:56.958934518Z,-1.40,-0.60,-1.20,-0.20,-0.40,0.60,3.00,3.20,2.60,6.40,5.60,7.00,6.40,5.60,,,,,,,,,,,,,,
1799999996970033297,2027-01-15T07:59:56.970033297Z,-0.20,-0.60,-1.00,-0.60,0.00,0.40,2.00,3.60,2.20,5.40,4.60,5.80,5.40,7.20,,,,,,,,,,,,,,
1799999996981132076,2027-01-15T07:59:56.981132076Z,-2.80,0.40,-0.40,0.60,2.40,0.20,1.20,3.60,2.60,3.60,4.00,5.60,4.40,8.80,,,,,,,,,,,,,,
1799999996992230855,2027-01-15T07:59:56.992230855Z,0.40,0.40,0.00,2.20,2.00,1.60,1.00,2.60,4.60,4.40,6.20,6.00,6.40,7.60,,,,,,,,,,,,,,
1799999997003329634,2027-01-15T07:59:57.003329634Z,1.60,-0.80,-0.80,1.80,0.80,1.80,1.20,4.00,5.60,5.60,6.20,6.20,7.40,6.60,,,,,,,,,,,,,,
1799999997014428413,2027-01-15T07:59:57.014428413Z,0.40,0.00,-1.80,0.60,-0.60,0.60,2.40,3.80,5.00,6.40,4.20,5.80,7.40,7.00,,,,,,,,,,,,,,
1799999997025527193,2027-01-15T07:59:57.025527193Z,0.00,0.20,-2.00,0.60,0.00,1.80,2.60,3.60,4.20,5.40,4.00,5.00,8.20,7.20,,,,,,,,,,,,,,
1799999997036625972,2027-01-15T07:59:57.036625972Z,-0.20,0.00,0.00,1.60,1.00,2.60,2.20,2.60,4.00,4.60,4.20,6.60,10.40,6.80,,,,,,,,,,,,,,
1799999997047724751,2027-01-15T07:59:57.047724751Z,0.40,-0.80,0.00,1.00,0.60,1.80,3.00,2.80,3.60,5.00,4.00,7.40,8.80,6.60,,,,,,,,,,,,,,
1799999997058823530,2027-01-15T07:59:57.058823530Z,0.20,0.00,-1.40,-0.40,1.60,2.00,4.00,2.20,3.40,4.40,4.40,5.40,5.60,7.40,,,,,,,,,,,,,,
1799999997069922309,2027-01-15T07:59:57.069922309Z,1.80,-0.20,-0.60,0.60,4.20,4.60,2.80,1.80,4.20,2.80,3.80,5.20,5.40,6.00,,,,,,,,,,,,,,
1799999997081021088,2027-01-15T07:59:57.081021088Z,0.80,-1.00,-1.00,1.00,4.20,4.20,2.40,1.80,5.00,3.00,3.00,5.40,6.60,5.20,,,,,,,,,,,,,,
1799999997092119867,2027-01-15T07:59:57.092119867Z,1.20,-0.20,0.20,0.40,2.40,2.60,4.20,3.60,5.80,4.20,4.80,7.20,7.00,6.60,,,,,,,,,,,,,,
1799999997103218646,2027-01-15T07:59:57.103218646Z,-2.60,-0.60,1.00,0.00,2.40,2.00,4.20,3.40,5.20,3.60,5.80,7.20,6.00,7.20,,,,,,,,,,,,,,
1799999997114317426,2027-01-15T07:59:57.114317426Z,0.80,-1.40,1.00,1.20,3.00,1.60,5.20,3.80,3.60,4.00,6.80,6.20,5.20,6.80,,,,,,,,,,,,,,
1799999997125416205,2027-01-15T07:59:57.125416205Z,-0.40,-0.40,1.60,1.00,2.80,1.80,4.80,4.00,3.20,4.60,6.80,6.60,5.20,7.80,,,,,,,,,,,,,,
1799999997136514984,2027-01-15T07:59:57.136514984Z,2.60,2.80,1.60,2.40,1.60,2.00,3.80,3.20,3.00,3.80,6.60,7.00,7.40,8.80,,,,,,,,,,,,,,
1799999997147613763,2027-01-15T07:59:57.147613763Z,2.00,1.00,1.60,2.80,2.00,2.40,2.40,3.40,3.20,3.20,5.00,6.80,7.60,6.60,,,,,,,,,,,,,,
1799999997158712542,2027-01-15T07:59:57.158712542Z,-2.40,-1.60,1.40,2.40,1.20,2.20,1.60,3.60,4.00,3.00,4.40,6.00,5.80,6.40,,,,,,,,,,,,,,
1799999997169811321,2027-01-15T07:59:57.169811321Z,-1.20,-1.00,1.60,1.40,-1.80,0.20,2.60,2.20,3.60,3.00,5.80,5.00,2.80,6.40,,,,,,,,,,,,,,
1799999997180910100,2027-01-15T07:59:57.180910100Z,-2.20,-1.60,0.20,0.40,-1.00,0.60,3.00,2.80,3.80,3.20,6.40,6.00,4.60,5.60,,,,,,,,,,,,,,
1799999997192008880,2027-01-15T07:59:57.192008880Z,-0.60,-1.00,-0.60,-0.20,1.20,0.40,4.40,2.40,3.00,5.60,5.60,6.80,5.80,6.60,,,,,,,,,,,,,,
1799999997203107659,2027-01-15T07:59:57.203107659Z,1.20,-0.20,-0.40,0.20,0.80,0.20,4.60,1.80,1.80,6.40,5.80,6.00,5.60,8.00,,,,,,,,,,,,,,
1799999997214206438,2027-01-15T07:59:57.214206438Z,-0.20,-0.40,-0.40,-0.40,1.40,0.40,3.00,2.20,0.40,7.00,6.60,6.20,5.60,7.60,,,,,,,,,,,,,,
1799999997225305217,2027-01-15T07:59:57.225305217Z,-0.40,-1.00,0.80,0.80,0.40,2.80,1.80,3.40,3.60,5.80,6.00,6.00,5.40,4.60,,,,,,,,,,,,,,
1799999997236403996,2027-01-15T07:59:57.236403996Z,0.20,0.00,1.00,0.60,0.00,3.80,2.20,3.40,4.20,4.40,4.80,6.20,5.40,5.20,,,,,,,,,,,,,,
1799999997247502775,2027-01-15T07:59:57.247502775Z,-1.20,0.20,-1.20,1.00,1.00,2.00,2.00,3.80,3.20,3.60,5.20,6.20,5.00,7.20,,,,,,,,,,,,,,
1799999997258601554,2027-01-15T07:59:57.258601554Z,-2.00,-1.80,-0.80,-0.80,1.40,1.00,1.40,4.20,4.60,4.20,5.20,5.60,4.40,7.00,,,,,,,,,,,,,,
1799999997269700333,2027-01-15T07:59:57.269700333Z,-3.40,-2.00,1.20,-2.20,1.40,2.60,2.20,2.60,5.60,3.40,3.40,5.00,4.60,8.20,,,,,,,,,,,,,,
1799999997280799113,2027-01-15T07:59:57.280799113Z,-2.80,1.00,0.40,1.60,-0.20,1.00,1.40,3.20,4.00,4.80,3.00,6.00,6.40,7.00,,,,,,,,,,,,,,
1799999997291897892,2027-01-15T07:59:57.291897892Z,2.00,-0.80,-0.20,3.20,0.20,0.20,2.20,3.40,3.80,5.80,4.00,5.80,5.80,6.20,,,,,,,,,,,,,,
1799999997302996671,2027-01-15T07:59:57.302996671Z,0.80,-1.60,-1.20,1.20,0.60,1.80,2.80,1.20,3.40,6.60,4.60,4.60,5.00,8.20,,,,,,,,,,,,,,
1799999997314095450,2027-01-15T07:59:57.314095450Z,1.00,0.60,-0.40,0.40,0.40,2.60,3.00,0.40,2.60,6.20,4.80,5.00,5.20,7.40,,,,,,,,,,,,,,
1799999997325194229,2027-01-15T07:59:57.325194229Z,-2.20,0.40,-1.00,-1.60,0.80,3.80,2.60,0.40,4.60,4.00,6.20,6.80,5.40,5.60,,,,,,,,,,,,,,
1799999997336293008,2027-01-15T07:59:57.336293008Z,-2.40,-0.40,-0.20,-0.80,2.00,3.20,1.80,1.20,4.60,3.80,5.80,6.40,5.60,5.60,,,,,,,,,,,,,,
1799999997347391787,2027-01-15T07:59:57.347391787Z,-1.80,-1.80,0.60,1.80,1.20,3.60,2.00,3.60,4.80,5.60,3.80,5.80,4.60,5.00,,,,,,,,,,,,,,
1799999997358490567,2027-01-15T07:59:57.358490567Z,1.80,-2.20,0.20,0.20,2.20,2.20,1.80,2.80,4.00,5.00,5.20,6.00,6.80,7.20,,,,,,,,,,,,,,
1799999997369589346,2027-01-15T07:59:57.369589346Z,0.20,-1.60,0.40,-0.80,3.00,1.80,1.40,4.00,3.60,5.00,5.40,5.80,8.40,8.20,,,,,,,,,,,,,,
1799999997380688125,2027-01-15T07:59:57.380688125Z,0.60,-1.40,-1.20,-1.20,0.80,2.00,1.40,5.80,3.80,5.00,4.60,4.20,6.80,7.20,,,,,,,,,,,,,,
1799999997391786904,2027-01-15T07:59:57.391786904Z,-1.00,-1.20,-2.00,-1.20,-0.20,2.00,1.00,4.00,4.80,4.00,3.80,4.20,8.40,7.40,,,,,,,,,,,,,,
1799999997402885683,2027-01-15T07:59:57.402885683Z,-1.80,-1.80,-1.80,0.00,2.80,0.20,1.60,5.00,4.60,2.00,5.00,5.40,10.20,6.40,,,,,,,,,,,,,,
1799999997413984462,2027-01-15T07:59:57.413984462Z,-2.20,0.20,-0.40,0.20,3.20,0.20,2.20,6.20,4.20,2.40,6.40,5.60,8.80,6.80,,,,,,,,,,,,,,
1799999997425083241,2027-01-15T07:59:57.425083241Z,-2.00,2.40,0.20,0.20,2.80,1.00,1.60,4.60,2.80,2.80,5.00,5.40,5.20,9.80,,,,,,,,,,,,,,
1799999997436182020,2027-01-15T07:59:57.436182020Z,1.40,0.40,-2.00,1.00,2.40,1.40,2.60,5.20,3.60,2.60,4.20,6.60,6.00,9.80,,,,,,,,,,,,,,
1799999997447280800,2027-01-15T07:59:57.447280800Z,0.80,0.40,-2.20,1.00,1.60,1.00,2.00,4.80,3.60,3.20,4.20,6.80,5.80,8.80,,,,,,,,,,,,,,
1799999997458379579,2027-01-15T07:59:57.458379579Z,-0.60,1.40,-0.20,1.40,1.20,1.60,1.80,3.20,4.20,3.00,5.00,6.40,9.00,6.80,,,,,,,,,,,,,,
1799999997469478358,2027-01-15T07:59:57.469478358Z,0.80,1.00,0.00,0.60,1.20,2.20,1.80,2.00,4.40,2.40,5.40,6.60,10.20,6.40,,,,,,,,,,,,,,
1799999997480577137,2027-01-15T07:59:57.480577137Z,-0.40,1.00,1.40,-1.40,1.60,2.60,1.80,2.00,4.60,2.80,5.20,6.60,6.00,7.60,,,,,,,,,,,,,,
1799999997491675916,2027-01-15T07:59:57.491675916Z,1.60,-1.60,0.40,0.20,1.40,2.00,2.60,2.80,4.80,4.00,6.60,5.80,5.20,7.80,,,,,,,,,,,,,,
1799999997502774695,2027-01-15T07:59:57.502774695Z,1.00,-2.00,-0.40,1.00,1.20,2.00,3.20,2.80,6.00,4.80,5.80,5.60,5.80,7.40,,,,,,,,,,,,,,
1799999997513873474,2027-01-15T07:59:57.513873474Z,-2.00,0.00,1.40,0.00,0.40,0.80,2.20,3.20,4.40,3.80,3.60,5.60,5.60,5.40,,,,,,,,,,,,,,
1799999997524972254,2027-01-15T07:59:57.524972254Z,-2.20,0.20,1.80,-1.00,0.40,1.00,2.20,3.00,3.80,3.60,3.20,5.40,5.60,4.00,,,,,,,,,,,,,,
1799999997536071033,2027-01-15T07:59:57.536071033Z,-2.00,0.20,2.00,-0.40,1.00,0.80,3.20,2.40,4.20,5.60,4.20,5.20,7.20,5.60,,,,,,,,,,,,,,
1799999997547169812,2027-01-15T07:59:57.547169812Z,1.40,0.20,1.40,0.40,0.80,0.40,2.60,2.40,5.00,4.80,4.60,4.80,7.60,7.80,,,,,,,,,,,,,,
1799999997558268591,2027-01-15T07:59:57.558268591Z,-2.00,0.80,0.80,1.40,1.00,1.40,2.00,3.20,4.00,2.80,4.00,4.60,5.20,9.60,,,,,,,,,,,,,,
1799999997569367370,2027-01-15T07:59:57.569367370Z,-0.40,0.60,0.60,1.60,1.80,3.00,3.00,5.40,3.40,2.60,3.60,4.80,5.40,7.00,,,,,,,,,,,,,,
1799999997580466149,2027-01-15T07:59:57.580466149Z,-0.40,-1.60,0.40,1.80,2.00,3.80,3.00,4.20,3.80,2.80,3.80,5.20,5.60,6.00,,,,,,,,,,,,,,
1799999997591564928,2027-01-15T07:59:57.591564928Z,0.20,-2.80,0.00,1.40,0.80,2.00,2.40,1.20,5.40,4.40,4.00,5.40,6.60,6.80,,,,,,,,,,,,,,
1799999997602663707,2027-01-15T07:59:57.602663707Z,0.00,-2.60,-0.60,0.60,0.40,1.00,2.40,2.00,5.80,5.20,4.00,5.60,7.20,6.80,,,,,,,,,,,,,,
1799999997613762487,2027-01-15T07:59:57.613762487Z,-0.60,-1.20,-0.40,0.00,0.60,1.20,1.80,3.00,4.60,5.80,4.40,6.80,6.80,6.60,,,,,,,,,,,,,,
1799999997624861266,2027-01-15T07:59:57.624861266Z,0.80,-1.80,-1.00,0.40,2.00,1.40,2.20,2.40,3.80,6.20,4.20,6.60,5.80,6.00,,,,,,,,,,,,,,
1799999997635960045,2027-01-15T07:59:57.635960045Z,0.00,-1.60,-1.80,1.80,2.80,0.80,2.60,1.20,4.60,6.80,5.00,6.00,6.00,5.60,,,,,,,,,,,,,,
1799999997647058824,2027-01-15T07:59:57.647058824Z,-0.40,-1.40,-0.60,2.40,0.80,0.60,3.20,3.00,4.00,5.00,4.80,6.40,3.80,5.80,,,,,,,,,,,,,,
1799999997658157603,2027-01-15T07:59:57.658157603Z,-0.20,-2.20,-1.20,2.00,-0.60,2.00,2.40,4.00,3.60,5.20,4.60,6.00,3.80,5.40,,,,,,,,,,,,,,
1799999997669256382,2027-01-15T07:59:57.669256382Z,-1.60,-1.40,-1.20,1.40,-1.40,1.20,0.80,2.80,3.40,4.40,4.80,5.80,5.20,6.00,,,,,,,,,,,,,,
1799999997680355161,2027-01-15T07:59:57.680355161Z,0.40,-0.80,-0.60,0.80,-1.00,0.80,1.80,2.20,3.80,4.20,5.00,4.40,5.80,6.40,,,,,,,,,,,,,,
1799999997691453941,2027-01-15T07:59:57.691453941Z,-1.00,-0.20,-1.20,-0.80,-1.00,-0.20,3.60,1.00,3.20,6.40,4.00,4.00,6.80,6.80,,,,,,,,,,,,,,
1799999997702552720,2027-01-15T07:59:57.702552720Z,0.00,-2.20,-2.20,0.20,-1.00,1.20,2.60,2.60,5.00,4.40,5.00,7.20,5.40,6.20,,,,,,,,,,,,,,
1799999997713651499,2027-01-15T07:59:57.713651499Z,-0.60,-2.20,-2.40,0.80,-0.40,1.60,2.80,2.60,5.60,4.00,5.40,6.40,3.80,6.20,,,,,,,,,,,,,,
1799999997724750278,2027-01-15T07:59:57.724750278Z,-0.80,-1.40,-1.80,1.20,0.20,1.20,4.40,2.00,5.00,6.40,4.60,5.60,4.60,8.20,,,,,,,,,,,,,,
1799999997735849057,2027-01-15T07:59:57.735849057Z,0.80,-0.40,0.00,1.20,0.40,1.60,3.60,2.20,3.80,5.00,4.20,6.60,4.80,7.00,,,,,,,,,,,,,,
1799999997746947836,2027-01-15T07:59:57.746947836Z,0.60,-1.40,1.20,0.80,0.20,3.80,2.40,3.60,4.20,4.20,4.60,6.20,5.00,5.80,,,,,,,,,,,,,,
1799999997758046615,2027-01-15T07:59:57.758046615Z,0.40,-2.80,1.00,0.00,0.80,4.60,3.80,2.40,4.60,5.00,4.60,6.40,5.20,6.40,,,,,,,,,,,,,,
1799999997769145395,2027-01-15T07:59:57.769145395Z,0.00,-3.00,-0.80,-0.60,2.00,2.80,5.00,1.00,5.00,2.40,5.20,5.20,5.40,6.00,,,,,,,,,,,,,,
1799999997780244174,2027-01-15T07:59:57.780244174Z,-0.40,-0.80,-3.20,0.20,0.60,2.60,5.40,2.40,5.40,2.60,5.40,4.20,7.60,5.60,,,,,,,,,,,,,,
1799999997791342953,2027-01-15T07:59:57.791342953Z,-1.40,0.80,-2.60,1.00,0.80,2.80,4.60,3.20,4.20,3.80,5.40,4.80,8.20,6.20,,,,,,,,,,,,,,
1799999997802441732,2027-01-15T07:59:57.802441732Z,-0.40,3.00,-1.40,0.40,1.60,1.00,3.40,4.40,3.20,5.00,4.20,5.60,5.40,7.40,,,,,,,,,,,,,,
1799999997813540511,2027-01-15T07:59:57.813540511Z,-0.80,2.80,-1.60,0.20,1.80,2.40,3.60,4.00,3.20,4.40,4.60,6.20,5.80,7.60,,,,,,,,,,,,,,
1799999997824639290,2027-01-15T07:59:57.824639290Z,-0.40,0.40,0.20,1.40,2.00,3.20,4.20,4.00,2.20,4.40,5.60,6.60,6.60,7.80,,,,,,,,,,,,,,
1799999997835738069,2027-01-15T07:59:57.835738069Z,-0.60,-0.60,0.60,1.60,1.80,1.80,3.40,3.40,2.20,5.80,5.00,5.40,6.60,6.60,,,,,,,,,,,,,,
1799999997846836848,2027-01-15T07:59:57.846836848Z,-0.80,-1.80,-0.40,1.00,1.00,0.80,2.00,3.00,3.60,8.20,5.40,4.00,7.20,4.80,,,,,,,,,,,,,,
1799999997857935628,2027-01-15T07:59:57.857935628Z,-0.20,-1.20,-0.60,1.40,0.00,0.80,2.60,3.80,2.80,6.20,6.40,6.20,6.60,5.80,,,,,,,,,,,,,,
1799999997869034407,2027-01-15T07:59:57.869034407Z,-0.60,-1.80,0.00,1.80,0.00,1.20,3.40,4.00,2.80,4.80,5.80,5.80,6.80,6.80,,,,,,,,,,,,,,
1799999997880133186,2027-01-15T07:59:57.880133186Z,-2.20,-2.20,2.60,1.20,1.00,0.80,3.80,5.40,2.40,4.40,5.80,6.00,6.80,7.20,,,,,,,,,,,,,,
1799999997891231965,2027-01-15T07:59:57.891231965Z,1.00,-1.20,2.60,1.00,0.60,0.80,1.40,5.20,2.20,4.40,6.00,7.20,5.80,7.80,,,,,,,,,,,,,,
1799999997902330744,2027-01-15T07:59:57.902330744Z,1.00,-0.60,0.20,0.60,1.20,2.60,-1.20,4.80,3.80,4.40,5.00,7.60,4.60,8.20,,,,,,,,,,,,,,
1799999997913429523,2027-01-15T07:59:57.913429523Z,-2.20,-1.20,-0.80,0.60,2.20,2.40,0.80,3.80,3.80,3.80,5.80,6.20,4.40,7.80,,,,,,,,,,,,,,
1799999997924528302,2027-01-15T07:59:57.924528302Z,-2.20,-0.80,-0.40,0.00,2.20,3.00,1.80,3.20,3.20,4.20,6.00,6.00,5.00,7.00,,,,,,,,,,,,,,
1799999997935627082,2027-01-15T07:59:57.935627082Z,0.20,-0.40,1.20,0.40,1.80,2.80,2.00,4.20,2.80,6.00,3.60,6.80,6.00,5.40,,,,,,,,,,,,,,
1799999997946725861,2027-01-15T07:59:57.946725861Z,0.00,-0.40,1.00,-1.00,1.80,2.20,2.40,4.80,3.00,5.20,3.60,6.00,5.60,6.20,,,,,,,,,,,,,,
1799999997957824640,2027-01-15T07:59:57.957824640Z,1.20,1.60,0.80,-1.40,1.00,0.20,3.00,3.80,4.00,4.20,5.00,5.20,6.40,8.40,,,,,,,,,,,,,,
1799999997968923419,2027-01-15T07:59:57.968923419Z,0.00,1.20,1.60,-0.80,0.80,0.00,3.80,4.00,2.80,4.40,5.20,5.40,6.80,8.80,,,,,,,,,,,,,,
1799999997980022198,2027-01-15T07:59:57.980022198Z,-1.00,-2.00,1.20,-0.60,1.20,3.40,3.80,4.00,2.20,2.60,5.80,4.40,6.20,8.20,,,,,,,,,,,,,,
1799999997991120977,2027-01-15T07:59:57.991120977Z,-0.80,-1.60,-0.40,1.20,1.80,3.40,1.20,2.00,4.80,1.80,4.60,5.20,7.40,7.00,,,,,,,,,,,,,,
1799999998002219756,2027-01-15T07:59:58.002219756Z,-2.80,-1.40,-0.80,2.20,3.20,3.40,2.20,1.40,3.80,2.60,4.40,5.40,6.20,6.40,,,,,,,,,,,,,,
1799999998013318535,2027-01-15T07:59:58.013318535Z,-0.80,0.40,-0.80,1.60,3.40,1.80,1.40,2.80,3.40,4.00,6.40,5.60,7.20,6.00,,,,,,,,,,,,,,
1799999998024417315,2027-01-15T07:59:58.024417315Z,-2.80,1.00,-1.20,1.60,1.80,1.00,-0.40,3.60,4.20,4.60,6.80,6.00,8.20,5.80,,,,,,,,,,,,,,
1799999998035516094,2027-01-15T07:59:58.035516094Z,-1.60,-0.80,-1.00,0.80,1.80,0.40,1.40,3.60,4.60,6.00,5.20,5.60,7.40,7.80,,,,,,,,,,,,,,
1799999998046614873,2027-01-15T07:59:58.046614873Z,-3.20,-0.80,-1.00,0.80,1.80,0.40,1.40,2.60,3.40,6.60,5.40,4.80,7.40,8.80,,,,,,,,,,,,,,
1799999998057713652,2027-01-15T07:59:58.057713652Z,-1.40,-2.80,0.60,-0.60,-1.80,-0.80,1.80,1.80,2.60,6.00,5.20,6.00,7.60,8.00,,,,,,,,,,,,,,
1799999998068812431,2027-01-15T07:59:58.068812431Z,-0.40,-1.60,2.00,0.20,0.40,2.40,3.40,2.20,4.00,4.80,6.20,5.40,7.20,6.60,,,,,,,,,,,,,,
1799999998079911210,2027-01-15T07:59:58.079911210Z,1.40,-0.80,1.40,0.60,2.60,2.60,3.40,2.40,5.60,3.80,6.60,6.00,7.60,6.80,,,,,,,,,,,,,,
1799999998091009989,2027-01-15T07:59:58.091009989Z,-2.80,0.00,1.00,1.80,2.60,0.60,2.60,3.40,6.20,4.20,4.40,6.40,6.80,7.00,,,,,,,,,,,,,,
1799999998102108769,2027-01-15T07:59:58.102108769Z,-0.20,0.60,0.60,0.40,3.20,-0.80,2.00,3.40,4.60,4.40,3.60,5.80,6.20,6.20,,,,,,,,,,,,,,
1799999998113207548,2027-01-15T07:59:58.113207548Z,-1.20,0.20,1.80,-0.60,3.40,0.00,3.00,2.60,5.00,3.80,3.60,5.80,4.60,5.60,,,,,,,,,,,,,,
1799999998124306327,2027-01-15T07:59:58.124306327Z,-2.80,-1.80,2.80,-0.40,2.80,1.00,3.20,2.80,4.60,4.00,2.80,6.20,5.00,5.00,,,,,,,,,,,,,,
1799999998135405106,2027-01-15T07:59:58.135405106Z,-2.20,-4.20,0.20,-0.40,2.40,2.20,2.60,4.00,3.00,4.80,2.40,6.40,7.00,4.60,,,,,,,,,,,,,,
1799999998146503885,2027-01-15T07:59:58.146503885Z,-2.20,-2.40,-2.60,0.40,3.40,0.60,3.60,4.00,5.80,5.00,2.60,6.40,6.40,5.80,,,,,,,,,,,,,,
1799999998157602664,2027-01-15T07:59:58.157602664Z,-2.60,-2.40,-1.80,0.80,2.60,0.80,3.20,4.00,7.40,5.00,3.80,6.00,5.40,5.00,,,,,,,,,,,,,,
1799999998168701443,2027-01-15T07:59:58.168701443Z,-2.00,-5.00,0.00,0.20,1.00,-0.80,2.60,5.20,5.20,5.20,4.40,5.80,7.20,6.40,,,,,,,,,,,,,,
1799999998179800222,2027-01-15T07:59:58.179800222Z,-1.60,-5.00,-0.80,-0.60,1.40,-2.00,3.00,5.60,3.40,5.20,4.00,6.00,7.80,8.00,,,,,,,,,,,,,,
1799999998190899002,2027-01-15T07:59:58.190899002Z,-1.80,-3.20,-1.20,-0.80,2.60,0.00,2.20,3.20,3.00,3.80,3.00,5.80,7.60,9.00,,,,,,,,,,,,,,
1799999998201997781,2027-01-15T07:59:58.201997781Z,,-2.20,-0.40,0.80,2.20,2.00,3.00,2.60,4.60,3.40,4.00,6.20,6.60,6.80,,,,,,,,,,,,,,
1799999998213096560,2027-01-15T07:59:58.213096560Z,,-0.40,0.80,1.60,2.00,1.60,2.20,2.80,2.60,3.60,4.00,6.40,7.00,6.00,,,,,,,,,,,,,,
1799999998224195339,2027-01-15T07:59:58.224195339Z,,1.00,1.60,1.60,2.00,1.20,2.00,3.40,1.20,5.00,5.20,5.20,6.20,6.60,,,,,,,,,,,,,,
1799999998235294118,2027-01-15T07:59:58.235294118Z,,0.40,1.80,0.80,2.00,-0.20,2.80,2.40,2.00,6.00,5.80,4.80,6.40,6.20,,,,,,,,,,,,,,
1799999998246392897,2027-01-15T07:59:58.246392897Z,,1.00,2.80,0.00,2.00,-1.00,3.40,2.20,3.00,4.80,5.60,5.80,6.00,6.20,,,,,,,,,,,,,,
1799999998257491676,2027-01-15T07:59:58.257491676Z,,0.00,1.20,0.20,2.40,-0.20,2.40,3.20,3.60,4.20,4.80,5.80,8.20,7.00,,,,,,,,,,,,,,
1799999998268590456,2027-01-15T07:59:58.268590456Z,,0.80,-2.20,1.40,2.20,2.00,1.20,3.80,3.60,3.80,5.60,5.60,9.20,7.80,,,,,,,,,,,,,,
1799999998279689235,2027-01-15T07:59:58.279689235Z,,1.00,-3.20,1.40,2.40,3.20,1.60,2.80,2.60,4.20,5.40,6.20,5.20,6.60,,,,,,,,,,,,,,
1799999998290788014,2027-01-15T07:59:58.290788014Z,,-0.20,-2.80,0.80,2.60,3.40,1.80,1.80,3.00,4.20,4.80,5.40,5.60,7.80,,,,,,,,,,,,,,
1799999998301886793,2027-01-15T07:59:58.301886793Z,,-2.40,-4.00,-1.00,1.80,3.80,3.20,2.40,4.40,3.80,4.20,5.20,7.20,8.40,,,,,,,,,,,,,,
1799999998312985572,2027-01-15T07:59:58.312985572Z,,-0.80,-2.80,-1.60,0.20,3.00,4.40,2.60,4.20,3.80,5.40,5.80,6.40,7.20,,,,,,,,,,,,,,
1799999998324084351,2027-01-15T07:59:58.324084351Z,,-0.60,-0.60,0.00,-0.60,2.00,3.00,3.20,6.60,4.60,4.20,5.80,6.00,5.20,,,,,,,,,,,,,,
1799999998335183130,2027-01-15T07:59:58.335183130Z,,-0.60,-0.20,0.00,-0.80,2.80,2.40,3.00,6.80,4.80,4.20,5.80,7.80,6.20,,,,,,,,,,,,,,
1799999998346281909,2027-01-15T07:59:58.346281909Z,,-0.80,-0.20,-0.60,-2.20,3.20,1.60,1.40,4.40,3.40,4.60,5.80,10.00,8.60,,,,,,,,,,,,,,
1799999998357380689,2027-01-15T07:59:58.357380689Z,,0.20,-0.20,-0.20,-1.00,2.80,3.60,2.40,4.40,4.40,5.20,5.20,7.20,8.20,,,,,,,,,,,,,,
1799999998368479468,2027-01-15T07:59:58.368479468Z,,2.20,0.00,1.40,0.00,2.20,4.00,2.80,4.60,3.60,5.20,5.40,6.00,8.20,,,,,,,,,,,,,,
1799999998379578247,2027-01-15T07:59:58.379578247Z,,2.40,-1.00,0.80,0.20,1.40,2.20,4.00,3.60,3.20,5.00,7.20,5.60,7.00,,,,,,,,,,,,,,
1799999998390677026,2027-01-15T07:59:58.390677026Z,,1.80,-0.60,1.40,1.20,2.20,0.80,3.00,3.60,3.20,5.60,7.80,4.80,6.00,,,,,,,,,,,,,,
1799999998401775805,2027-01-15T07:59:58.401775805Z,,-0.60,0.00,2.40,2.80,2.60,3.00,3.60,3.60,1.00,6.60,7.20,6.40,4.60,,,,,,,,,,,,,,
1799999998412874584,2027-01-15T07:59:58.412874584Z,,1.40,-1.20,0.60,2.20,1.00,3.80,2.20,4.40,2.60,4.20,6.00,5.80,6.00,,,,,,,,,,,,,,
1799999998423973363,2027-01-15T07:59:58.423973363Z,,2.20,-0.40,0.40,1.40,2.20,3.60,1.80,5.00,4.20,4.80,6.00,5.00,6.40,,,,,,,,,,,,,,
1799999998435072143,2027-01-15T07:59:58.435072143Z,,2.80,0.40,1.80,1.80,3.80,3.40,0.80,4.60,4.00,7.00,7.00,6.40,7.00,,,,,,,,,,,,,,
1799999998446170922,2027-01-15T07:59:58.446170922Z,,3.00,-0.20,2.40,2.40,2.80,3.00,1.00,5.00,3.80,6.80,7.00,8.60,6.80,,,,,,,,,,,,,,
1799999998457269701,2027-01-15T07:59:58.457269701Z,,2.60,-3.20,2.40,1.00,1.00,3.60,2.20,4.80,3.60,5.00,6.20,5.60,6.00,,,,,,,,,,,,,,
1799999998468368480,2027-01-15T07:59:58.468368480Z,,2.00,-3.40,2.60,-0.60,0.20,3.60,1.60,4.00,3.60,4.40,6.60,5.40,7.20,,,,,,,,,,,,,,
1799999998479467259,2027-01-15T07:59:58.479467259Z,,-0.60,-1.60,1.80,0.80,-0.80,2.60,0.20,4.80,3.40,5.00,6.20,5.40,9.40,,,,,,,,,,,,,,
1799999998490566038,2027-01-15T07:59:58.490566038Z,,0.60,0.80,1.20,-0.20,2.80,1.60,-0.40,4.20,4.80,4.60,4.80,6.20,6.60,,,,,,,,,,,,,,
1799999998501664817,2027-01-15T07:59:58.501664817Z,,-0.20,1.00,0.40,0.60,4.20,1.40,0.60,3.40,5.20,4.00,5.20,6.80,4.40,,,,,,,,,,,,,,
1799999998512763597,2027-01-15T07:59:58.512763597Z,,-0.20,0.60,1.20,1.40,1.60,1.20,2.40,2.80,4.00,3.80,5.40,8.40,5.40,,,,,,,,,,,,,,
1799999998523862376,2027-01-15T07:59:58.523862376Z,,-0.40,0.20,1.80,0.80,1.80,1.80,4.00,2.60,4.20,4.00,4.80,8.20,6.20,,,,,,,,,,,,,,
1799999998534961155,2027-01-15T07:59:58.534961155Z,,-0.40,-0.20,1.20,0.40,2.00,2.60,3.00,2.80,6.00,5.20,5.80,6.80,5.80,,,,,,,,,,,,,,
1799999998546059934,2027-01-15T07:59:58.546059934Z,,0.60,1.40,1.20,0.20,3.20,3.00,2.40,2.20,6.80,5.80,5.40,5.20,5.60,,,,,,,,,,,,,,
1799999998557158713,2027-01-15T07:59:58.557158713Z,,0.80,3.20,0.40,0.40,4.20,3.60,2.00,2.20,5.20,5.20,4.80,5.80,6.60,,,,,,,,,,,,,,
1799999998568257492,2027-01-15T07:59:58.568257492Z,,1.80,2.00,2.60,1.40,2.20,2.80,1.60,3.20,3.20,4.60,5.20,4.80,5.40,,,,,,,,,,,,,,
1799999998579356271,2027-01-15T07:59:58.579356271Z,,1.80,0.00,3.40,0.60,1.00,2.40,1.20,4.20,2.80,3.80,5.20,4.40,5.40,,,,,,,,,,,,,,
1799999998590455050,2027-01-15T07:59:58.590455050Z,,0.00,0.60,2.80,-1.20,1.00,1.40,3.00,4.00,4.60,4.80,6.40,5.60,7.20,,,,,,,,,,,,,,
1799999998601553830,2027-01-15T07:59:58.601553830Z,,-0.60,0.80,2.80,0.00,1.20,2.00,3.00,3.80,5.60,5.60,5.80,5.60,8.00,,,,,,,,,,,,,,
1799999998612652609,2027-01-15T07:59:58.612652609Z,,0.80,0.80,1.40,2.20,1.80,2.00,2.20,4.20,6.60,6.60,5.60,4.20,9.20,,,,,,,,,,,,,,
1799999998623751388,2027-01-15T07:59:58.623751388Z,,1.00,-0.40,2.20,0.60,1.40,1.40,2.20,3.60,5.60,5.60,7.20,4.60,7.40,,,,,,,,,,,,,,
1799999998634850167,2027-01-15T07:59:58.634850167Z,,1.00,0.60,3.20,0.60,1.80,2.00,2.20,3.00,6.00,5.60,6.00,5.00,6.80,,,,,,,,,,,,,,
1799999998645948946,2027-01-15T07:59:58.645948946Z,,-0.60,2.40,3.60,0.20,2.40,2.00,2.60,3.60,6.00,5.00,3.80,5.80,8.20,,,,,,,,,,,,,,
1799999998657047725,2027-01-15T07:59:58.657047725Z,,-0.80,2.60,2.60,0.20,1.80,1.40,2.00,3.80,5.20,5.40,4.20,8.20,7.80,,,,,,,,,,,,,,
1799999998668146504,2027-01-15T07:59:58.668146504Z,,-1.40,2.00,1.60,0.60,1.20,2.60,1.40,4.20,4.80,5.40,5.00,10.20,6.80,,,,,,,,,,,,,,
1799999998679245284,2027-01-15T07:59:58.679245284Z,,-2.20,1.00,0.20,0.40,2.20,3.20,2.40,4.00,5.20,4.60,5.60,8.20,7.00,,,,,,,,,,,,,,
1799999998690344063,2027-01-15T07:59:58.690344063Z,,-2.60,-0.20,0.00,-0.40,1.80,3.00,4.20,2.20,4.60,5.40,6.40,7.80,7.20,,,,,,,,,,,,,,
1799999998701442842,2027-01-15T07:59:58.701442842Z,,-1.20,-1.60,0.80,1.60,1.80,4.60,4.20,2.20,4.80,6.00,5.60,5.00,6.20,,,,,,,,,,,,,,
1799999998712541621,2027-01-15T07:59:58.712541621Z,,-1.20,-1.40,0.80,1.80,1.20,4.40,4.20,3.00,5.00,5.60,5.20,4.80,5.80,,,,,,,,,,,,,,
1799999998723640400,2027-01-15T07:59:58.723640400Z,,-2.00,-1.60,-1.00,-0.60,0.20,5.00,4.40,4.40,3.60,7.00,4.60,3.60,7.20,,,,,,,,,,,,,,
1799999998734739179,2027-01-15T07:59:58.734739179Z,,-3.40,-1.20,-1.20,0.40,1.00,4.20,4.00,5.40,3.00,7.60,4.60,3.40,8.20,,,,,,,,,,,,,,
1799999998745837958,2027-01-15T07:59:58.745837958Z,,-6.60,-0.80,-2.00,1.60,2.00,3.20,4.80,3.00,4.80,6.80,4.80,5.40,7.20,,,,,,,,,,,,,,
1799999998756936737,2027-01-15T07:59:58.756936737Z,,-6.20,-0.60,-2.20,1.00,2.80,2.00,6.00,2.60,5.80,4.40,5.60,5.40,6.40,,,,,,,,,,,,,,
1799999998768035517,2027-01-15T07:59:58.768035517Z,,-4.60,-0.20,-2.40,1.80,1.20,-1.60,6.00,3.60,4.60,1.60,5.20,5.40,5.00,,,,,,,,,,,,,,
1799999998779134296,2027-01-15T07:59:58.779134296Z,-9.40,-3.80,-2.00,-2.80,1.60,1.00,-1.00,5.20,3.00,3.80,2.80,5.40,5.20,3.80,,,,,,,,,,,,,,
1799999998790233075,2027-01-15T07:59:58.790233075Z,-10.20,-2.40,-1.80,-1.20,1.60,0.40,0.00,4.40,3.60,3.80,3.80,5.20,5.00,5.40,,,,,,,,,,,,,,
1799999998801331854,2027-01-15T07:59:58.801331854Z,-9.20,-4.20,-2.60,1.20,0.40,-0.20,0.80,2.20,5.40,4.80,4.60,4.00,6.20,7.80,,,,,,,,,,,,,,
1799999998812430633,2027-01-15T07:59:58.812430633Z,-9.40,-6.00,-3.60,1.20,1.00,1.00,1.20,2.60,4.80,5.00,4.00,4.40,5.80,7.80,,,,,,,,,,,,,,
1799999998823529412,2027-01-15T07:59:58.823529412Z,,-5.00,-1.80,0.20,1.60,2.40,2.20,3.40,5.40,4.60,5.20,4.40,5.00,7.20,,,,,,,,,,,,,,
1799999998834628191,2027-01-15T07:59:58.834628191Z,,-2.40,-0.40,-0.60,0.80,2.20,2.00,4.20,5.60,5.00,5.40,4.00,6.00,6.80,,,,,,,,,,,,,,
1799999998845726971,2027-01-15T07:59:58.845726971Z,,0.40,-0.20,-1.40,0.80,1.60,1.60,6.00,6.60,5.20,4.00,5.20,5.40,5.60,,,,,,,,,,,,,,
1799999998856825750,2027-01-15T07:59:58.856825750Z,,-1.20,-2.40,-1.40,3.20,2.00,2.00,4.40,6.20,6.20,3.80,5.60,5.60,6.20,,,,,,,,,,,,,,
1799999998867924529,2027-01-15T07:59:58.867924529Z,,-2.20,-1.40,-1.00,4.00,3.20,1.80,3.60,4.60,6.40,4.20,7.20,5.60,6.40,,,,,,,,,,,,,,
1799999998879023308,2027-01-15T07:59:58.879023308Z,,-2.60,-1.00,0.00,3.00,4.80,3.20,3.00,1.60,5.00,4.80,7.60,9.20,6.80,,,,,,,,,,,,,,
1799999998890122087,2027-01-15T07:59:58.890122087Z,,-1.20,-1.20,0.20,1.40,4.40,3.60,2.40,1.20,4.20,5.00,7.20,10.00,7.20,,,,,,,,,,,,,,
1799999998901220866,2027-01-15T07:59:58.901220866Z,,0.80,-1.80,0.80,1.80,4.00,2.20,4.40,2.20,5.80,3.40,7.00,7.20,7.80,,,,,,,,,,,,,,
1799999998912319645,2027-01-15T07:59:58.912319645Z,,0.40,0.40,2.00,2.60,2.40,2.40,4.40,1.60,5.20,3.80,7.00,8.00,6.40,,,,,,,,,,,,,,
1799999998923418424,2027-01-15T07:59:58.923418424Z,,0.40,1.00,2.20,3.20,1.40,3.00,5.00,1.20,4.60,4.60,6.80,8.00,6.40,,,,,,,,,,,,,,
1799999998934517204,2027-01-15T07:59:58.934517204Z,,-0.40,1.20,2.00,2.00,-0.80,1.20,3.40,3.80,5.20,4.80,6.40,7.80,7.00,,,,,,,,,,,,,,
1799999998945615983,2027-01-15T07:59:58.945615983Z,,0.20,-0.40,1.80,1.40,0.20,0.20,1.80,5.20,4.80,4.80,6.60,7.80,8.00,,,,,,,,,,,,,,
1799999998956714762,2027-01-15T07:59:58.956714762Z,,3.60,0.00,1.20,2.20,3.20,-0.40,1.20,3.80,3.40,5.20,6.80,8.20,7.00,,,,,,,,,,,,,,
1799999998967813541,2027-01-15T07:59:58.967813541Z,,3.40,0.80,2.20,3.60,2.80,-0.20,1.40,4.80,3.20,5.00,6.60,6.40,5.80,,,,,,,,,,,,,,
1799999998978912320,2027-01-15T07:59:58.978912320Z,,1.80,1.00,2.20,1.60,1.80,0.20,2.20,6.20,2.60,5.60,5.20,4.60,6.60,,,,,,,,,,,,,,
1799999998990011099,2027-01-15T07:59:58.990011099Z,,1.60,-0.40,-0.60,1.40,2.60,1.80,1.40,4.40,3.00,7.00,4.20,4.40,6.80,,,,,,,,,,,,,,
1799999999001109878,2027-01-15T07:59:59.001109878Z,,0.60,-0.40,-0.40,1.20,2.40,2.80,0.80,3.20,3.00,5.40,4.20,3.20,7.40,,,,,,,,,,,,,,
1799999999012208658,2027-01-15T07:59:59.012208658Z,,1.80,0.40,0.60,1.00,1.40,1.40,0.80,3.20,3.80,4.60,6.00,4.00,10.20,,,,,,,,,,,,,,
1799999999023307437,2027-01-15T07:59:59.023307437Z,,2.40,1.20,0.40,0.20,1.40,1.60,1.20,4.00,3.80,5.00,5.80,7.00,10.60,,,,,,,,,,,,,,
1799999999034406216,2027-01-15T07:59:59.034406216Z,,2.00,2.20,0.40,0.60,1.60,2.80,1.80,3.60,3.00,4.80,6.20,7.00,8.20,,,,,,,,,,,,,,
1799999999045504995,2027-01-15T07:59:59.045504995Z,,1.00,2.00,1.00,1.00,1.20,3.00,1.80,3.00,3.00,4.80,6.60,7.80,6.40,,,,,,,,,,,,,,
1799999999056603774,2027-01-15T07:59:59.056603774Z,,-0.60,1.40,0.80,1.40,0.00,3.20,2.80,4.00,2.00,4.20,8.00,7.60,5.00,,,,,,,,,,,,,,
1799999999067702553,2027-01-15T07:59:59.067702553Z,,0.20,0.20,2.20,1.40,1.40,4.40,4.20,5.60,2.60,5.20,7.00,5.40,6.80,,,,,,,,,,,,,,
1799999999078801332,2027-01-15T07:59:59.078801332Z,,-0.80,-0.60,2.40,1.80,2.60,5.40,4.80,5.00,3.80,5.80,6.40,6.60,7.40,,,,,,,,,,,,,,
1799999999089900111,2027-01-15T07:59:59.089900111Z,,0.00,-0.40,1.20,2.80,2.60,4.60,3.80,5.00,5.60,6.60,5.20,5.80,7.80,,,,,,,,,,,,,,
1799999999100998891,2027-01-15T07:59:59.100998891Z,,0.80,-1.00,0.40,2.20,2.80,3.40,4.00,5.60,6.20,5.20,4.40,4.20,6.80,,,,,,,,,,,,,,
1799999999112097670,2027-01-15T07:59:59.112097670Z,,-0.60,-0.60,1.00,1.00,3.00,3.00,3.80,4.40,4.00,4.00,4.60,6.80,4.20,,,,,,,,,,,,,,
1799999999123196449,2027-01-15T07:59:59.123196449Z,,-2.00,1.00,-0.40,1.20,2.20,3.00,2.80,1.80,3.80,5.40,6.00,8.00,4.40,,,,,,,,,,,,,,
1799999999134295228,2027-01-15T07:59:59.134295228Z,,-2.40,2.20,-0.60,0.60,1.80,2.60,3.20,3.20,3.80,6.60,6.20,8.40,5.20,,,,,,,,,,,,,,
1799999999145394007,2027-01-15T07:59:59.145394007Z,,-2.40,1.20,-0.20,-1.40,2.40,1.80,3.20,5.60,3.80,6.20,5.60,7.40,7.40,,,,,,,,,,,,,,
1799999999156492786,2027-01-15T07:59:59.156492786Z,,-1.20,0.40,1.00,-0.60,2.20,2.00,3.00,5.40,4.20,5.00,5.00,5.80,8.00,,,,,,,,,,,,,,
1799999999167591565,2027-01-15T07:59:59.167591565Z,,-0.40,0.80,2.80,2.20,2.40,3.60,4.60,4.40,5.00,3.00,5.60,6.20,7.00,,,,,,,,,,,,,,
1799999999178690345,2027-01-15T07:59:59.178690345Z,,-2.00,0.60,1.40,2.60,1.60,4.80,5.20,4.60,4.00,3.00,6.20,8.20,5.80,,,,,,,,,,,,,,
1799999999189789124,2027-01-15T07:59:59.189789124Z,,-3.60,0.00,-0.20,2.00,-1.40,4.00,3.20,4.40,3.40,2.00,6.60,8.00,7.20,,,,,,,,,,,,,,
1799999999200887903,2027-01-15T07:59:59.200887903Z,,-3.00,-0.20,-0.60,1.80,0.00,5.20,3.00,5.60,4.20,3.40,6.40,8.00,6.40,,,,,,,,,,,,,,
1799999999211986682,2027-01-15T07:59:59.211986682Z,,-0.60,0.20,-0.60,1.60,1.40,4.60,3.20,6.40,3.80,4.80,6.20,5.40,6.40,,,,,,,,,,,,,,
1799999999223085461,2027-01-15T07:59:59.223085461Z,,-0.60,0.60,-1.20,1.00,-0.20,2.60,2.60,5.00,3.20,4.00,6.00,3.60,7.80,,,,,,,,,,,,,,
1799999999234184240,2027-01-15T07:59:59.234184240Z,,-2.00,-0.20,-0.80,0.80,-0.20,2.20,3.00,3.80,4.00,4.20,5.80,4.00,7.60,,,,,,,,,,,,,,
1799999999245283019,2027-01-15T07:59:59.245283019Z,,-1.60,-1.00,-0.20,-0.40,0.20,1.60,2.60,3.60,3.80,4.80,5.80,5.20,7.80,,,,,,,,,,,,,,
1799999999256381799,2027-01-15T07:59:59.256381799Z,,-0.80,-0.80,0.80,-0.40,0.20,1.60,2.80,4.40,3.60,5.00,5.40,5.60,7.60,,,,,,,,,,,,,,
1799999999267480578,2027-01-15T07:59:59.267480578Z,,-3.00,-1.60,2.40,-0.40,1.20,1.40,3.60,3.60,4.20,4.60,5.80,4.80,6.00,,,,,,,,,,,,,,
1799999999278579357,2027-01-15T07:59:59.278579357Z,,-3.00,-1.20,1.00,0.40,2.40,3.20,3.60,3.80,5.60,5.40,5.20,5.60,5.20,,,,,,,,,,,,,,
1799999999289678136,2027-01-15T07:59:59.289678136Z,,-1.60,-0.40,0.00,1.20,3.40,3.80,2.80,3.80,6.20,6.00,5.00,6.60,6.40,,,,,,,,,,,,,,
1799999999300776915,2027-01-15T07:59:59.300776915Z,,-1.00,0.20,-0.60,1.00,0.80,3.00,2.60,4.00,3.20,4.80,6.40,7.20,8.00,,,,,,,,,,,,,,
1799999999311875694,2027-01-15T07:59:59.311875694Z,,-0.60,1.20,0.20,0.40,0.00,2.20,2.80,3.40,1.80,3.80,6.80,8.00,7.80,,,,,,,,,,,,,,
1799999999322974473,2027-01-15T07:59:59.322974473Z,,-0.40,2.00,1.40,0.20,0.20,3.60,3.00,4.20,2.60,3.80,6.00,7.00,7.00,,,,,,,,,,,,,,
1799999999334073252,2027-01-15T07:59:59.334073252Z,,0.20,1.00,2.40,0.20,1.60,4.40,3.00,5.60,3.00,3.60,5.20,6.20,6.20,,,,,,,,,,,,,,
1799999999345172032,2027-01-15T07:59:59.345172032Z,,-0.20,1.20,2.40,0.60,1.40,5.20,2.80,4.40,2.60,3.40,5.20,6.80,6.40,,,,,,,,,,,,,,
1799999999356270811,2027-01-15T07:59:59.356270811Z,,-1.60,0.60,0.20,1.00,1.80,4.40,3.80,4.60,2.60,4.40,6.80,8.20,7.20,,,,,,,,,,,,,,
1799999999367369590,2027-01-15T07:59:59.367369590Z,,-1.60,0.00,-0.40,1.60,1.60,3.40,2.80,5.20,2.60,5.20,7.20,6.60,7.80,,,,,,,,,,,,,,
1799999999378468369,2027-01-15T07:59:59.378468369Z,,-0.20,-0.60,-0.40,0.00,0.60,4.00,3.60,2.80,3.00,4.60,6.40,4.40,6.00,,,,,,,,,,,,,,
1799999999389567148,2027-01-15T07:59:59.389567148Z,,1.40,0.00,0.60,-1.00,1.40,3.40,3.60,2.20,4.00,4.80,6.20,4.20,5.00,,,,,,,,,,,,,,
1799999999400665927,2027-01-15T07:59:59.400665927Z,,-0.20,0.80,-1.00,-0.80,2.80,1.40,2.60,3.00,6.00,6.00,5.00,7.20,5.40,,,,,,,,,,,,,,
1799999999411764706,2027-01-15T07:59:59.411764706Z,,-0.40,-1.80,0.00,-0.60,2.00,2.00,2.00,4.00,6.00,5.00,5.20,4.80,7.40,,,,,,,,,,,,,,
1799999999422863486,2027-01-15T07:59:59.422863486Z,,-0.20,-2.20,0.60,-0.20,1.40,1.40,2.80,4.00,5.60,5.00,4.60,3.20,8.00,,,,,,,,,,,,,,
1799999999433962265,2027-01-15T07:59:59.433962265Z,,-1.40,-0.20,0.60,1.60,0.80,-0.20,3.20,2.60,4.40,6.00,5.40,3.80,7.20,,,,,,,,,,,,,,
1799999999445061044,2027-01-15T07:59:59.445061044Z,,-1.20,-0.60,0.60,1.60,0.00,0.00,3.60,2.80,5.40,7.60,6.00,3.80,6.40,,,,,,,,,,,,,,
1799999999456159823,2027-01-15T07:59:59.456159823Z,,-1.40,-2.20,1.60,0.40,-0.40,1.20,3.80,2.80,5.40,7.60,5.60,7.40,5.40,,,,,,,,,,,,,,
1799999999467258602,2027-01-15T07:59:59.467258602Z,,-1.40,-1.20,2.20,0.40,-0.40,0.60,3.20,2.60,5.00,6.00,6.00,7.00,6.00,,,,,,,,,,,,,,
1799999999478357381,2027-01-15T07:59:59.478357381Z,,-0.80,0.40,1.80,-0.20,-0.80,0.20,3.60,4.00,5.00,3.60,7.60,4.60,7.20,,,,,,,,,,,,,,
1799999999489456160,2027-01-15T07:59:59.489456160Z,,1.20,-0.40,0.80,0.00,1.80,1.60,2.60,3.00,3.60,4.40,6.00,4.00,8.00,,,,,,,,,,,,,,
1799999999500554939,2027-01-15T07:59:59.500554939Z,,2.00,0.20,0.80,1.00,3.40,2.20,1.80,2.40,4.00,4.40,4.80,3.80,6.80,,,,,,,,,,,,,,
1799999999511653719,2027-01-15T07:59:59.511653719Z,,1.40,1.40,0.60,2.60,4.60,2.00,2.00,5.40,4.80,3.80,5.80,4.40,7.20,,,,,,,,,,,,,,
1799999999522752498,2027-01-15T07:59:59.522752498Z,,0.00,1.00,0.00,3.60,3.00,2.40,3.00,5.60,4.20,3.60,5.80,5.60,7.60,,,,,,,,,,,,,,
1799999999533851277,2027-01-15T07:59:59.533851277Z,,-1.80,0.40,-0.20,3.60,0.80,2.40,2.80,4.00,3.20,4.20,5.20,6.80,5.80,,,,,,,,,,,,,,
1799999999544950056,2027-01-15T07:59:59.544950056Z,,-1.40,-2.20,1.20,0.20,2.60,3.60,5.00,4.40,3.40,5.80,4.60,9.00,6.60,,,,,,,,,,,,,,
1799999999556048835,2027-01-15T07:59:59.556048835Z,,-2.20,-2.20,1.20,0.40,3.00,2.80,4.60,4.20,3.60,5.80,5.20,8.40,7.20,,,,,,,,,,,,,,
1799999999567147614,2027-01-15T07:59:59.567147614Z,,-2.20,0.60,2.40,2.40,1.40,2.80,2.40,4.80,4.80,5.00,5.60,6.20,6.80,,,,,,,,,,,,,,
1799999999578246393,2027-01-15T07:59:59.578246393Z,,-2.00,0.20,1.00,1.20,2.00,3.60,3.40,4.40,4.00,4.60,5.40,7.80,6.40,,,,,,,,,,,,,,
1799999999589345173,2027-01-15T07:59:59.589345173Z,,-1.80,-1.40,-0.60,0.60,0.20,3.40,5.20,2.00,3.20,5.60,6.60,5.00,6.40,,,,,,,,,,,,,,
1799999999600443952,2027-01-15T07:59:59.600443952Z,,-2.40,-0.60,-1.40,2.40,-0.40,3.20,5.20,1.40,4.00,6.40,6.60,4.00,6.60,,,,,,,,,,,,,,
1799999999611542731,2027-01-15T07:59:59.611542731Z,,-1.00,0.80,-2.20,5.00,2.60,2.80,5.00,1.80,5.00,5.60,5.60,5.20,7.20,,,,,,,,,,,,,,
1799999999622641510,2027-01-15T07:59:59.622641510Z,,-1.60,0.60,0.80,3.20,1.80,4.00,3.60,2.60,5.80,3.40,5.20,9.20,5.60,,,,,,,,,,,,,,
1799999999633740289,2027-01-15T07:59:59.633740289Z,,-1.00,0.00,2.00,3.00,0.60,5.00,3.00,2.20,5.60,4.20,5.00,8.20,5.20,,,,,,,,,,,,,,
1799999999644839068,2027-01-15T07:59:59.644839068Z,,-1.00,-1.40,-0.60,1.40,0.00,4.20,4.00,5.00,6.20,5.80,4.80,6.00,6.40,,,,,,,,,,,,,,
1799999999655937847,2027-01-15T07:59:59.655937847Z,,-1.80,-1.20,-0.20,0.80,0.00,3.60,2.40,6.60,6.00,5.00,5.20,8.00,6.80,,,,,,,,,,,,,,
1799999999667036626,2027-01-15T07:59:59.667036626Z,,-0.40,0.40,1.60,1.80,-0.20,3.20,1.00,6.40,5.60,4.80,5.80,6.00,7.80,,,,,,,,,,,,,,
1799999999678135406,2027-01-15T07:59:59.678135406Z,,0.20,0.00,0.80,2.40,1.00,4.00,2.20,5.20,6.40,4.60,5.00,5.00,7.40,,,,,,,,,,,,,,
1799999999689234185,2027-01-15T07:59:59.689234185Z,,0.00,-3.00,0.40,2.00,2.60,4.20,3.40,3.20,7.00,4.60,5.20,3.60,5.80,,,,,,,,,,,,,,
1799999999700332964,2027-01-15T07:59:59.700332964Z,,-0.80,-2.80,1.20,2.40,3.60,2.40,3.80,4.40,5.80,5.40,6.80,6.20,5.80,,,,,,,,,,,,,,
1799999999711431743,2027-01-15T07:59:59.711431743Z,,-0.40,-1.60,1.80,2.00,2.20,1.60,4.00,5.60,5.60,6.20,6.80,6.20,5.40,,,,,,,,,,,,,,
1799999999722530522,2027-01-15T07:59:59.722530522Z,,-0.20,0.60,0.60,1.20,0.80,0.40,3.60,4.80,4.80,5.40,5.00,6.80,5.20,,,,,,,,,,,,,,
