# spacing_uv=20.0
timestamp_ns,timestamp_iso,AF3,F7,F3,FC5,T7,P7,O1,O2,P8,T8,FC6,F4,F8,AF4,AF3_q,F7_q,F3_q,FC5_q,T7_q,P7_q,O1_q,O2_q,P8_q,T8_q,FC6_q,F4_q,F8_q,AF4_q
1799999990000000000,2027-01-15T07:59:50.000000000Z,,,,,,,,,,,,,,,,,,,,,,,,,,,,
1799999990010515248,2027-01-15T07:59:50.010515248Z,-1.31,0.49,-1.97,-0.33,3.44,1.15,1.64,4.75,4.75,5.74,3.77,2.62,4.26,4.92,,,,,,,,,,,,,,
1799999990021030495,2027-01-15T07:59:50.021030495Z,-1.15,0.33,-1.31,-0.16,1.31,1.97,1.48,3.77,4.26,4.43,3.93,3.44,6.72,4.92,,,,,,,,,,,,,,
1799999990031545742,2027-01-15T07:59:50.031545742Z,-0.16,-0.66,0.00,1.15,-2.95,2.62,0.66,3.28,2.46,3.61,5.08,5.25,9.67,5.08,,,,,,,,,,,,,,
1799999990042060989,2027-01-15T07:59:50.042060989Z,-0.66,-0.33,-1.31,1.31,-0.16,0.00,1.48,4.59,2.30,4.26,5.41,5.08,6.39,5.57,,,,,,,,,,,,,,
1799999990052576236,2027-01-15T07:59:50.052576236Z,0.33,-0.49,-1.64,0.98,-0.16,-0.82,1.80,4.26,3.44,4.26,5.08,4.92,4.75,6.23,,,,,,,,,,,,,,
1799999990063091483,2027-01-15T07:59:50.063091483Z,0.33,0.16,0.16,1.64,-4.10,-0.49,2.30,2.62,5.74,4.26,4.43,3.61,6.39,6.39,,,,,,,,,,,,,,
1799999990073606730,2027-01-15T07:59:50.073606730Z,0.33,2.30,-0.49,0.82,0.82,-0.49,0.82,3.11,4.10,2.79,3.11,3.93,5.74,5.74,,,,,,,,,,,,,,
1799999990084121977,2027-01-15T07:59:50.084121977Z,-0.33,1.15,-0.16,0.98,3.11,-0.33,0.49,3.44,3.11,3.11,3.28,4.43,4.92,5.90,,,,,,,,,,,,,,
1799999990094637224,2027-01-15T07:59:50.094637224Z,-0.33,-1.15,0.66,2.13,-2.46,0.16,0.33,3.11,1.15,3.93,4.59,5.57,4.10,6.39,,,,,,,,,,,,,,
1799999990105152472,2027-01-15T07:59:50.105152472Z,1.48,-0.16,0.33,1.48,-1.15,2.13,2.13,4.10,2.46,2.79,3.44,5.74,5.08,5.25,,,,,,,,,,,,,,
1799999990115667719,2027-01-15T07:59:50.115667719Z,0.16,-0.16,1.15,0.98,1.15,2.62,2.30,5.08,2.95,2.95,2.30,5.74,5.08,4.26,,,,,,,,,,,,,,
1799999990126182966,2027-01-15T07:59:50.126182966Z,0.00,-1.97,1.97,0.66,0.49,0.82,0.82,2.95,3.77,4.10,2.95,4.59,4.43,3.28,,,,,,,,,,,,,,
1799999990136698213,2027-01-15T07:59:50.136698213Z,-0.16,-0.49,0.66,0.49,1.64,1.64,1.31,3.28,3.44,3.77,3.61,3.93,4.26,5.08,,,,,,,,,,,,,,
1799999990147213460,2027-01-15T07:59:50.147213460Z,-0.66,0.00,0.49,0.49,3.28,2.13,1.97,4.92,2.95,3.77,3.11,4.43,4.26,6.07,,,,,,,,,,,,,,
1799999990157728707,2027-01-15T07:59:50.157728707Z,-0.49,0.49,0.33,-0.33,5.41,1.31,1.64,4.59,2.46,5.57,2.95,4.92,5.08,4.75,,,,,,,,,,,,,,
1799999990168243954,2027-01-15T07:59:50.168243954Z,1.48,-0.66,-0.98,0.33,3.93,2.30,1.80,1.97,3.44,4.10,4.10,4.59,4.26,4.75,,,,,,,,,,,,,,
1799999990178759201,2027-01-15T07:59:50.178759201Z,1.48,0.49,-0.98,0.82,1.97,2.79,1.80,2.79,3.61,3.11,4.75,3.77,3.77,5.57,,,,,,,,,,,,,,
1799999990189274448,2027-01-15T07:59:50.189274448Z,-1.15,1.64,-0.98,0.33,1.97,2.46,1.15,4.75,2.13,2.62,4.92,3.28,4.43,6.72,,,,,,,,,,,,,,
1799999990199789696,2027-01-15T07:59:50.199789696Z,0.49,0.33,-0.98,-0.66,2.79,1.48,1.48,2.30,3.11,2.79,6.56,4.75,4.26,5.41,,,,,,,,,,,,,,
1799999990210304943,2027-01-15T07:59:50.210304943Z,0.16,-0.66,-0.82,-0.82,3.28,1.64,0.33,1.48,3.28,2.13,6.39,5.74,4.43,4.59,,,,,,,,,,,,,,
1799999990220820190,2027-01-15T07:59:50.220820190Z,0.82,-0.49,1.15,0.16,1.97,0.98,-0.66,2.79,2.13,1.80,3.93,5.25,4.43,4.59,,,,,,,,,,,,,,
1799999990231335437,2027-01-15T07:59:50.231335437Z,-0.49,0.66,1.48,0.49,1.48,2.13,0.98,3.44,5.57,4.26,5.41,5.57,4.75,6.07,,,,,,,,,,,,,,
1799999990241850684,2027-01-15T07:59:50.241850684Z,0.49,-0.49,0.98,1.48,1.80,2.62,1.80,3.77,7.87,4.75,6.72,5.74,5.25,5.41,,,,,,,,,,,,,,
1799999990252365931,2027-01-15T07:59:50.252365931Z,0.49,-1.15,1.31,2.46,0.33,0.33,2.13,3.28,4.92,3.11,6.07,4.75,4.92,4.26,,,,,,,,,,,,,,
1799999990262881178,2027-01-15T07:59:50.262881178Z,-1.97,-1.15,1.64,1.31,-0.82,1.31,2.95,2.30,2.95,3.28,3.77,5.57,4.43,5.08,,,,,,,,,,,,,,
1799999990273396425,2027-01-15T07:59:50.273396425Z,-1.97,-2.79,0.82,-0.16,-2.46,2.95,2.79,1.15,1.80,3.44,2.30,7.38,4.59,6.72,,,,,,,,,,,,,,
1799999990283911672,2027-01-15T07:59:50.283911672Z,0.82,-1.97,0.49,0.16,-1.97,0.98,2.62,2.46,4.43,3.44,3.28,5.74,4.75,7.70,,,,,,,,,,,,,,
1799999990294426920,2027-01-15T07:59:50.294426920Z,-1.15,0.33,0.16,0.49,0.00,0.16,3.61,1.97,6.07,3.77,3.93,3.93,4.43,6.56,,,,,,,,,,,,,,
1799999990304942167,2027-01-15T07:59:50.304942167Z,-0.66,1.15,-0.66,0.16,3.44,-0.33,4.75,1.15,5.90,3.44,3.77,1.80,4.10,4.43,,,,,,,,,,,,,,
1799999990315457414,2027-01-15T07:59:50.315457414Z,-0.82,0.00,-1.15,-0.82,2.62,0.16,2.46,2.13,3.11,2.30,4.59,3.61,4.75,5.08,,,,,,,,,,,,,,
1799999990325972661,2027-01-15T07:59:50.325972661Z,-1.97,-0.33,-1.15,-0.49,1.64,0.66,1.48,1.97,1.64,2.30,4.26,4.59,4.43,5.41,,,,,,,,,,,,,,
1799999990336487908,2027-01-15T07:59:50.336487908Z,-0.98,-1.15,-0.33,2.13,-2.62,0.66,1.15,0.98,1.31,3.93,2.62,6.72,4.26,4.59,,,,,,,,,,,,,,
1799999990347003155,2027-01-15T07:59:50.347003155Z,-0.98,-0.33,-0.66,0.33,1.31,1.31,2.79,0.82,2.13,4.26,3.93,5.08,3.93,5.90,,,,,,,,,,,,,,
1799999990357518402,2027-01-15T07:59:50.357518402Z,1.97,0.33,-1.31,-0.82,3.77,0.82,1.97,0.49,3.61,3.93,4.26,4.59,4.75,7.21,,,,,,,,,,,,,,
1799999990368033649,2027-01-15T07:59:50.368033649Z,1.48,-0.16,-2.13,0.66,3.61,0.49,0.33,1.64,5.41,4.10,3.77,4.75,7.21,6.89,,,,,,,,,,,,,,
1799999990378548896,2027-01-15T07:59:50.378548896Z,0.82,-1.97,-2.13,-0.49,0.82,1.31,1.80,1.64,4.10,3.44,4.43,4.43,6.89,6.23,,,,,,,,,,,,,,
1799999990389064144,2027-01-15T07:59:50.389064144Z,-0.66,-2.95,-1.31,-0.66,0.49,1.15,2.95,2.62,3.61,3.44,4.92,4.59,5.90,6.23,,,,,,,,,,,,,,
1799999990399579391,2027-01-15T07:59:50.399579391Z,0.33,-3.28,-0.16,-1.97,1.48,2.46,1.97,4.26,5.08,3.44,4.26,5.25,5.74,6.23,,,,,,,,,,,,,,
1799999990410094638,2027-01-15T07:59:50.410094638Z,0.49,-2.30,-0.98,0.66,1.80,5.08,1.48,3.77,4.10,3.44,4.43,6.23,5.08,4.92,,,,,,,,,,,,,,
1799999990420609885,2027-01-15T07:59:50.420609885Z,0.16,-0.98,-1.97,1.64,1.15,4.59,2.13,2.95,3.11,4.10,4.59,5.74,4.92,4.75,,,,,,,,,,,,,,
1799999990431125132,2027-01-15T07:59:50.431125132Z,-3.77,-0.33,-2.13,0.00,0.16,2.79,3.44,1.31,2.13,4.75,3.77,3.77,5.25,4.26,,,,,,,,,,,,,,
1799999990441640379,2027-01-15T07:59:50.441640379Z,-0.16,-3.11,0.33,-0.66,0.49,2.79,2.13,0.00,0.49,4.10,4.10,3.44,4.59,4.92,,,,,,,,,,,,,,
1799999990452155626,2027-01-15T07:59:50.452155626Z,0.82,-2.46,1.31,-0.16,0.82,2.46,2.13,0.49,0.00,3.93,3.77,4.43,4.59,5.57,,,,,,,,,,,,,,
1799999990462670873,2027-01-15T07:59:50.462670873Z,0.00,-0.16,0.00,-0.33,1.80,2.95,1.48,1.80,1.31,3.28,3.28,4.75,5.25,5.25,,,,,,,,,,,,,,
1799999990473186120,2027-01-15T07:59:50.473186120Z,0.16,0.49,0.16,0.00,2.13,1.15,1.48,2.13,3.11,2.46,4.59,4.10,5.25,5.41,,,,,,,,,,,,,,
1799999990483701367,2027-01-15T07:59:50.483701367Z,-2.13,0.33,0.49,0.00,2.62,0.49,1.48,3.11,3.28,2.62,5.25,4.43,5.74,6.07,,,,,,,,,,,,,,
1799999990494216615,2027-01-15T07:59:50.494216615Z,-3.93,-0.66,-0.66,0.98,2.62,3.28,2.30,4.75,3.28,2.62,5.74,4.92,6.56,6.39,,,,,,,,,,,,,,
1799999990504731862,2027-01-15T07:59:50.504731862Z,-1.64,-1.80,-1.31,0.16,1.80,1.64,2.46,3.28,2.30,3.61,3.44,2.13,6.56,4.75,,,,,,,,,,,,,,
1799999990515247109,2027-01-15T07:59:50.515247109Z,-1.31,-0.82,-0.49,1.15,1.64,2.13,2.46,1.80,1.80,3.93,2.30,1.31,6.56,4.59,,,,,,,,,,,,,,
1799999990525762356,2027-01-15T07:59:50.525762356Z,-1.48,0.33,0.82,1.48,0.98,1.64,2.13,1.97,1.97,2.62,4.43,3.77,5.25,5.25,,,,,,,,,,,,,,
1799999990536277603,2027-01-15T07:59:50.536277603Z,-0.82,0.33,0.33,0.33,-0.16,0.49,1.97,2.95,3.61,2.46,5.57,5.74,4.59,5.08,,,,,,,,,,,,,,
1799999990546792850,2027-01-15T07:59:50.546792850Z,-1.15,0.16,-1.80,-1.64,-1.64,1.31,2.62,2.79,3.77,4.43,4.75,6.89,5.25,6.07,,,,,,,,,,,,,,
1799999990557308097,2027-01-15T07:59:50.557308097Z,-0.66,0.98,-0.82,-0.33,-0.66,1.15,1.15,1.97,2.79,4.92,5.41,6.23,5.90,5.25,,,,,,,,,,,,,,
1799999990567823344,2027-01-15T07:59:50.567823344Z,1.97,-0.33,0.66,-0.98,-0.49,0.66,0.66,1.64,2.30,4.26,5.57,5.90,5.25,4.92,,,,,,,,,,,,,,
1799999990578338591,2027-01-15T07:59:50.578338591Z,-0.33,-0.49,2.79,-1.15,1.15,1.64,2.30,3.77,2.79,3.44,4.43,5.57,4.10,6.23,,,,,,,,,,,,,,
1799999990588853839,2027-01-15T07:59:50.588853839Z,-1.80,1.48,0.98,1.31,0.98,1.64,1.64,4.92,3.93,3.61,3.44,3.11,5.08,5.25,,,,,,,,,,,,,,
1799999990599369086,2027-01-15T07:59:50.599369086Z,-1.48,0.82,1.48,1.80,0.16,1.64,1.48,3.77,4.10,3.93,3.77,1.64,5.74,5.57,,,,,,,,,,,,,,
1799999990609884333,2027-01-15T07:59:50.609884333Z,-2.95,-0.16,3.11,1.48,-1.15,1.48,2.46,1.48,1.97,3.61,4.59,2.13,4.92,5.90,,,,,,,,,,,,,,
1799999990620399580,2027-01-15T07:59:50.620399580Z,-3.93,1.80,0.00,0.49,-0.66,0.98,0.98,0.98,2.62,3.93,4.92,3.11,4.92,3.93,,,,,,,,,,,,,,
1799999990630914827,2027-01-15T07:59:50.630914827Z,-2.30,2.13,-1.31,-0.66,1.15,1.31,2.79,2.30,4.26,4.26,4.59,4.10,5.08,5.25,,,,,,,,,,,,,,
1799999990641430074,2027-01-15T07:59:50.641430074Z,-0.98,2.46,0.82,-2.79,3.11,1.97,4.26,4.59,6.23,4.10,3.77,5.08,4.59,6.07,,,,,,,,,,,,,,
1799999990651945321,2027-01-15T07:59:50.651945321Z,-1.48,1.48,1.48,-0.16,1.80,0.98,1.31,3.77,5.25,4.59,4.59,4.43,5.41,3.93,,,,,,,,,,,,,,
1799999990662460568,2027-01-15T07:59:50.662460568Z,-3.44,-0.16,0.66,0.82,1.64,1.15,1.64,3.28,3.77,2.62,4.10,3.93,5.57,5.57,,,,,,,,,,,,,,
1799999990672975815,2027-01-15T07:59:50.672975815Z,-1.31,-0.82,-0.49,1.15,0.00,1.80,3.44,3.77,1.64,0.82,2.79,5.08,4.43,8.85,,,,,,,,,,,,,,
1799999990683491063,2027-01-15T07:59:50.683491063Z,-1.48,-2.62,-1.15,0.49,0.98,2.46,2.30,4.26,2.13,3.77,2.79,4.75,5.90,6.56,,,,,,,,,,,,,,
1799999990694006310,2027-01-15T07:59:50.694006310Z,0.82,-2.46,-0.49,0.98,1.48,2.46,0.98,2.79,2.13,4.26,2.30,4.26,6.56,6.39,,,,,,,,,,,,,,
1799999990704521557,2027-01-15T07:59:50.704521557Z,-0.98,-1.31,0.49,0.98,1.97,0.66,0.98,2.30,2.62,3.11,2.95,4.10,4.43,6.56,,,,,,,,,,,,,,
1799999990715036804,2027-01-15T07:59:50.715036804Z,-0.98,-0.66,0.66,0.00,1.97,0.98,3.11,4.43,4.43,4.26,4.75,6.07,5.25,5.90,,,,,,,,,,,,,,
1799999990725552051,2027-01-15T07:59:50.725552051Z,-2.30,-0.66,0.00,-0.82,1.48,1.80,2.46,3.93,4.26,4.10,4.43,6.72,5.90,6.39,,,,,,,,,,,,,,
1799999990736067298,2027-01-15T07:59:50.736067298Z,0.16,-0.98,-0.98,-0.33,-1.97,-0.33,-0.16,2.30,2.46,4.10,3.93,6.07,4.92,7.21,,,,,,,,,,,,,,
1799999990746582545,2027-01-15T07:59:50.746582545Z,-1.64,-2.13,0.49,0.49,-1.48,0.16,-0.82,2.62,0.82,4.26,3.11,6.07,5.74,6.72,,,,,,,,,,,,,,
1799999990757097792,2027-01-15T07:59:50.757097792Z,0.33,-1.64,1.15,0.33,-0.49,0.82,0.66,2.62,1.80,4.10,2.46,5.57,5.74,6.23,,,,,,,,,,,,,,
1799999990767613039,2027-01-15T07:59:50.767613039Z,-0.49,-0.16,1.80,-0.16,2.79,-0.16,2.46,3.11,5.08,4.59,4.10,6.07,4.43,5.08,,,,,,,,,,,,,,
1799999990778128287,2027-01-15T07:59:50.778128287Z,0.49,0.16,1.48,0.98,3.44,-0.82,1.97,3.11,6.39,4.59,3.93,6.39,4.26,5.08,,,,,,,,,,,,,,
1799999990788643534,2027-01-15T07:59:50.788643534Z,0.00,-0.82,-0.33,2.13,4.59,0.66,0.16,4.59,6.23,4.26,4.43,4.75,5.08,5.25,,,,,,,,,,,,,,
1799999990799158781,2027-01-15T07:59:50.799158781Z,0.66,-1.15,1.64,2.62,3.44,3.11,1.31,4.26,4.10,4.75,3.61,3.93,5.25,5.90,,,,,,,,,,,,,,
1799999990809674028,2027-01-15T07:59:50.809674028Z,-0.49,-0.16,1.48,2.13,2.46,3.28,1.64,3.11,3.11,4.10,3.11,3.77,5.08,5.08,,,,,,,,,,,,,,
1799999990820189275,2027-01-15T07:59:50.820189275Z,1.15,0.82,-0.49,0.98,2.13,1.48,1.97,1.31,2.46,2.46,4.43,4.59,5.25,3.61,,,,,,,,,,,,,,
1799999990830704522,2027-01-15T07:59:50.830704522Z,1.15,-1.15,1.48,2.13,2.79,-0.33,1.97,2.79,1.80,3.28,4.92,4.92,4.92,4.75,,,,,,,,,,,,,,
1799999990841219769,2027-01-15T07:59:50.841219769Z,-1.15,-2.30,2.30,2.30,2.62,-0.33,1.48,3.61,2.13,3.77,4.59,4.59,4.59,5.57,,,,,,,,,,,,,,
1799999990851735016,2027-01-15T07:59:50.851735016Z,1.15,-1.80,1.64,1.97,1.31,0.98,1.15,4.26,3.44,3.61,3.77,3.77,4.75,6.56,,,,,,,,,,,,,,
1799999990862250263,2027-01-15T07:59:50.862250263Z,-0.66,-0.49,-1.97,0.16,0.98,2.79,1.31,3.11,3.77,3.44,4.43,4.43,4.59,6.72,,,,,,,,,,,,,,
1799999990872765510,2027-01-15T07:59:50.872765510Z,-0.33,-0.98,-3.28,-0.49,1.80,1.80,1.15,2.95,3.28,3.61,5.08,5.08,5.08,6.39,,,,,,,,,,,,,,
1799999990883280758,2027-01-15T07:59:50.883280758Z,-0.82,-1.80,-2.62,-0.82,2.62,0.00,0.82,3.93,3.11,2.95,5.25,4.75,5.57,5.90,,,,,,,,,,,,,,
1799999990893796005,2027-01-15T07:59:50.893796005Z,-0.82,-0.33,-2.30,1.48,1.15,1.97,2.13,4.59,2.79,3.28,5.90,3.93,5.74,6.23,,,,,,,,,,,,,,
1799999990904311252,2027-01-15T07:59:50.904311252Z,-0.49,-1.15,-1.80,1.64,0.66,2.46,2.95,4.43,1.97,3.44,5.57,4.26,5.74,6.39,,,,,,,,,,,,,,
1799999990914826499,2027-01-15T07:59:50.914826499Z,-2.46,-0.98,-0.49,0.33,-0.82,1.80,2.62,2.79,0.00,3.44,3.61,4.75,5.57,5.57,,,,,,,,,,,,,,
1799999990925341746,2027-01-15T07:59:50.925341746Z,0.33,-0.98,0.33,0.49,0.82,0.49,-0.33,2.79,2.13,4.10,3.77,5.90,8.20,4.92,,,,,,,,,,,,,,
1799999990935856993,2027-01-15T07:59:50.935856993Z,-0.82,-0.98,0.66,0.98,1.80,-0.16,0.33,3.44,3.61,3.61,3.93,4.92,8.20,5.08,,,,,,,,,,,,,,
1799999990946372240,2027-01-15T07:59:50.946372240Z,-2.46,0.66,-0.49,-0.16,0.98,0.66,3.28,4.26,5.57,2.13,3.44,2.62,6.89,5.08,,,,,,,,,,,,,,
1799999990956887487,2027-01-15T07:59:50.956887487Z,-1.48,0.00,-0.16,0.49,-1.80,0.82,2.79,2.62,3.28,2.62,5.08,3.93,5.74,5.74,,,,,,,,,,,,,,
1799999990967402734,2027-01-15T07:59:50.967402734Z,0.66,-1.15,0.00,0.98,-0.66,1.80,2.13,3.11,2.30,3.28,4.59,5.08,4.75,6.39,,,,,,,,,,,,,,
1799999990977917982,2027-01-15T07:59:50.977917982Z,1.15,-0.82,-0.16,1.97,2.13,3.44,3.11,2.62,4.43,4.10,4.10,4.26,2.79,7.21,,,,,,,,,,,,,,
1799999990988433229,2027-01-15T07:59:50.988433229Z,1.64,-2.13,2.13,0.00,-0.33,1.64,2.13,1.48,2.62,4.43,3.77,4.26,3.93,6.23,,,,,,,,,,,,,,
1799999990998948476,2027-01-15T07:59:50.998948476Z,-0.16,-2.13,0.82,-0.33,-1.48,2.62,1.64,1.80,1.80,3.93,3.61,4.26,4.59,5.74,,,,,,,,,,,,,,
1799999991009463723,2027-01-15T07:59:51.009463723Z,-0.16,0.49,-1.48,0.49,-1.48,4.59,3.77,1.97,2.79,2.95,4.43,4.92,4.59,3.77,,,,,,,,,,,,,,
1799999991019978970,2027-01-15T07:59:51.019978970Z,-0.16,0.00,0.98,1.31,-2.95,1.48,3.61,2.30,0.82,3.28,3.61,5.90,5.74,3.61,,,,,,,,,,,,,,
1799999991030494217,2027-01-15T07:59:51.030494217Z,0.66,-0.33,0.00,0.00,-0.66,-0.16,2.79,3.11,2.13,3.77,4.43,5.41,6.23,4.26,,,,,,,,,,,,,,
1799999991041009464,2027-01-15T07:59:51.041009464Z,-0.33,-2.13,-1.48,-0.82,1.31,2.95,1.97,2.79,3.44,4.26,4.75,4.43,6.23,5.90,,,,,,,,,,,,,,
1799999991051524711,2027-01-15T07:59:51.051524711Z,0.00,-2.30,0.49,-0.33,0.82,2.95,2.30,2.13,3.28,4.59,4.10,4.43,5.57,6.23,,,,,,,,,,,,,,
1799999991062039958,2027-01-15T07:59:51.062039958Z,-0.33,-1.31,1.31,0.82,-0.16,1.80,2.79,2.13,4.26,3.93,2.79,3.77,6.07,6.07,,,,,,,,,,,,,,
1799999991072555206,2027-01-15T07:59:51.072555206Z,-0.82,-1.48,-0.66,0.98,0.33,1.97,4.26,0.49,2.46,2.62,4.26,3.77,5.25,6.72,,,,,,,,,,,,,,
1799999991083070453,2027-01-15T07:59:51.083070453Z,-1.48,-2.95,-0.33,0.49,1.31,3.28,4.59,2.46,2.46,2.79,4.92,4.10,4.59,6.89,,,,,,,,,,,,,,
1799999991093585700,2027-01-15T07:59:51.093585700Z,-2.62,-1.97,1.15,-1.15,3.11,3.93,2.13,4.75,2.46,3.28,3.61,4.26,4.26,6.56,,,,,,,,,,,,,,
1799999991104100947,2027-01-15T07:59:51.104100947Z,-0.82,0.16,-1.31,-0.49,1.97,1.64,1.97,2.13,1.97,3.28,4.59,3.61,4.26,5.41,,,,,,,,,,,,,,
1799999991114616194,2027-01-15T07:59:51.114616194Z,0.33,0.66,-2.30,0.82,3.11,0.98,2.46,1.48,2.30,3.61,5.25,3.61,4.92,5.74,,,,,,,,,,,,,,
1799999991125131441,2027-01-15T07:59:51.125131441Z,0.66,0.82,-0.66,0.49,3.11,0.82,1.48,1.64,3.93,4.59,4.59,4.75,6.07,7.70,,,,,,,,,,,,,,
1799999991135646688,2027-01-15T07:59:51.135646688Z,-2.13,-0.49,-0.66,0.16,0.00,2.13,2.30,3.44,5.90,4.75,4.43,4.75,4.92,6.72,,,,,,,,,,,,,,
1799999991146161935,2027-01-15T07:59:51.146161935Z,-3.93,-1.15,-0.98,0.16,-0.16,3.28,0.66,4.26,4.59,4.26,4.26,5.25,4.10,5.57,,,,,,,,,,,,,,
1799999991156677182,2027-01-15T07:59:51.156677182Z,-0.66,0.00,-1.31,0.66,-1.31,2.46,-2.30,1.80,2.95,3.61,4.59,5.90,5.08,5.41,,,,,,,,,,,,,,
1799999991167192430,2027-01-15T07:59:51.167192430Z,-0.98,0.66,-1.31,1.64,0.33,0.98,-0.33,1.31,5.41,4.59,3.93,5.57,5.25,4.43,,,,,,,,,,,,,,
1799999991177707677,2027-01-15T07:59:51.177707677Z,0.98,0.49,-1.48,1.48,1.31,0.98,0.98,1.97,4.26,4.43,3.44,5.74,4.26,4.43,,,,,,,,,,,,,,
1799999991188222924,2027-01-15T07:59:51.188222924Z,1.15,0.16,-0.82,0.00,1.15,1.80,0.00,3.61,2.79,3.93,3.44,5.08,3.28,6.39,,,,,,,,,,,,,,
1799999991198738171,2027-01-15T07:59:51.198738171Z,0.98,-0.33,-0.16,-0.49,1.48,2.95,1.80,3.11,2.62,3.44,4.10,3.77,4.26,6.89,,,,,,,,,,,,,,
1799999991209253418,2027-01-15T07:59:51.209253418Z,-1.15,-0.33,-0.33,-0.49,1.64,1.80,2.46,3.44,2.30,3.11,4.92,3.77,5.08,6.56,,,,,,,,,,,,,,
1799999991219768665,2027-01-15T07:59:51.219768665Z,-0.66,-0.16,0.98,-1.15,0.66,-0.33,1.15,2.95,0.49,2.46,5.90,5.08,5.41,7.05,,,,,,,,,,,,,,
1799999991230283912,2027-01-15T07:59:51.230283912Z,-0.82,0.66,-0.33,0.33,-2.13,0.49,0.98,0.82,1.64,3.61,4.75,6.39,4.43,5.25,,,,,,,,,,,,,,
1799999991240799159,2027-01-15T07:59:51.240799159Z,-0.82,0.00,-1.31,0.33,-3.11,-0.82,2.13,0.00,2.95,4.26,4.10,5.90,5.41,4.26,,,,,,,,,,,,,,
1799999991251314406,2027-01-15T07:59:51.251314406Z,-2.95,-1.48,0.49,-0.82,-3.11,-2.30,3.61,-0.16,5.41,4.92,4.92,3.77,8.20,6.07,,,,,,,,,,,,,,
1799999991261829653,2027-01-15T07:59:51.261829653Z,-2.13,-0.49,0.00,0.66,1.48,-0.98,1.97,1.97,4.26,5.25,5.41,4.92,6.56,6.89,,,,,,,,,,,,,,
1799999991272344901,2027-01-15T07:59:51.272344901Z,1.48,-0.49,0.82,2.30,1.80,-1.64,1.64,3.11,2.95,5.57,4.59,5.74,4.92,5.90,,,,,,,,,,,,,,
1799999991282860148,2027-01-15T07:59:51.282860148Z,0.98,0.16,0.00,1.15,1.97,-1.31,1.48,1.97,2.30,5.08,4.59,5.41,4.59,4.10,,,,,,,,,,,,,,
1799999991293375395,2027-01-15T07:59:51.293375395Z,-0.66,2.30,-0.82,0.82,2.30,-0.49,-0.16,0.98,2.62,3.93,4.59,4.26,4.26,5.08,,,,,,,,,,,,,,
1799999991303890642,2027-01-15T07:59:51.303890642Z,0.16,5.25,0.82,0.00,-0.33,0.66,-0.82,0.82,3.61,3.77,4.26,5.08,4.10,6.72,,,,,,,,,,,,,,
1799999991314405889,2027-01-15T07:59:51.314405889Z,-1.31,3.44,0.16,0.16,0.49,1.64,1.15,3.28,3.77,3.28,3.61,5.08,5.08,6.23,,,,,,,,,,,,,,
1799999991324921136,2027-01-15T07:59:51.324921136Z,0.49,1.31,0.33,-0.33,1.80,2.13,0.82,4.43,4.43,3.61,3.77,4.43,5.08,5.57,,,,,,,,,,,,,,
1799999991335436383,2027-01-15T07:59:51.335436383Z,0.16,0.33,1.31,-0.66,1.97,0.49,-0.49,5.08,4.75,3.93,4.10,3.11,5.08,5.57,,,,,,,,,,,,,,
1799999991345951630,2027-01-15T07:59:51.345951630Z,0.33,-0.33,-0.16,0.00,2.13,1.31,2.13,3.44,3.28,2.79,3.28,3.61,4.92,4.92,,,,,,,,,,,,,,
1799999991356466877,2027-01-15T07:59:51.356466877Z,0.66,-0.82,-0.33,0.16,2.13,0.33,3.11,3.61,2.79,3.11,3.11,4.43,5.41,4.26,,,,,,,,,,,,,,
1799999991366982125,2027-01-15T07:59:51.366982125Z,-1.31,-0.82,0.98,-2.30,1.80,-0.49,1.15,5.90,1.31,3.28,3.61,5.41,6.56,3.93,,,,,,,,,,,,,,
1799999991377497372,2027-01-15T07:59:51.377497372Z,0.00,-1.15,1.97,-0.49,0.66,1.31,0.82,4.59,0.66,2.95,4.10,5.41,5.57,5.41,,,,,,,,,,,,,,
1799999991388012619,2027-01-15T07:59:51.388012619Z,-0.82,-1.64,1.80,1.48,0.82,2.30,1.48,3.77,1.31,3.61,3.93,5.25,5.25,5.25,,,,,,,,,,,,,,
1799999991398527866,2027-01-15T07:59:51.398527866Z,-0.66,-2.95,1.64,1.31,0.49,1.80,2.79,2.13,3.11,5.08,3.77,5.25,6.72,5.08,,,,,,,,,,,,,,
1799999991409043113,2027-01-15T07:59:51.409043113Z,-0.82,-1.48,2.30,1.15,0.66,0.66,3.11,1.31,3.77,4.75,3.11,5.41,6.23,4.43,,,,,,,,,,,,,,
1799999991419558360,2027-01-15T07:59:51.419558360Z,1.31,0.16,2.46,0.33,0.82,0.49,2.79,1.31,4.59,4.43,4.10,5.08,5.41,3.77,,,,,,,,,,,,,,
1799999991430073607,2027-01-15T07:59:51.430073607Z,0.49,3.44,0.66,-1.80,1.15,1.15,2.79,1.80,5.57,3.77,5.57,4.43,3.77,3.44,,,,,,,,,,,,,,
1799999991440588854,2027-01-15T07:59:51.440588854Z,0.33,-0.33,-2.46,-0.33,0.16,0.49,2.13,3.11,3.44,3.93,3.93,4.75,4.75,6.39,,,,,,,,,,,,,,
1799999991451104101,2027-01-15T07:59:51.451104101Z,0.66,-1.15,-2.46,1.31,0.49,0.98,2.30,2.79,2.46,4.43,3.61,5.41,4.75,6.39,,,,,,,,,,,,,,
1799999991461619349,2027-01-15T07:59:51.461619349Z,0.16,-1.48,-0.98,1.97,1.31,2.79,3.11,0.66,3.61,5.41,5.41,5.90,4.59,7.05,,,,,,,,,,,,,,
1799999991472134596,2027-01-15T07:59:51.472134596Z,0.00,-1.80,-1.48,-2.13,1.15,1.80,4.43,1.64,2.13,4.26,4.59,4.26,4.59,6.39,,,,,,,,,,,,,,
1799999991482649843,2027-01-15T07:59:51.482649843Z,0.00,-0.82,-0.82,-1.97,1.64,1.97,4.92,1.31,2.13,3.77,4.10,3.61,4.75,5.74,,,,,,,,,,,,,,
1799999991493165090,2027-01-15T07:59:51.493165090Z,-3.61,0.33,0.49,-0.49,1.80,4.10,3.77,1.15,3.77,3.93,4.26,5.90,4.59,6.23,,,,,,,,,,,,,,
1799999991503680337,2027-01-15T07:59:51.503680337Z,-1.31,-1.31,-0.49,-0.33,0.49,2.62,3.77,3.61,5.57,3.28,4.92,6.07,4.92,5.57,,,,,,,,,,,,,,
1799999991514195584,2027-01-15T07:59:51.514195584Z,0.66,-0.16,-0.82,0.16,0.82,1.31,3.93,4.10,5.74,2.62,4.26,5.57,5.08,5.57,,,,,,,,,,,,,,
1799999991524710831,2027-01-15T07:59:51.524710831Z,0.33,0.82,-0.16,-0.98,1.31,0.66,3.28,3.44,3.93,1.80,2.95,5.57,4.75,7.38,,,,,,,,,,,,,,
1799999991535226078,2027-01-15T07:59:51.535226078Z,-0.33,-1.15,0.00,0.16,0.66,2.79,1.97,1.97,3.44,2.46,2.46,3.93,4.75,7.70,,,,,,,,,,,,,,
1799999991545741325,2027-01-15T07:59:51.545741325Z,0.82,-2.62,-1.15,0.98,1.31,3.44,2.30,0.98,4.59,2.95,3.11,3.28,4.26,6.72,,,,,,,,,,,,,,
1799999991556256573,2027-01-15T07:59:51.556256573Z,-0.98,-0.49,-0.66,1.15,1.48,2.30,3.28,0.16,6.72,3.44,4.43,4.59,5.25,5.08,,,,,,,,,,,,,,
1799999991566771820,2027-01-15T07:59:51.566771820Z,0.49,0.82,0.49,0.00,0.98,1.97,2.95,1.15,6.07,3.11,4.92,3.77,5.74,4.43,,,,,,,,,,,,,,
1799999991577287067,2027-01-15T07:59:51.577287067Z,0.00,-0.82,-1.64,-1.31,1.31,2.30,1.48,3.28,5.57,3.61,5.08,2.30,5.41,4.75,,,,,,,,,,,,,,
1799999991587802314,2027-01-15T07:59:51.587802314Z,0.16,-1.97,-0.33,0.82,-0.66,0.82,0.49,2.62,3.77,3.28,4.26,3.28,6.07,6.07,,,,,,,,,,,,,,
1799999991598317561,2027-01-15T07:59:51.598317561Z,-1.97,-1.80,-0.98,1.80,0.00,0.82,1.15,2.46,3.11,4.10,4.10,3.28,6.23,6.39,,,,,,,,,,,,,,
1799999991608832808,2027-01-15T07:59:51.608832808Z,-3.44,-1.48,-2.95,1.80,1.80,3.44,1.64,3.44,2.95,5.41,5.74,2.95,6.07,6.07,,,,,,,,,,,,,,
1799999991619348055,2027-01-15T07:59:51.619348055Z,-3.44,-1.31,-0.49,1.31,2.13,2.62,0.82,2.79,4.75,4.10,4.75,3.77,4.75,6.89,,,,,,,,,,,,,,
1799999991629863302,2027-01-15T07:59:51.629863302Z,-2.30,-1.31,1.15,1.15,1.80,1.15,0.49,1.80,5.57,2.62,3.93,3.77,3.93,6.23,,,,,,,,,,,,,,
1799999991640378549,2027-01-15T07:59:51.640378549Z,0.98,0.33,-0.49,0.66,-0.49,-0.66,-0.33,0.82,5.41,3.11,3.93,4.43,4.10,4.26,,,,,,,,,,,,,,
1799999991650893797,2027-01-15T07:59:51.650893797Z,1.15,1.48,-1.48,0.66,0.16,1.15,-0.33,2.13,2.13,4.10,4.10,5.08,5.08,4.59,,,,,,,,,,,,,,
1799999991661409044,2027-01-15T07:59:51.661409044Z,0.00,0.33,-1.48,0.16,0.98,2.30,-0.16,3.11,0.33,3.28,4.10,5.41,4.92,5.25,,,,,,,,,,,,,,
1799999991671924291,2027-01-15T07:59:51.671924291Z,-0.49,-0.49,-0.16,0.49,0.66,1.97,0.98,2.62,1.97,2.95,3.93,5.74,4.10,5.25,,,,,,,,,,,,,,
1799999991682439538,2027-01-15T07:59:51.682439538Z,-1.31,-0.16,1.80,0.82,1.31,2.62,2.13,2.62,2.46,5.08,3.28,4.26,5.74,3.77,,,,,,,,,,,,,,
1799999991692954785,2027-01-15T07:59:51.692954785Z,-0.82,-0.33,2.46,0.98,0.66,1.48,2.46,2.95,2.46,4.10,3.77,4.10,6.07,3.61,,,,,,,,,,,,,,
1799999991703470032,2027-01-15T07:59:51.703470032Z,0.82,-2.30,1.31,0.98,-0.16,-0.33,1.80,3.44,2.79,2.13,4.59,5.25,4.92,5.08,,,,,,,,,,,,,,
1799999991713985279,2027-01-15T07:59:51.713985279Z,1.31,-1.15,-0.16,-0.66,0.00,0.33,0.00,2.62,2.30,3.77,4.10,3.61,5.74,6.89,,,,,,,,,,,,,,
1799999991724500526,2027-01-15T07:59:51.724500526Z,0.98,-0.66,-0.82,-1.15,0.00,0.33,-0.66,2.62,2.79,4.43,4.26,2.62,5.25,7.05,,,,,,,,,,,,,,
1799999991735015773,2027-01-15T07:59:51.735015773Z,0.82,0.00,0.82,0.16,1.64,-0.66,0.00,2.46,2.95,3.61,4.43,3.93,3.77,6.39,,,,,,,,,,,,,,
1799999991745531020,2027-01-15T07:59:51.745531020Z,0.66,-1.48,1.97,0.98,2.30,0.66,3.93,3.44,3.93,3.61,3.93,4.92,4.75,5.90,,,,,,,,,,,,,,
1799999991756046268,2027-01-15T07:59:51.756046268Z,0.66,-1.64,1.97,1.48,2.13,1.15,5.25,3.93,3.61,4.43,4.26,5.90,5.08,5.74,,,,,,,,,,,,,,
1799999991766561515,2027-01-15T07:59:51.766561515Z,1.97,-0.82,2.13,0.82,2.46,1.31,2.95,2.79,2.95,5.25,4.92,6.39,5.74,5.41,,,,,,,,,,,,,,
1799999991777076762,2027-01-15T07:59:51.777076762Z,-0.82,0.00,0.98,0.33,0.49,0.82,1.64,2.30,4.10,4.26,4.59,4.75,5.74,6.07,,,,,,,,,,,,,,
1799999991787592009,2027-01-15T07:59:51.787592009Z,1.48,0.33,1.64,0.66,0.16,0.66,1.48,3.28,3.61,3.77,4.59,4.43,4.92,6.39,,,,,,,,,,,,,,
1799999991798107256,2027-01-15T07:59:51.798107256Z,0.33,-0.16,0.33,0.00,0.82,1.15,2.79,3.77,4.10,4.10,4.92,5.74,5.57,5.08,,,,,,,,,,,,,,
1799999991808622503,2027-01-15T07:59:51.808622503Z,0.00,-0.66,-0.66,-0.33,1.15,0.98,3.44,2.95,4.43,4.59,4.59,4.75,6.23,4.59,,,,,,,,,,,,,,
1799999991819137750,2027-01-15T07:59:51.819137750Z,-1.15,-2.79,0.66,-1.48,2.62,0.82,2.79,1.97,5.25,6.23,4.10,3.44,7.21,6.07,,,,,,,,,,,,,,
1799999991829652997,2027-01-15T07:59:51.829652997Z,-0.66,0.98,-0.16,1.15,2.79,1.64,1.31,1.80,4.43,4.26,5.41,4.59,7.21,7.21,,,,,,,,,,,,,,
1799999991840168244,2027-01-15T07:59:51.840168244Z,0.49,1.64,-0.66,1.80,2.13,1.48,0.82,2.46,3.44,3.77,5.08,4.59,7.70,7.70,,,,,,,,,,,,,,
1799999991850683492,2027-01-15T07:59:51.850683492Z,-1.48,0.33,0.16,1.97,2.13,0.33,1.64,3.28,1.80,3.77,2.79,4.75,8.36,8.20,,,,,,,,,,,,,,
1799999991861198739,2027-01-15T07:59:51.861198739Z,-0.16,-1.15,-0.16,-0.16,1.15,0.16,0.49,3.28,1.64,3.28,2.95,5.08,6.23,7.21,,,,,,,,,,,,,,
1799999991871713986,2027-01-15T07:59:51.871713986Z,-0.49,-0.49,0.16,0.00,1.15,0.33,1.97,3.44,1.48,2.62,3.11,4.75,5.08,6.39,,,,,,,,,,,,,,
1799999991882229233,2027-01-15T07:59:51.882229233Z,-2.46,-0.82,-0.16,0.49,4.10,1.48,4.75,4.43,2.30,1.48,3.28,4.59,4.10,5.41,,,,,,,,,,,,,,
1799999991892744480,2027-01-15T07:59:51.892744480Z,-3.11,0.00,-1.80,-0.16,0.16,2.13,2.79,3.11,2.13,1.15,4.43,5.90,4.92,4.75,,,,,,,,,,,,,,
1799999991903259727,2027-01-15T07:59:51.903259727Z,-3.77,0.00,-2.95,-0.33,-1.48,2.62,1.80,4.10,2.30,1.64,3.93,6.56,5.41,4.92,,,,,,,,,,,,,,
1799999991913774974,2027-01-15T07:59:51.913774974Z,-2.79,-1.80,-2.79,-0.82,2.30,3.28,2.13,5.41,5.57,2.79,3.61,6.39,5.41,5.25,,,,,,,,,,,,,,
1799999991924290221,2027-01-15T07:59:51.924290221Z,1.64,-0.98,-2.30,-0.66,2.95,2.13,1.31,2.79,5.90,3.77,3.28,6.07,4.26,6.07,,,,,,,,,,,,,,
1799999991934805468,2027-01-15T07:59:51.934805468Z,-0.66,-1.15,-2.30,-0.66,0.82,2.46,1.48,3.44,5.25,3.77,2.95,5.25,5.25,6.72,,,,,,,,,,,,,,
1799999991945320716,2027-01-15T07:59:51.945320716Z,-0.33,-3.11,-1.48,-1.80,0.49,4.59,2.13,5.08,3.11,3.93,3.77,3.77,7.21,5.74,,,,,,,,,,,,,,
1799999991955835963,2027-01-15T07:59:51.955835963Z,0.16,-2.30,0.49,-0.82,0.33,3.93,0.33,2.46,2.13,2.79,3.93,4.59,5.57,3.44,,,,,,,,,,,,,,
1799999991966351210,2027-01-15T07:59:51.966351210Z,-0.82,-1.15,0.98,0.00,0.33,4.10,-0.33,1.64,2.13,2.30,3.77,3.93,4.26,4.43,,,,,,,,,,,,,,
1799999991976866457,2027-01-15T07:59:51.976866457Z,-0.16,-1.15,-0.16,2.30,1.31,3.28,0.49,1.48,3.61,3.28,4.92,1.48,3.93,5.90,,,,,,,,,,,,,,
1799999991987381704,2027-01-15T07:59:51.987381704Z,0.98,-1.31,1.15,2.30,0.00,0.82,1.31,1.64,4.59,3.77,4.75,2.46,4.92,4.75,,,,,,,,,,,,,,
1799999991997896951,2027-01-15T07:59:51.997896951Z,-0.16,-0.82,0.66,1.64,-0.16,0.82,1.31,1.80,4.43,3.93,4.26,3.93,4.75,5.08,,,,,,,,,,,,,,
1799999992008412198,2027-01-15T07:59:52.008412198Z,-0.66,-0.49,-0.66,0.49,0.82,1.15,0.98,2.62,3.11,4.75,4.75,4.43,3.93,6.23,,,,,,,,,,,,,,
1799999992018927445,2027-01-15T07:59:52.018927445Z,-0.66,-1.48,1.97,0.82,0.16,-1.15,0.98,4.10,2.13,4.75,2.95,6.07,6.56,6.39,,,,,,,,,,,,,,
1799999992029442692,2027-01-15T07:59:52.029442692Z,-1.48,-3.11,1.31,0.82,-0.49,-1.80,1.31,3.44,1.97,4.75,3.61,6.23,8.20,6.89,,,,,,,,,,,,,,
1799999992039957940,2027-01-15T07:59:52.039957940Z,0.33,-4.26,-0.66,0.00,-0.33,-0.82,1.31,3.28,2.13,3.93,5.25,4.92,6.39,6.89,,,,,,,,,,,,,,
1799999992050473187,2027-01-15T07:59:52.050473187Z,0.33,-1.64,0.16,0.33,1.48,0.82,0.98,3.28,2.30,2.95,4.26,2.95,4.92,5.90,,,,,,,,,,,,,,
1799999992060988434,2027-01-15T07:59:52.060988434Z,-2.46,-1.64,0.00,0.00,2.30,1.31,1.15,3.11,2.46,3.28,4.26,3.61,4.92,6.07,,,,,,,,,,,,,,
1799999992071503681,2027-01-15T07:59:52.071503681Z,1.48,0.16,-0.33,-1.48,2.46,2.62,1.64,2.30,1.97,3.93,5.08,5.57,4.92,6.89,,,,,,,,,,,,,,
1799999992082018928,2027-01-15T07:59:52.082018928Z,-1.31,0.82,-0.49,-1.48,1.31,4.10,2.13,3.93,1.97,3.61,4.92,5.08,4.59,6.39,,,,,,,,,,,,,,
1799999992092534175,2027-01-15T07:59:52.092534175Z,1.48,2.13,-0.16,-0.66,0.16,5.08,2.46,4.43,2.30,4.26,4.26,4.10,4.43,5.41,,,,,,,,,,,,,,
1799999992103049422,2027-01-15T07:59:52.103049422Z,0.82,0.82,1.48,0.82,0.82,1.31,1.64,2.95,0.66,3.93,4.26,2.62,4.43,5.57,,,,,,,,,,,,,,
1799999992113564669,2027-01-15T07:59:52.113564669Z,-0.49,2.62,0.98,1.48,0.98,0.82,1.48,2.13,-0.16,3.77,4.59,3.28,4.26,6.23,,,,,,,,,,,,,,
1799999992124079916,2027-01-15T07:59:52.124079916Z,0.82,4.10,-0.66,0.00,0.66,0.33,1.97,2.30,0.49,3.61,5.25,5.25,4.26,6.39,,,,,,,,,,,,,,
1799999992134595163,2027-01-15T07:59:52.134595163Z,-1.80,1.31,-1.97,0.33,1.31,2.13,2.13,2.62,1.48,3.11,4.59,4.10,4.26,4.75,,,,,,,,,,,,,,
1799999992145110411,2027-01-15T07:59:52.145110411Z,-0.33,-0.16,-2.46,0.82,1.48,2.79,1.64,3.44,2.79,3.61,3.77,4.43,5.74,5.25,,,,,,,,,,,,,,
1799999992155625658,2027-01-15T07:59:52.155625658Z,-0.16,-0.49,-1.31,-0.16,0.33,2.30,2.30,4.75,4.75,4.26,2.95,5.57,6.56,7.05,,,,,,,,,,,,,,
1799999992166140905,2027-01-15T07:59:52.166140905Z,-0.82,-0.98,0.49,-0.66,-0.49,-0.66,1.97,3.28,4.10,2.79,2.13,5.41,3.77,6.39,,,,,,,,,,,,,,
1799999992176656152,2027-01-15T07:59:52.176656152Z,0.00,0.66,1.15,0.00,0.49,0.16,1.64,2.30,4.26,2.95,2.95,3.93,4.10,6.39,,,,,,,,,,,,,,
1799999992187171399,2027-01-15T07:59:52.187171399Z,-0.33,1.97,1.80,0.82,2.30,3.11,1.97,1.80,5.41,4.26,4.26,2.79,6.89,6.72,,,,,,,,,,,,,,
1799999992197686646,2027-01-15T07:59:52.197686646Z,0.00,-0.49,1.64,0.66,0.98,1.80,2.46,2.95,4.59,3.61,4.26,4.75,4.92,6.72,,,,,,,,,,,,,,
1799999992208201893,2027-01-15T07:59:52.208201893Z,-0.66,-0.49,1.80,0.49,0.16,1.15,2.62,3.93,3.77,3.61,4.10,5.57,3.93,7.21,,,,,,,,,,,,,,
1799999992218717140,2027-01-15T07:59:52.218717140Z,-1.15,0.66,0.82,0.49,0.00,0.16,3.28,4.59,2.46,4.43,3.11,5.25,3.44,6.39,,,,,,,,,,,,,,
1799999992229232387,2027-01-15T07:59:52.229232387Z,-1.15,-0.33,-0.98,0.16,1.31,0.16,2.30,3.77,1.15,4.10,3.11,4.26,3.44,4.59,,,,,,,,,,,,,,
1799999992239747635,2027-01-15T07:59:52.239747635Z,-2.79,-0.98,-1.15,-0.16,0.98,0.66,1.64,3.77,1.80,3.44,4.26,5.57,3.44,4.75,,,,,,,,,,,,,,
1799999992250262882,2027-01-15T07:59:52.250262882Z,-2.46,-1.64,-0.33,0.33,0.49,2.13,0.82,3.11,3.28,2.62,6.07,7.21,4.10,4.92,,,,,,,,,,,,,,
1799999992260778129,2027-01-15T07:59:52.260778129Z,-2.30,-0.98,-1.15,0.33,1.15,1.64,1.48,3.77,2.62,3.44,5.25,6.39,7.54,3.61,,,,,,,,,,,,,,
1799999992271293376,2027-01-15T07:59:52.271293376Z,-1.48,0.00,-0.66,0.66,0.82,0.33,2.13,3.93,3.11,4.10,4.59,5.41,7.21,3.93,,,,,,,,,,,,,,
1799999992281808623,2027-01-15T07:59:52.281808623Z,0.00,-0.66,0.49,1.64,1.64,-0.16,2.79,3.61,4.26,3.44,4.10,4.10,2.62,5.41,,,,,,,,,,,,,,
1799999992292323870,2027-01-15T07:59:52.292323870Z,-1.31,-2.95,-0.66,0.49,3.11,3.77,1.15,3.44,3.28,4.92,4.92,4.59,2.46,5.90,,,,,,,,,,,,,,
1799999992302839117,2027-01-15T07:59:52.302839117Z,-1.80,-2.95,-0.98,-0.16,2.13,3.93,1.31,4.26,3.61,5.74,4.10,4.92,3.61,6.07,,,,,,,,,,,,,,
1799999992313354364,2027-01-15T07:59:52.313354364Z,-0.33,-2.13,0.00,-0.82,0.16,1.15,3.61,3.28,3.77,4.92,3.28,4.59,5.08,5.25,,,,,,,,,,,,,,
1799999992323869611,2027-01-15T07:59:52.323869611Z,-2.30,-1.80,-1.15,-0.98,0.33,0.82,3.28,1.64,3.44,4.59,3.93,4.59,5.90,4.92,,,,,,,,,,,,,,
1799999992334384859,2027-01-15T07:59:52.334384859Z,-1.48,1.48,-2.13,1.31,-0.16,1.64,1.64,3.28,2.46,4.10,4.43,4.10,7.21,5.25,,,,,,,,,,,,,,
1799999992344900106,2027-01-15T07:59:52.344900106Z,-2.30,0.00,-0.33,0.49,1.31,2.30,1.48,2.79,2.46,3.77,3.61,5.25,4.75,4.26,,,,,,,,,,,,,,
1799999992355415353,2027-01-15T07:59:52.355415353Z,0.82,-1.31,0.98,-0.49,0.98,2.46,1.15,1.97,2.62,3.93,3.44,5.90,4.10,4.59,,,,,,,,,,,,,,
1799999992365930600,2027-01-15T07:59:52.365930600Z,-0.16,-2.13,1.15,0.00,-0.82,1.80,0.82,2.46,3.28,3.77,3.93,4.59,4.75,6.39,,,,,,,,,,,,,,
1799999992376445847,2027-01-15T07:59:52.376445847Z,0.00,-0.33,1.64,2.30,0.00,0.98,1.48,3.61,3.77,3.61,3.77,4.43,5.41,5.74,,,,,,,,,,,,,,
1799999992386961094,2027-01-15T07:59:52.386961094Z,-0.66,0.16,1.97,3.28,0.49,0.82,2.13,3.28,3.61,3.44,3.77,4.92,5.90,5.25,,,,,,,,,,,,,,
1799999992397476341,2027-01-15T07:59:52.397476341Z,-0.49,-0.16,1.64,3.28,-0.33,1.48,2.13,1.31,3.61,4.26,4.75,4.75,6.23,6.72,,,,,,,,,,,,,,
1799999992407991588,2027-01-15T07:59:52.407991588Z,-1.15,1.48,-0.49,0.98,-0.33,2.62,1.31,1.48,4.10,5.90,4.59,3.77,4.75,6.56,,,,,,,,,,,,,,
1799999992418506835,2027-01-15T07:59:52.418506835Z,-1.48,1.31,0.98,0.49,0.00,3.77,1.97,2.13,4.10,5.57,5.08,3.93,3.93,6.07,,,,,,,,,,,,,,
1799999992429022083,2027-01-15T07:59:52.429022083Z,-1.48,-1.80,3.44,0.82,0.16,3.44,1.80,1.31,4.26,4.59,6.23,4.10,4.92,4.75,,,,,,,,,,,,,,
1799999992439537330,2027-01-15T07:59:52.439537330Z,1.15,-1.64,1.97,0.49,0.98,2.30,-0.33,0.66,4.92,4.10,5.25,4.26,5.41,3.11,,,,,,,,,,,,,,
1799999992450052577,2027-01-15T07:59:52.450052577Z,-0.33,-1.15,1.15,0.98,0.98,2.30,0.16,0.16,5.25,3.77,6.07,4.26,5.25,4.59,,,,,,,,,,,,,,
1799999992460567824,2027-01-15T07:59:52.460567824Z,-0.98,-0.98,-0.33,2.62,0.49,1.15,0.82,0.49,4.43,4.26,7.87,2.46,4.43,6.72,,,,,,,,,,,,,,
1799999992471083071,2027-01-15T07:59:52.471083071Z,0.66,-0.98,-1.31,1.97,-0.49,-0.98,0.98,0.49,2.62,3.44,5.90,4.10,4.26,4.92,,,,,,,,,,,,,,
1799999992481598318,2027-01-15T07:59:52.481598318Z,-0.33,-1.31,-1.31,0.82,-0.33,-0.33,1.48,0.66,1.97,3.44,4.59,5.41,4.75,5.74,,,,,,,,,,,,,,
1799999992492113565,2027-01-15T07:59:52.492113565Z,-0.49,-0.82,-2.13,-0.82,0.66,1.80,2.30,1.15,1.97,4.43,4.43,4.26,5.57,6.89,,,,,,,,,,,,,,
1799999992502628812,2027-01-15T07:59:52.502628812Z,-1.15,0.49,-2.30,-0.98,1.64,2.30,0.66,1.80,2.95,4.75,4.10,4.59,6.07,5.90,,,,,,,,,,,,,,
1799999992513144059,2027-01-15T07:59:52.513144059Z,0.66,0.66,-1.97,0.16,1.80,2.30,0.82,1.97,1.48,4.43,3.77,5.08,6.39,5.57,,,,,,,,,,,,,,
1799999992523659306,2027-01-15T07:59:52.523659306Z,-1.15,1.15,-1.64,1.15,1.48,3.11,1.48,2.46,0.33,3.28,2.79,4.92,5.08,3.93,,,,,,,,,,,,,,
1799999992534174554,2027-01-15T07:59:52.534174554Z,-1.97,-0.82,0.33,0.33,0.33,2.30,2.62,3.93,2.95,2.46,2.46,5.90,4.10,4.26,,,,,,,,,,,,,,
1799999992544689801,2027-01-15T07:59:52.544689801Z,-2.46,-1.48,0.82,-0.66,-0.16,1.97,3.61,3.77,2.79,1.80,2.62,5.90,4.43,3.77,,,,,,,,,,,,,,
1799999992555205048,2027-01-15T07:59:52.555205048Z,-0.82,0.16,0.33,-1.48,0.66,0.66,4.59,2.79,2.79,1.31,3.28,5.08,3.77,2.62,,,,,,,,,,,,,,
1799999992565720295,2027-01-15T07:59:52.565720295Z,-0.98,-2.62,-0.49,-0.33,0.00,0.16,4.26,2.13,4.10,2.95,4.75,4.75,3.93,4.59,,,,,,,,,,,,,,
1799999992576235542,2027-01-15T07:59:52.576235542Z,1.15,-3.77,-0.98,0.00,0.33,0.66,4.26,1.80,4.10,3.61,5.41,5.08,4.26,5.41,,,,,,,,,,,,,,
1799999992586750789,2027-01-15T07:59:52.586750789Z,-1.31,-1.48,0.49,0.66,0.66,0.98,2.95,1.64,4.59,3.44,4.10,3.93,5.08,5.57,,,,,,,,,,,,,,
1799999992597266036,2027-01-15T07:59:52.597266036Z,-1.15,-0.66,0.98,0.49,0.00,1.48,3.44,1.48,3.28,2.30,3.61,3.93,6.39,5.90,,,,,,,,,,,,,,
1799999992607781283,2027-01-15T07:59:52.607781283Z,-1.97,-0.16,-0.49,0.98,-0.82,0.98,4.10,1.97,0.66,1.80,3.11,4.10,8.03,3.77,,,,,,,,,,,,,,
1799999992618296530,2027-01-15T07:59:52.618296530Z,0.66,-1.48,-0.98,1.97,0.98,0.00,3.61,2.13,2.46,3.93,3.93,3.61,6.56,4.75,,,,,,,,,,,,,,
1799999992628811778,2027-01-15T07:59:52.628811778Z,0.00,-1.64,-0.66,0.49,1.64,0.33,3.61,3.44,3.77,5.41,3.77,4.59,6.39,5.57,,,,,,,,,,,,,,
1799999992639327025,2027-01-15T07:59:52.639327025Z,0.33,0.82,-0.98,-1.80,2.30,0.82,2.79,4.26,5.25,4.59,2.95,4.92,7.05,6.07,,,,,,,,,,,,,,
1799999992649842272,2027-01-15T07:59:52.649842272Z,-1.97,1.15,-1.15,-0.49,0.49,-1.80,1.48,1.97,3.28,3.61,4.75,2.95,5.25,6.07,,,,,,,,,,,,,,
1799999992660357519,2027-01-15T07:59:52.660357519Z,0.82,0.33,-0.33,0.98,-0.98,-1.48,1.48,2.46,2.46,3.44,4.92,3.61,4.59,6.39,,,,,,,,,,,,,,
1799999992670872766,2027-01-15T07:59:52.670872766Z,1.15,0.33,-0.82,2.79,-1.64,0.16,2.13,4.10,3.61,3.11,4.10,5.41,3.93,6.72,,,,,,,,,,,,,,
1799999992681388013,2027-01-15T07:59:52.681388013Z,-0.98,0.98,-1.80,2.13,0.82,1.80,2.95,2.95,5.74,3.61,5.08,4.26,4.43,5.08,,,,,,,,,,,,,,
1799999992691903260,2027-01-15T07:59:52.691903260Z,1.31,1.31,-0.66,1.80,1.31,2.46,3.11,2.30,4.43,3.93,4.26,3.93,4.43,4.59,,,,,,,,,,,,,,
1799999992702418507,2027-01-15T07:59:52.702418507Z,-1.15,0.82,1.15,1.31,0.16,0.98,3.61,3.61,2.46,4.43,2.46,4.92,4.10,5.41,,,,,,,,,,,,,,
1799999992712933754,2027-01-15T07:59:52.712933754Z,-0.66,0.49,-0.66,-1.48,1.64,0.33,3.44,2.30,3.77,3.11,2.62,4.92,5.25,6.39,,,,,,,,,,,,,,
1799999992723449002,2027-01-15T07:59:52.723449002Z,0.98,0.33,-0.66,-2.30,0.82,-0.33,3.93,1.97,3.61,2.79,2.30,4.92,5.08,6.23,,,,,,,,,,,,,,
1799999992733964249,2027-01-15T07:59:52.733964249Z,-0.16,-0.66,0.00,-1.48,-0.33,-0.98,3.28,4.26,2.95,3.11,1.97,5.57,4.92,5.74,,,,,,,,,,,,,,
1799999992744479496,2027-01-15T07:59:52.744479496Z,-0.66,1.31,0.16,0.16,0.98,1.97,1.97,4.43,4.92,2.95,3.44,5.41,5.41,5.08,,,,,,,,,,,,,,
1799999992754994743,2027-01-15T07:59:52.754994743Z,2.62,3.11,1.48,1.48,0.98,3.11,1.64,2.62,4.92,3.44,4.10,4.75,5.41,5.57,,,,,,,,,,,,,,
1799999992765509990,2027-01-15T07:59:52.765509990Z,-2.62,2.13,1.48,1.80,1.97,2.79,1.80,0.98,3.28,4.10,4.43,3.77,5.90,7.21,,,,,,,,,,,,,,
1799999992776025237,2027-01-15T07:59:52.776025237Z,2.13,1.80,-0.16,1.48,1.48,3.28,1.15,1.15,4.59,3.28,3.77,4.10,5.74,6.72,,,,,,,,,,,,,,
1799999992786540484,2027-01-15T07:59:52.786540484Z,-3.28,-0.33,-0.16,1.48,0.66,1.15,0.66,2.30,4.10,3.77,2.79,4.10,5.57,5.57,,,,,,,,,,,,,,
1799999992797055731,2027-01-15T07:59:52.797055731Z,-3.44,-4.59,-1.97,0.16,0.00,-2.30,1.15,2.79,1.97,5.08,2.95,3.11,8.20,4.43,,,,,,,,,,,,,,
1799999992807570978,2027-01-15T07:59:52.807570978Z,1.97,-2.79,0.00,0.16,-0.98,0.82,0.33,2.13,1.97,3.93,5.08,3.11,11.15,6.07,,,,,,,,,,,,,,
1799999992818086226,2027-01-15T07:59:52.818086226Z,0.82,-1.15,1.48,0.00,-1.80,1.97,0.16,2.13,1.97,3.77,4.92,3.93,7.87,7.54,,,,,,,,,,,,,,
1799999992828601473,2027-01-15T07:59:52.828601473Z,-1.97,-2.62,0.00,-0.49,-0.66,3.28,1.48,2.79,3.44,4.10,3.44,4.92,3.11,8.36,,,,,,,,,,,,,,
1799999992839116720,2027-01-15T07:59:52.839116720Z,0.66,-4.43,-0.49,0.16,1.15,3.11,1.48,3.11,4.26,4.26,3.44,5.08,3.93,8.69,,,,,,,,,,,,,,
1799999992849631967,2027-01-15T07:59:52.849631967Z,-0.82,-6.56,-0.66,1.48,0.16,2.13,1.97,3.61,3.61,5.08,3.93,3.77,5.08,7.70,,,,,,,,,,,,,,
1799999992860147214,2027-01-15T07:59:52.860147214Z,-3.11,-5.41,-1.48,-0.33,0.82,-0.16,1.15,4.92,2.13,4.26,4.92,4.43,6.23,6.23,,,,,,,,,,,,,,
1799999992870662461,2027-01-15T07:59:52.870662461Z,-5.57,-3.11,-1.80,-1.31,1.80,-1.15,0.33,3.44,1.64,3.28,4.43,5.41,5.74,6.07,,,,,,,,,,,,,,
1799999992881177708,2027-01-15T07:59:52.881177708Z,-3.61,-0.66,-1.64,-0.82,2.62,0.33,0.98,2.30,2.13,2.79,2.46,5.57,4.43,5.57,,,,,,,,,,,,,,
1799999992891692955,2027-01-15T07:59:52.891692955Z,-3.77,-2.46,-1.80,-1.31,0.82,0.16,-0.16,6.56,2.46,3.11,3.93,5.25,5.08,5.57,,,,,,,,,,,,,,
1799999992902208202,2027-01-15T07:59:52.902208202Z,-5.90,-3.93,-1.31,-1.15,0.33,0.66,0.49,5.41,2.62,3.77,4.92,5.08,5.57,6.07,,,,,,,,,,,,,,
1799999992912723450,2027-01-15T07:59:52.912723450Z,-4.59,-3.28,-0.98,-1.15,1.48,3.44,2.62,1.31,3.93,4.43,6.72,5.08,4.75,6.72,,,,,,,,,,,,,,
1799999992923238697,2027-01-15T07:59:52.923238697Z,-2.62,-1.80,-0.98,-2.30,2.30,3.28,2.79,2.62,4.26,5.57,4.59,5.90,3.61,6.56,,,,,,,,,,,,,,
1799999992933753944,2027-01-15T07:59:52.933753944Z,-2.13,0.33,-0.66,-1.64,2.79,2.95,1.80,3.44,3.77,5.57,3.61,5.90,5.41,6.72,,,,,,,,,,,,,,
1799999992944269191,2027-01-15T07:59:52.944269191Z,-1.64,1.48,-0.66,-0.16,3.44,3.93,0.66,4.26,3.93,4.92,4.59,4.75,6.89,4.92,,,,,,,,,,,,,,
1799999992954784438,2027-01-15T07:59:52.954784438Z,-0.49,-1.15,0.00,1.31,1.80,0.82,1.15,3.28,3.28,6.23,5.57,4.10,5.08,5.57,,,,,,,,,,,,,,
1799999992965299685,2027-01-15T07:59:52.965299685Z,1.97,0.82,-0.16,1.48,1.64,-0.82,1.48,3.44,2.79,4.75,5.08,4.26,5.25,6.72,,,,,,,,,,,,,,
1799999992975814932,2027-01-15T07:59:52.975814932Z,0.98,5.08,-2.79,0.98,2.46,-0.98,1.64,3.28,3.44,2.30,4.92,5.41,4.59,6.56,,,,,,,,,,,,,,
1799999992986330179,2027-01-15T07:59:52.986330179Z,2.30,4.26,-0.33,2.13,0.82,-1.64,1.48,1.97,3.28,2.30,5.41,6.07,3.77,6.72,,,,,,,,,,,,,,
1799999992996845426,2027-01-15T07:59:52.996845426Z,3.11,3.61,1.48,1.80,0.33,0.16,0.98,2.62,2.79,2.30,5.41,5.25,4.26,6.89,,,,,,,,,,,,,,
1799999993007360673,2027-01-15T07:59:53.007360673Z,1.31,4.10,2.79,-0.16,0.98,3.61,0.66,3.77,2.95,3.44,4.59,4.26,3.28,6.07,,,,,,,,,,,,,,
1799999993017875921,2027-01-15T07:59:53.017875921Z,1.31,1.15,1.48,-0.16,2.79,2.30,1.80,2.30,2.62,3.28,3.77,5.90,4.10,6.23,,,,,,,,,,,,,,
1799999993028391168,2027-01-15T07:59:53.028391168Z,-0.82,0.16,0.66,1.31,2.13,0.98,2.30,2.13,2.79,2.79,3.93,5.74,4.26,5.41,,,,,,,,,,,,,,
1799999993038906415,2027-01-15T07:59:53.038906415Z,-1.31,-0.16,-0.16,3.11,0.16,-0.16,1.64,1.80,2.79,3.11,4.43,3.61,3.44,2.95,,,,,,,,,,,,,,
1799999993049421662,2027-01-15T07:59:53.049421662Z,-1.97,-2.13,0.33,1.97,-0.49,1.80,3.77,1.97,1.64,2.46,4.43,4.92,5.41,3.77,,,,,,,,,,,,,,
1799999993059936909,2027-01-15T07:59:53.059936909Z,-2.30,-0.98,0.49,0.98,-0.49,1.97,4.59,2.13,1.64,2.46,3.77,5.90,4.92,4.92,,,,,,,,,,,,,,
1799999993070452156,2027-01-15T07:59:53.070452156Z,-0.49,1.31,0.98,2.13,-0.16,0.16,2.30,3.28,2.13,2.46,2.13,5.90,3.44,5.74,,,,,,,,,,,,,,
1799999993080967403,2027-01-15T07:59:53.080967403Z,0.33,-1.15,2.13,1.15,1.31,2.13,1.31,3.11,3.28,3.11,3.44,4.59,4.26,5.41,,,,,,,,,,,,,,
1799999993091482650,2027-01-15T07:59:53.091482650Z,0.33,-0.33,2.62,0.82,2.95,2.95,0.49,2.62,2.62,3.61,4.43,4.10,4.92,5.57,,,,,,,,,,,,,,
1799999993101997897,2027-01-15T07:59:53.101997897Z,-0.16,0.98,2.30,1.97,2.62,3.93,0.66,1.97,1.97,3.93,5.57,5.25,4.92,6.56,,,,,,,,,,,,,,
1799999993112513145,2027-01-15T07:59:53.112513145Z,0.00,0.98,1.31,1.31,1.97,2.13,1.31,2.30,2.13,3.77,6.23,5.41,5.25,6.07,,,,,,,,,,,,,,
1799999993123028392,2027-01-15T07:59:53.123028392Z,3.77,1.48,0.66,-0.33,3.44,-0.33,0.33,2.79,2.30,4.26,6.39,3.28,7.05,4.10,,,,,,,,,,,,,,
1799999993133543639,2027-01-15T07:59:53.133543639Z,2.13,1.31,-0.16,0.98,3.28,0.66,0.98,0.66,2.79,3.77,4.10,3.28,6.56,5.90,,,,,,,,,,,,,,
1799999993144058886,2027-01-15T07:59:53.144058886Z,2.13,2.13,-0.33,2.13,2.95,1.48,1.80,0.33,3.11,2.95,3.61,4.26,5.25,7.21,,,,,,,,,,,,,,
1799999993154574133,2027-01-15T07:59:53.154574133Z,4.75,4.92,0.00,1.80,2.79,0.00,2.13,1.80,2.62,1.64,4.59,5.74,4.75,4.92,,,,,,,,,,,,,,
1799999993165089380,2027-01-15T07:59:53.165089380Z,4.10,4.59,-0.49,3.11,1.64,0.16,2.79,0.49,3.28,2.79,4.43,3.61,5.90,4.26,,,,,,,,,,,,,,
1799999993175604627,2027-01-15T07:59:53.175604627Z,2.95,2.62,-1.48,3.93,1.31,0.66,2.95,-0.16,3.93,2.95,4.10,3.11,6.39,4.59,,,,,,,,,,,,,,
1799999993186119874,2027-01-15T07:59:53.186119874Z,1.31,-0.33,-1.64,3.61,0.49,-0.66,0.98,0.16,4.10,3.61,4.75,3.44,6.72,5.08,,,,,,,,,,,,,,
1799999993196635121,2027-01-15T07:59:53.196635121Z,0.16,-0.16,0.66,1.15,0.98,0.49,0.49,2.79,3.28,2.95,5.74,4.92,6.23,5.74,,,,,,,,,,,,,,
1799999993207150369,2027-01-15T07:59:53.207150369Z,0.49,0.00,-0.66,1.15,0.16,0.66,0.00,3.44,3.11,2.46,5.08,5.41,6.07,6.39,,,,,,,,,,,,,,
1799999993217665616,2027-01-15T07:59:53.217665616Z,-0.82,-1.97,-2.13,0.49,-0.82,0.98,-0.16,1.80,4.10,3.28,4.75,4.26,4.26,5.74,,,,,,,,,,,,,,
1799999993228180863,2027-01-15T07:59:53.228180863Z,-1.15,-1.15,0.49,0.98,-0.16,3.61,1.80,1.80,2.79,4.43,6.07,4.10,3.77,2.95,,,,,,,,,,,,,,
1799999993238696110,2027-01-15T07:59:53.238696110Z,-1.48,-1.64,-0.49,1.48,-0.49,2.30,1.80,2.95,2.79,3.93,5.08,4.59,3.77,4.26,,,,,,,,,,,,,,
1799999993249211357,2027-01-15T07:59:53.249211357Z,-4.26,-2.62,-3.28,1.80,-0.49,0.66,1.31,4.26,5.08,2.79,2.79,6.07,3.93,6.39,,,,,,,,,,,,,,
1799999993259726604,2027-01-15T07:59:53.259726604Z,-3.28,-3.11,-1.64,0.33,0.82,0.49,1.15,4.10,4.10,3.44,2.46,5.57,3.77,4.59,,,,,,,,,,,,,,
1799999993270241851,2027-01-15T07:59:53.270241851Z,-3.93,-3.11,-0.16,0.66,1.15,0.00,1.31,3.61,2.95,3.28,2.62,4.75,4.59,4.10,,,,,,,,,,,,,,
1799999993280757098,2027-01-15T07:59:53.280757098Z,-5.25,-5.41,0.66,0.49,0.98,1.64,2.95,4.10,3.28,3.44,3.77,4.59,7.05,5.08,,,,,,,,,,,,,,
1799999993291272345,2027-01-15T07:59:53.291272345Z,-6.56,-6.39,0.16,-3.11,0.82,1.80,2.95,3.61,5.74,3.28,3.61,4.92,6.89,6.07,,,,,,,,,,,,,,
1799999993301787593,2027-01-15T07:59:53.301787593Z,-4.75,-5.74,-0.33,-3.44,3.11,2.95,2.79,3.28,4.92,3.44,3.28,3.93,6.07,5.74,,,,,,,,,,,,,,
1799999993312302840,2027-01-15T07:59:53.312302840Z,-7.87,-4.10,-0.98,-2.30,5.25,5.08,4.10,2.46,2.46,4.26,3.11,2.95,6.56,5.08,,,,,,,,,,,,,,
1799999993322818087,2027-01-15T07:59:53.322818087Z,-8.69,-4.26,-0.66,-4.10,2.46,3.93,4.92,4.43,2.62,3.77,3.28,1.80,4.59,4.59,,,,,,,,,,,,,,
1799999993333333334,2027-01-15T07:59:53.333333334Z,-5.25,-3.61,-0.98,-4.43,-0.16,3.61,3.28,4.26,2.46,3.61,3.61,1.64,3.77,4.26,,,,,,,,,,,,,,
1799999993343848581,2027-01-15T07:59:53.343848581Z,-5.57,-6.07,-1.97,-2.95,0.49,3.11,0.98,5.90,3.93,4.92,4.10,3.11,4.10,4.43,,,,,,,,,,,,,,
1799999993354363828,2027-01-15T07:59:53.354363828Z,-0.82,-3.77,-1.31,-1.80,0.66,2.62,2.13,6.72,5.08,5.41,2.62,4.26,4.92,5.25,,,,,,,,,,,,,,
1799999993364879075,2027-01-15T07:59:53.364879075Z,0.49,-0.98,-0.49,-0.66,0.66,3.11,3.93,5.08,5.74,5.90,0.66,4.75,5.74,5.08,,,,,,,,,,,,,,
1799999993375394322,2027-01-15T07:59:53.375394322Z,-2.62,-0.33,0.49,-0.33,1.31,0.98,2.79,2.79,3.61,4.43,2.13,5.25,6.07,5.41,,,,,,,,,,,,,,
1799999993385909569,2027-01-15T07:59:53.385909569Z,-0.66,-0.16,0.82,-0.16,1.15,0.16,1.97,3.61,2.13,3.93,3.44,5.74,6.23,5.41,,,,,,,,,,,,,,
1799999993396424816,2027-01-15T07:59:53.396424816Z,-0.82,-2.30,-0.33,0.00,-0.49,1.15,2.46,4.43,2.13,4.75,4.92,7.38,6.56,5.57,,,,,,,,,,,,,,
1799999993406940064,2027-01-15T07:59:53.406940064Z,0.98,-2.13,0.82,-0.16,0.16,0.00,0.98,2.13,4.75,4.43,5.74,5.41,6.56,6.23,,,,,,,,,,,,,,
1799999993417455311,2027-01-15T07:59:53.417455311Z,0.66,-1.80,1.64,-0.16,0.98,0.82,1.15,1.48,5.57,4.43,6.07,4.75,7.21,5.74,,,,,,,,,,,,,,
1799999993427970558,2027-01-15T07:59:53.427970558Z,-0.49,-3.28,2.13,-0.16,1.80,4.26,0.98,2.79,3.93,3.93,5.08,4.26,7.87,5.57,,,,,,,,,,,,,,
1799999993438485805,2027-01-15T07:59:53.438485805Z,0.33,-1.80,0.66,-0.49,0.16,0.82,0.49,1.97,3.11,4.10,5.08,6.07,6.23,7.05,,,,,,,,,,,,,,
1799999993449001052,2027-01-15T07:59:53.449001052Z,0.16,0.16,0.66,-0.49,-0.33,-1.48,0.49,2.79,3.28,3.11,5.08,5.74,5.41,7.21,,,,,,,,,,,,,,
1799999993459516299,2027-01-15T07:59:53.459516299Z,-0.16,3.11,1.64,1.31,0.33,-1.48,-0.49,4.43,3.11,2.95,5.08,5.25,4.26,6.89,,,,,,,,,,,,,,
1799999993470031546,2027-01-15T07:59:53.470031546Z,1.64,2.95,1.64,1.97,0.16,-1.97,1.80,3.44,2.30,4.26,4.92,5.74,4.43,5.90,,,,,,,,,,,,,,
1799999993480546793,2027-01-15T07:59:53.480546793Z,1.48,2.95,1.31,1.64,-0.49,0.33,3.11,2.62,1.48,4.26,4.92,4.92,4.92,6.56,,,,,,,,,,,,,,
1799999993491062040,2027-01-15T07:59:53.491062040Z,2.62,3.77,2.30,2.30,-1.31,4.59,0.82,1.80,0.82,4.10,3.77,3.28,4.75,7.38,,,,,,,,,,,,,,
1799999993501577288,2027-01-15T07:59:53.501577288Z,8.20,3.77,1.97,1.31,-0.82,3.77,2.79,-0.16,3.93,2.62,4.26,2.30,4.92,5.90,,,,,,,,,,,,,,
1799999993512092535,2027-01-15T07:59:53.512092535Z,6.72,4.92,1.48,1.97,-0.16,2.79,3.44,-0.49,5.41,1.64,5.25,3.61,4.92,5.25,,,,,,,,,,,,,,
1799999993522607782,2027-01-15T07:59:53.522607782Z,6.72,4.75,0.98,3.77,1.48,1.31,3.77,-1.97,3.93,2.79,5.90,6.72,5.25,5.41,,,,,,,,,,,,,,
1799999993533123029,2027-01-15T07:59:53.533123029Z,4.26,2.62,1.31,2.95,0.49,1.48,1.31,-0.82,2.30,3.11,3.44,6.89,4.59,5.08,,,,,,,,,,,,,,
1799999993543638276,2027-01-15T07:59:53.543638276Z,-0.33,2.46,1.48,1.31,0.66,2.79,0.00,0.00,0.98,3.28,3.93,6.07,5.57,4.92,,,,,,,,,,,,,,
1799999993554153523,2027-01-15T07:59:53.554153523Z,-0.98,0.98,1.97,0.66,1.64,2.95,-0.49,0.49,0.16,3.77,6.07,6.23,5.57,3.77,,,,,,,,,,,,,,
1799999993564668770,2027-01-15T07:59:53.564668770Z,1.15,0.33,0.16,2.62,2.30,1.15,0.82,2.30,4.26,4.10,4.59,4.26,3.61,3.28,,,,,,,,,,,,,,
1799999993575184017,2027-01-15T07:59:53.575184017Z,-0.33,1.64,-0.33,2.13,2.30,1.15,0.82,2.62,3.28,4.26,3.28,3.28,3.28,4.10,,,,,,,,,,,,,,
1799999993585699264,2027-01-15T07:59:53.585699264Z,0.33,0.33,-0.82,1.15,0.82,0.82,1.31,2.13,2.46,4.92,4.26,4.75,4.10,6.56,,,,,,,,,,,,,,
1799999993596214512,2027-01-15T07:59:53.596214512Z,-1.97,-1.80,-1.48,0.66,1.64,0.82,0.98,2.13,2.62,3.77,5.25,5.08,4.59,7.21,,,,,,,,,,,,,,
1799999993606729759,2027-01-15T07:59:53.606729759Z,1.15,-0.16,0.00,-0.49,2.79,2.30,-1.15,0.49,1.97,2.79,6.72,4.43,5.08,5.90,,,,,,,,,,,,,,
1799999993617245006,2027-01-15T07:59:53.617245006Z,-1.15,0.66,-1.48,0.82,1.48,1.64,0.16,0.66,4.92,2.79,4.92,4.43,4.10,6.72,,,,,,,,,,,,,,
1799999993627760253,2027-01-15T07:59:53.627760253Z,-1.48,0.66,-2.30,0.82,1.15,1.48,1.31,1.31,4.75,2.95,4.10,4.26,4.26,7.38,,,,,,,,,,,,,,
1799999993638275500,2027-01-15T07:59:53.638275500Z,1.15,1.80,-0.98,-0.98,0.33,0.00,2.46,2.46,2.46,3.93,3.77,4.43,6.07,6.23,,,,,,,,,,,,,,
1799999993648790747,2027-01-15T07:59:53.648790747Z,0.49,-0.33,-1.48,-0.98,0.49,0.00,3.11,4.75,3.44,3.61,3.61,6.07,4.92,5.57,,,,,,,,,,,,,,
1799999993659305994,2027-01-15T07:59:53.659305994Z,-0.66,-2.13,-2.13,-0.49,0.66,0.82,3.61,5.90,4.10,2.95,3.44,5.90,3.77,5.41,,,,,,,,,,,,,,
1799999993669821241,2027-01-15T07:59:53.669821241Z,-0.66,-2.62,-1.64,0.33,-0.82,1.97,3.44,4.10,5.90,3.44,4.26,6.39,3.28,3.93,,,,,,,,,,,,,,
1799999993680336488,2027-01-15T07:59:53.680336488Z,-5.90,-2.95,0.16,-0.49,-0.82,5.08,3.11,5.25,4.75,2.79,4.10,5.74,3.61,3.93,,,,,,,,,,,,,,
1799999993690851736,2027-01-15T07:59:53.690851736Z,-2.95,-2.46,0.82,-0.98,-0.33,4.26,1.97,6.07,3.77,2.13,3.44,4.92,4.10,4.92,,,,,,,,,,,,,,
1799999993701366983,2027-01-15T07:59:53.701366983Z,-2.30,-1.15,-0.49,-2.30,1.80,1.64,0.49,4.59,1.97,1.64,4.26,4.26,5.57,6.56,,,,,,,,,,,,,,
1799999993711882230,2027-01-15T07:59:53.711882230Z,-3.93,-2.62,0.00,-2.46,1.80,-0.33,1.48,3.11,1.80,3.28,3.44,5.25,6.07,6.07,,,,,,,,,,,,,,
1799999993722397477,2027-01-15T07:59:53.722397477Z,-5.74,-3.93,-0.33,-1.64,0.98,-0.66,2.13,2.79,2.46,4.26,3.11,5.57,5.90,5.57,,,,,,,,,,,,,,
1799999993732912724,2027-01-15T07:59:53.732912724Z,-0.49,-2.95,-0.98,0.00,-0.49,1.64,2.46,2.79,3.77,5.57,4.26,4.59,5.57,4.92,,,,,,,,,,,,,,
1799999993743427971,2027-01-15T07:59:53.743427971Z,0.49,-0.33,-1.15,-1.15,0.66,2.30,3.11,4.43,2.95,5.25,5.25,3.93,5.74,4.75,,,,,,,,,,,,,,
1799999993753943218,2027-01-15T07:59:53.753943218Z,-2.46,-0.82,-1.31,-0.82,0.49,1.15,2.62,4.59,3.77,5.08,4.75,4.59,4.92,5.57,,,,,,,,,,,,,,
1799999993764458465,2027-01-15T07:59:53.764458465Z,-2.30,-3.93,-1.15,0.98,0.33,0.49,1.15,2.46,4.43,4.10,3.28,4.43,3.93,7.38,,,,,,,,,,,,,,
1799999993774973712,2027-01-15T07:59:53.774973712Z,-4.75,-3.11,-1.15,0.16,0.66,2.79,1.48,3.77,1.15,2.95,4.10,3.44,4.75,6.89,,,,,,,,,,,,,,
1799999993785488959,2027-01-15T07:59:53.785488959Z,-3.11,-2.62,-1.15,-0.66,0.49,1.64,2.46,4.59,0.00,3.93,3.93,3.61,5.57,6.56,,,,,,,,,,,,,,
1799999993796004207,2027-01-15T07:59:53.796004207Z,-6.72,-3.28,0.16,-0.49,0.82,-0.16,3.11,2.95,0.66,5.08,2.79,3.61,5.41,7.21,,,,,,,,,,,,,,
1799999993806519454,2027-01-15T07:59:53.806519454Z,-6.39,-4.10,-0.66,-0.16,0.33,-0.82,2.95,2.46,0.82,3.77,3.61,5.25,4.43,6.56,,,,,,,,,,,,,,
1799999993817034701,2027-01-15T07:59:53.817034701Z,-7.21,-4.10,-1.15,-0.33,1.15,-0.66,3.28,2.79,2.79,3.61,3.61,5.41,4.59,6.39,,,,,,,,,,,,,,
1799999993827549948,2027-01-15T07:59:53.827549948Z,-6.89,-3.11,-0.16,-0.49,3.77,2.62,3.77,4.43,6.07,4.92,2.13,3.61,3.93,6.39,,,,,,,,,,,,,,
1799999993838065195,2027-01-15T07:59:53.838065195Z,-6.56,-3.28,-0.66,-0.82,2.95,1.31,2.30,5.08,3.93,3.77,2.62,3.77,3.77,5.74,,,,,,,,,,,,,,
1799999993848580442,2027-01-15T07:59:53.848580442Z,-6.23,-4.10,-0.16,-1.15,1.80,1.64,3.11,4.43,4.59,3.28,2.95,4.59,4.26,5.57,,,,,,,,,,,,,,
1799999993859095689,2027-01-15T07:59:53.859095689Z,-4.75,-3.77,1.15,-3.11,1.97,3.44,3.93,2.13,4.26,3.11,3.93,5.57,5.90,5.25,,,,,,,,,,,,,,
1799999993869610936,2027-01-15T07:59:53.869610936Z,-2.62,-3.11,-0.49,-3.28,2.46,2.79,3.93,2.13,2.79,3.11,4.59,5.25,5.90,5.57,,,,,,,,,,,,,,
1799999993880126183,2027-01-15T07:59:53.880126183Z,-2.30,-2.79,-3.11,-0.16,3.11,1.48,6.39,2.79,4.26,3.44,4.75,4.43,5.57,7.21,,,,,,,,,,,,,,
1799999993890641431,2027-01-15T07:59:53.890641431Z,-0.49,-0.49,-1.48,1.31,2.30,3.28,4.92,2.79,3.77,2.79,3.77,4.92,6.56,7.21,,,,,,,,,,,,,,
1799999993901156678,2027-01-15T07:59:53.901156678Z,1.15,0.66,0.00,0.82,0.82,4.10,3.61,2.95,3.11,3.28,3.93,5.41,6.07,6.39,,,,,,,,,,,,,,
1799999993911671925,2027-01-15T07:59:53.911671925Z,0.00,0.49,0.66,-0.49,-1.15,3.93,1.97,2.46,3.11,4.75,4.92,5.41,5.74,5.90,,,,,,,,,,,,,,
1799999993922187172,2027-01-15T07:59:53.922187172Z,0.66,1.31,1.97,0.82,1.80,1.48,1.31,2.13,2.46,3.77,4.75,4.43,6.72,7.54,,,,,,,,,,,,,,
1799999993932702419,2027-01-15T07:59:53.932702419Z,2.46,1.97,1.97,1.64,1.64,0.49,0.49,1.48,2.30,3.44,4.43,3.77,5.90,6.72,,,,,,,,,,,,,,
1799999993943217666,2027-01-15T07:59:53.943217666Z,2.62,3.11,3.11,2.95,-0.66,-0.82,-0.98,0.98,1.80,4.26,4.10,3.11,4.26,3.61,,,,,,,,,,,,,,
1799999993953732913,2027-01-15T07:59:53.953732913Z,4.92,2.95,2.79,2.79,0.98,-1.31,0.00,1.64,2.46,3.77,3.11,3.93,5.90,4.92,,,,,,,,,,,,,,
1799999993964248160,2027-01-15T07:59:53.964248160Z,6.89,2.79,1.97,2.62,0.82,0.00,0.16,2.62,1.48,3.44,3.93,4.10,6.89,6.23,,,,,,,,,,,,,,
1799999993974763407,2027-01-15T07:59:53.974763407Z,6.56,4.43,0.66,2.79,0.66,1.97,-1.15,1.97,0.33,3.44,4.75,3.44,5.74,6.39,,,,,,,,,,,,,,
1799999993985278655,2027-01-15T07:59:53.985278655Z,8.69,5.57,1.48,3.28,3.11,2.46,-0.16,-0.66,0.98,4.26,3.11,4.59,4.10,5.57,,,,,,,,,,,,,,
1799999993995793902,2027-01-15T07:59:53.995793902Z,8.52,6.23,1.80,4.10,1.97,2.79,0.16,-1.31,1.31,3.93,2.46,5.08,4.92,5.74,,,,,,,,,,,,,,
1799999994006309149,2027-01-15T07:59:54.006309149Z,7.87,6.23,0.33,5.25,-0.66,2.46,1.15,-1.31,3.93,3.44,2.30,4.75,6.39,5.41,,,,,,,,,,,,,,
1799999994016824396,2027-01-15T07:59:54.016824396Z,4.26,4.10,1.15,2.95,0.49,2.46,1.80,0.49,3.44,3.61,2.79,5.41,5.74,5.74,,,,,,,,,,,,,,
1799999994027339643,2027-01-15T07:59:54.027339643Z,1.64,1.80,-0.82,1.48,0.66,2.95,2.30,0.98,3.77,3.44,2.95,5.90,5.90,4.92,,,,,,,,,,,,,,
1799999994037854890,2027-01-15T07:59:54.037854890Z,1.97,0.00,-3.61,0.33,0.82,2.30,2.30,0.66,6.72,3.44,3.61,4.75,6.72,4.10,,,,,,,,,,,,,,
1799999994048370137,2027-01-15T07:59:54.048370137Z,3.93,0.98,-1.80,1.48,1.80,1.97,1.15,0.82,5.90,2.95,5.08,4.26,5.90,6.07,,,,,,,,,,,,,,
1799999994058885384,2027-01-15T07:59:54.058885384Z,1.15,0.82,-0.49,1.48,1.64,2.30,1.31,1.31,4.43,1.97,5.74,4.59,5.08,7.05,,,,,,,,,,,,,,
1799999994069400631,2027-01-15T07:59:54.069400631Z,0.82,-0.33,-0.98,1.31,0.98,2.46,1.15,2.46,3.61,0.66,5.41,4.92,4.43,6.39,,,,,,,,,,,,,,
1799999994079915879,2027-01-15T07:59:54.079915879Z,-4.10,-2.30,-0.98,0.82,-0.33,2.79,1.48,1.31,2.79,3.11,6.07,4.92,6.07,4.75,,,,,,,,,,,,,,
1799999994090431126,2027-01-15T07:59:54.090431126Z,-2.13,-2.30,0.00,1.80,-0.98,2.62,2.13,0.49,2.30,4.10,5.74,4.92,6.07,4.26,,,,,,,,,,,,,,
1799999994100946373,2027-01-15T07:59:54.100946373Z,-3.44,-1.48,0.16,0.49,-0.98,2.79,3.28,0.49,2.46,4.92,3.61,4.26,4.26,4.43,,,,,,,,,,,,,,
1799999994111461620,2027-01-15T07:59:54.111461620Z,-0.49,-0.98,0.00,0.16,-1.31,0.98,2.79,0.00,3.61,5.74,3.61,3.93,4.75,5.08,,,,,,,,,,,,,,
1799999994121976867,2027-01-15T07:59:54.121976867Z,0.33,-3.11,-0.16,-1.48,-0.82,-0.98,2.30,1.64,3.44,6.56,4.43,3.28,6.89,4.59,,,,,,,,,,,,,,
1799999994132492114,2027-01-15T07:59:54.132492114Z,-0.82,-1.64,-0.49,0.16,-0.98,0.98,1.15,5.08,2.79,4.10,2.79,4.10,6.23,5.08,,,,,,,,,,,,,,
1799999994143007361,2027-01-15T07:59:54.143007361Z,-1.48,-0.49,-0.66,0.33,-0.49,1.31,0.66,5.41,2.62,3.93,3.77,4.26,5.57,5.74,,,,,,,,,,,,,,
1799999994153522608,2027-01-15T07:59:54.153522608Z,-3.28,-1.48,-0.16,0.98,0.82,0.16,1.31,2.95,3.44,3.77,5.74,3.61,3.93,6.23,,,,,,,,,,,,,,
1799999994164037855,2027-01-15T07:59:54.164037855Z,-3.77,-2.13,-1.48,0.49,-0.82,0.66,3.28,2.79,3.77,4.26,4.92,3.44,3.77,3.93,,,,,,,,,,,,,,
1799999994174553102,2027-01-15T07:59:54.174553102Z,-3.44,-2.30,-1.48,1.15,-1.64,0.49,3.44,4.10,3.93,4.26,4.75,4.10,2.95,3.28,,,,,,,,,,,,,,
1799999994185068350,2027-01-15T07:59:54.185068350Z,-3.61,-2.79,-0.49,1.31,-2.30,0.66,3.11,7.21,3.93,1.80,4.75,3.93,2.79,5.25,,,,,,,,,,,,,,
1799999994195583597,2027-01-15T07:59:54.195583597Z,-4.92,-1.80,-0.66,-0.98,0.00,1.80,3.61,6.89,3.44,3.44,4.75,3.93,3.77,6.72,,,,,,,,,,,,,,
1799999994206098844,2027-01-15T07:59:54.206098844Z,-5.57,-2.79,-0.49,-1.31,0.82,0.66,2.46,5.90,3.44,4.92,4.75,4.43,4.26,6.72,,,,,,,,,,,,,,
1799999994216614091,2027-01-15T07:59:54.216614091Z,-3.93,-3.77,0.33,-0.16,0.49,-0.66,1.15,4.26,1.80,5.25,4.43,5.41,4.75,4.92,,,,,,,,,,,,,,
1799999994227129338,2027-01-15T07:59:54.227129338Z,-3.61,-3.44,0.66,-0.66,0.33,0.98,2.62,4.26,2.62,4.75,5.08,5.08,4.26,5.25,,,,,,,,,,,,,,
1799999994237644585,2027-01-15T07:59:54.237644585Z,-5.41,-3.44,0.98,-1.48,0.16,-0.66,2.13,4.92,3.77,4.92,4.26,5.41,4.75,5.90,,,,,,,,,,,,,,
1799999994248159832,2027-01-15T07:59:54.248159832Z,-4.26,-2.95,0.49,-2.46,0.49,-1.31,2.62,5.74,2.79,5.57,3.11,5.25,5.25,5.57,,,,,,,,,,,,,,
1799999994258675079,2027-01-15T07:59:54.258675079Z,-4.26,-1.97,-1.97,-3.11,1.31,3.11,3.93,4.75,2.79,5.74,3.77,4.26,4.92,5.74,,,,,,,,,,,,,,
1799999994269190326,2027-01-15T07:59:54.269190326Z,-0.82,-1.97,-1.15,-1.97,1.80,2.79,3.44,3.77,2.62,5.74,4.43,3.77,4.92,4.26,,,,,,,,,,,,,,
1799999994279705574,2027-01-15T07:59:54.279705574Z,-0.33,-2.30,0.98,-0.98,1.80,-0.33,1.15,3.11,2.62,5.74,5.08,3.93,4.59,3.11,,,,,,,,,,,,,,
1799999994290220821,2027-01-15T07:59:54.290220821Z,-1.48,-1.48,-0.49,-1.48,1.80,0.16,1.15,3.28,5.25,3.93,4.75,4.59,4.59,5.74,,,,,,,,,,,,,,
1799999994300736068,2027-01-15T07:59:54.300736068Z,0.82,-1.97,-0.82,-0.82,1.48,0.33,2.30,3.77,4.75,3.11,4.10,4.59,4.92,6.07,,,,,,,,,,,,,,
1799999994311251315,2027-01-15T07:59:54.311251315Z,-1.64,-2.95,-1.48,0.66,0.49,0.16,2.79,4.26,1.97,3.11,4.10,4.26,5.57,4.92,,,,,,,,,,,,,,
1799999994321766562,2027-01-15T07:59:54.321766562Z,0.49,-2.13,0.33,0.00,0.33,1.64,0.82,3.28,2.13,2.62,5.25,4.92,4.59,5.08,,,,,,,,,,,,,,
1799999994332281809,2027-01-15T07:59:54.332281809Z,-0.66,-0.49,1.80,0.82,0.98,2.79,0.82,2.30,1.97,2.79,5.08,5.25,4.26,4.59,,,,,,,,,,,,,,
1799999994342797056,2027-01-15T07:59:54.342797056Z,0.98,0.49,1.15,1.80,1.64,3.11,0.16,1.64,3.11,4.10,4.10,4.92,4.59,4.10,,,,,,,,,,,,,,
1799999994353312303,2027-01-15T07:59:54.353312303Z,1.15,1.31,0.49,1.31,2.79,0.98,0.66,2.95,5.57,5.57,3.61,3.77,6.07,4.92,,,,,,,,,,,,,,
1799999994363827550,2027-01-15T07:59:54.363827550Z,2.30,1.64,0.66,1.15,3.61,0.66,1.97,1.64,5.08,4.92,2.95,4.43,6.56,4.75,,,,,,,,,,,,,,
1799999994374342798,2027-01-15T07:59:54.374342798Z,4.59,1.80,1.31,3.44,4.59,2.46,1.48,0.33,3.28,3.44,2.95,5.41,6.89,5.08,,,,,,,,,,,,,,
1799999994384858045,2027-01-15T07:59:54.384858045Z,3.11,2.13,1.48,3.44,3.28,2.79,0.82,0.82,2.62,4.10,3.44,4.92,6.89,6.72,,,,,,,,,,,,,,
1799999994395373292,2027-01-15T07:59:54.395373292Z,3.61,4.43,0.66,0.98,2.79,2.30,-0.16,0.98,2.13,4.59,3.77,4.75,5.90,8.03,,,,,,,,,,,,,,
1799999994405888539,2027-01-15T07:59:54.405888539Z,3.11,3.77,-0.98,0.98,1.97,1.15,-0.98,2.13,3.61,2.62,5.08,5.74,5.41,9.67,,,,,,,,,,,,,,
1799999994416403786,2027-01-15T07:59:54.416403786Z,3.11,2.79,-0.82,1.48,1.15,0.16,-0.98,3.28,3.61,2.79,5.74,5.08,5.90,10.16,,,,,,,,,,,,,,
1799999994426919033,2027-01-15T07:59:54.426919033Z,0.66,1.31,0.33,1.64,0.00,0.00,0.82,3.44,2.79,4.75,4.10,3.77,6.23,8.20,,,,,,,,,,,,,,
1799999994437434280,2027-01-15T07:59:54.437434280Z,1.15,2.79,1.15,3.28,0.33,1.97,1.97,2.13,4.10,3.93,4.75,4.43,4.43,5.41,,,,,,,,,,,,,,
1799999994447949527,2027-01-15T07:59:54.447949527Z,0.00,1.97,0.33,0.98,1.31,3.11,2.95,1.15,3.77,3.44,4.26,5.41,4.43,4.26,,,,,,,,,,,,,,
1799999994458464774,2027-01-15T07:59:54.458464774Z,-0.16,0.49,-1.31,-2.13,2.95,2.79,5.08,0.49,1.97,2.30,4.59,5.57,6.07,4.75,,,,,,,,,,,,,,
1799999994468980022,2027-01-15T07:59:54.468980022Z,1.15,0.16,-1.15,0.66,1.64,-0.16,3.61,2.13,2.46,2.62,5.08,3.93,7.54,5.90,,,,,,,,,,,,,,
1799999994479495269,2027-01-15T07:59:54.479495269Z,-1.31,-0.33,-1.64,0.66,1.31,-0.82,2.13,3.44,3.61,2.62,4.43,3.28,8.36,6.07,,,,,,,,,,,,,,
1799999994490010516,2027-01-15T07:59:54.490010516Z,1.31,0.66,-0.66,1.15,2.46,1.31,0.16,3.93,3.77,2.79,4.75,3.44,9.51,6.23,,,,,,,,,,,,,,
1799999994500525763,2027-01-15T07:59:54.500525763Z,1.97,-0.49,-0.49,1.15,0.49,2.30,1.80,3.28,2.79,4.10,3.28,3.61,8.85,5.90,,,,,,,,,,,,,,
1799999994511041010,2027-01-15T07:59:54.511041010Z,-0.98,-0.82,-0.49,1.15,0.82,1.97,2.62,3.77,4.43,4.75,3.77,3.77,7.05,6.07,,,,,,,,,,,,,,
1799999994521556257,2027-01-15T07:59:54.521556257Z,-2.62,-0.16,0.82,0.00,1.80,2.46,2.62,5.57,5.90,5.57,4.43,5.08,1.48,6.56,,,,,,,,,,,,,,
1799999994532071504,2027-01-15T07:59:54.532071504Z,-2.46,-1.15,-1.31,-0.16,-0.82,0.98,3.28,3.61,4.75,4.92,4.43,5.57,2.30,5.90,,,,,,,,,,,,,,
1799999994542586751,2027-01-15T07:59:54.542586751Z,-1.80,-2.30,-2.95,0.66,-1.48,-0.49,2.95,2.30,4.75,4.92,4.43,5.41,4.92,4.92,,,,,,,,,,,,,,
1799999994553101998,2027-01-15T07:59:54.553101998Z,-3.28,-2.46,-1.48,2.13,0.00,-2.62,1.31,1.64,3.77,3.93,3.11,4.75,4.59,3.93,,,,,,,,,,,,,,
1799999994563617246,2027-01-15T07:59:54.563617246Z,-1.97,-1.48,0.16,0.82,0.66,0.98,1.80,2.46,2.62,3.61,4.10,5.08,4.75,6.07,,,,,,,,,,,,,,
1799999994574132493,2027-01-15T07:59:54.574132493Z,-1.97,-1.31,0.66,0.16,0.66,1.97,2.46,2.79,2.62,2.95,4.92,5.74,4.75,6.72,,,,,,,,,,,,,,
1799999994584647740,2027-01-15T07:59:54.584647740Z,-2.46,-2.79,0.49,0.00,1.64,0.00,2.95,4.59,3.61,1.15,3.61,5.74,4.75,4.92,,,,,,,,,,,,,,
1799999994595162987,2027-01-15T07:59:54.595162987Z,-3.11,-1.15,1.15,0.00,2.79,1.48,1.64,3.77,1.15,1.64,3.77,3.93,4.75,3.28,,,,,,,,,,,,,,
1799999994605678234,2027-01-15T07:59:54.605678234Z,-2.62,-0.33,0.66,0.49,2.95,2.13,0.82,2.62,0.16,2.30,3.77,2.79,4.10,3.77,,,,,,,,,,,,,,
1799999994616193481,2027-01-15T07:59:54.616193481Z,-1.97,-0.16,-1.48,0.49,1.31,2.30,1.97,3.11,2.95,3.28,3.61,3.61,3.93,5.08,,,,,,,,,,,,,,
1799999994626708728,2027-01-15T07:59:54.626708728Z,0.00,0.66,-1.64,-0.16,0.49,2.30,1.80,2.46,2.95,3.61,5.25,4.10,4.10,5.57,,,,,,,,,,,,,,
1799999994637223975,2027-01-15T07:59:54.637223975Z,0.16,-1.15,-1.15,-0.66,0.98,0.98,1.48,1.97,3.77,2.13,7.21,4.43,4.59,6.72,,,,,,,,,,,,,,
1799999994647739222,2027-01-15T07:59:54.647739222Z,-0.98,-1.48,1.15,0.49,-0.49,2.62,3.44,2.95,2.46,2.13,5.57,4.75,4.26,5.41,,,,,,,,,,,,,,
1799999994658254469,2027-01-15T07:59:54.658254469Z,-1.31,-1.48,1.97,0.00,-1.31,3.11,3.93,3.11,1.97,3.11,4.59,3.77,3.44,4.75,,,,,,,,,,,,,,
1799999994668769717,2027-01-15T07:59:54.668769717Z,-2.30,-1.48,3.61,-0.66,0.33,0.82,2.30,3.11,4.75,4.59,4.26,2.30,3.28,6.07,,,,,,,,,,,,,,
1799999994679284964,2027-01-15T07:59:54.679284964Z,-0.66,-2.79,1.15,0.49,0.98,2.30,1.15,2.13,4.75,5.25,3.93,3.44,5.25,5.90,,,,,,,,,,,,,,
1799999994689800211,2027-01-15T07:59:54.689800211Z,-1.15,-2.79,0.49,0.33,1.15,1.15,1.15,2.79,3.77,4.59,3.93,4.75,5.74,6.07,,,,,,,,,,,,,,
1799999994700315458,2027-01-15T07:59:54.700315458Z,-1.48,-1.97,-0.49,0.16,0.98,-0.66,1.31,3.11,5.25,3.28,4.43,5.74,5.57,7.87,,,,,,,,,,,,,,
1799999994710830705,2027-01-15T07:59:54.710830705Z,-0.82,-2.13,0.66,0.16,-0.33,1.48,1.48,3.61,3.77,2.95,4.43,5.41,4.75,7.38,,,,,,,,,,,,,,
1799999994721345952,2027-01-15T07:59:54.721345952Z,-1.80,-1.80,1.48,-0.16,0.49,1.31,1.48,3.93,2.46,3.61,4.10,4.92,4.92,6.23,,,,,,,,,,,,,,
1799999994731861199,2027-01-15T07:59:54.731861199Z,-0.33,-0.33,1.80,-0.82,1.80,0.33,0.82,1.48,3.11,4.75,4.75,5.08,5.41,5.08,,,,,,,,,,,,,,
1799999994742376446,2027-01-15T07:59:54.742376446Z,-0.16,-0.98,0.66,0.16,0.16,-0.16,0.16,3.11,5.25,3.61,5.90,5.57,3.77,4.75,,,,,,,,,,,,,,
1799999994752891693,2027-01-15T07:59:54.752891693Z,-0.49,-1.31,0.33,0.33,0.16,-0.66,0.00,5.25,5.90,3.28,5.41,5.57,4.75,5.25,,,,,,,,,,,,,,
1799999994763406941,2027-01-15T07:59:54.763406941Z,-1.97,-0.16,-0.82,-0.66,0.16,1.31,1.31,5.57,3.61,3.28,3.93,6.23,6.39,5.74,,,,,,,,,,,,,,
1799999994773922188,2027-01-15T07:59:54.773922188Z,0.82,1.80,-0.49,0.33,-0.16,2.95,1.48,3.11,1.48,3.77,4.75,5.25,5.08,3.61,,,,,,,,,,,,,,
1799999994784437435,2027-01-15T07:59:54.784437435Z,-0.49,2.79,-0.16,1.31,0.98,1.48,1.31,1.97,1.48,3.11,3.77,4.92,5.25,3.28,,,,,,,,,,,,,,
1799999994794952682,2027-01-15T07:59:54.794952682Z,1.31,1.31,0.33,-0.49,2.95,-1.31,2.46,2.79,0.00,1.64,2.30,5.74,5.90,4.59,,,,,,,,,,,,,,
1799999994805467929,2027-01-15T07:59:54.805467929Z,0.00,0.98,0.82,-1.15,1.15,-0.16,2.62,2.13,1.48,2.30,3.11,4.92,5.25,5.57,,,,,,,,,,,,,,
1799999994815983176,2027-01-15T07:59:54.815983176Z,0.33,1.15,0.82,-0.16,-0.16,0.33,3.11,2.46,2.95,2.95,3.28,5.08,5.25,6.07,,,,,,,,,,,,,,
1799999994826498423,2027-01-15T07:59:54.826498423Z,-0.49,0.49,0.16,1.15,-0.66,0.49,4.59,2.62,1.97,3.44,2.62,5.74,5.57,6.56,,,,,,,,,,,,,,
1799999994837013670,2027-01-15T07:59:54.837013670Z,-1.97,0.82,-0.16,0.82,1.64,2.62,3.44,2.46,2.95,3.28,2.30,5.08,5.41,6.07,,,,,,,,,,,,,,
1799999994847528917,2027-01-15T07:59:54.847528917Z,-2.46,0.16,-0.82,0.49,3.11,1.80,2.30,2.62,4.59,3.28,3.11,6.07,6.23,6.56,,,,,,,,,,,,,,
1799999994858044165,2027-01-15T07:59:54.858044165Z,-2.30,-1.31,-2.13,-0.33,2.95,0.00,2.13,2.30,5.57,5.25,4.43,6.23,6.72,6.72,,,,,,,,,,,,,,
1799999994868559412,2027-01-15T07:59:54.868559412Z,-0.98,-1.97,0.00,-1.31,2.62,0.33,1.80,1.80,3.93,4.59,3.44,3.93,5.57,7.05,,,,,,,,,,,,,,
1799999994879074659,2027-01-15T07:59:54.879074659Z,-2.30,-2.30,0.16,-1.15,1.80,0.49,0.82,1.97,4.26,3.44,2.79,3.77,5.57,7.38,,,,,,,,,,,,,,
1799999994889589906,2027-01-15T07:59:54.889589906Z,0.49,-2.46,-2.13,1.48,-0.16,0.82,1.80,2.95,4.43,4.26,3.28,4.75,5.90,6.56,,,,,,,,,,,,,,
1799999994900105153,2027-01-15T07:59:54.900105153Z,-0.66,-1.97,-2.13,1.97,-0.33,-0.16,2.95,3.77,3.93,4.26,3.28,5.08,5.90,5.41,,,,,,,,,,,,,,
1799999994910620400,2027-01-15T07:59:54.910620400Z,0.16,0.00,-2.62,1.31,-0.49,-2.13,4.59,4.92,3.61,4.59,4.92,5.57,5.57,6.07,,,,,,,,,,,,,,
1799999994921135647,2027-01-15T07:59:54.921135647Z,-0.98,0.66,-0.98,-0.16,0.49,-0.33,1.64,1.97,1.80,3.44,5.25,4.75,4.75,4.92,,,,,,,,,,,,,,
1799999994931650894,2027-01-15T07:59:54.931650894Z,-1.15,0.16,0.33,0.33,0.33,0.33,0.66,1.64,1.97,1.97,4.92,4.43,3.61,4.43,,,,,,,,,,,,,,
1799999994942166141,2027-01-15T07:59:54.942166141Z,-2.95,-2.46,0.49,0.82,-0.16,-0.16,0.33,3.93,2.95,0.98,4.92,3.77,2.79,5.08,,,,,,,,,,,,,,
1799999994952681389,2027-01-15T07:59:54.952681389Z,-1.97,-0.98,-2.13,0.16,0.66,2.13,1.64,1.97,2.95,2.79,4.43,4.75,4.10,4.75,,,,,,,,,,,,,,
1799999994963196636,2027-01-15T07:59:54.963196636Z,-0.49,0.33,-2.95,0.16,0.16,3.28,1.64,1.31,3.28,3.11,3.77,5.57,3.93,4.92,,,,,,,,,,,,,,
1799999994973711883,2027-01-15T07:59:54.973711883Z,0.00,-1.31,-2.95,0.98,0.33,2.95,-0.16,-0.16,4.10,2.13,3.44,5.57,4.92,5.41,,,,,,,,,,,,,,
1799999994984227130,2027-01-15T07:59:54.984227130Z,-0.49,-1.15,-0.49,1.15,3.61,-0.33,0.98,1.80,2.46,2.79,3.77,4.10,6.72,5.41,,,,,,,,,,,,,,
1799999994994742377,2027-01-15T07:59:54.994742377Z,-0.16,-0.49,0.16,1.97,2.13,0.33,0.82,2.62,1.48,3.11,3.44,4.92,6.72,5.25,,,,,,,,,,,,,,
1799999995005257624,2027-01-15T07:59:55.005257624Z,-0.66,0.16,0.16,2.62,-0.98,1.64,-0.66,2.62,0.82,2.79,3.93,6.72,5.74,5.90,,,,,,,,,,,,,,
1799999995015772871,2027-01-15T07:59:55.015772871Z,-0.98,-0.16,0.00,1.48,0.16,1.97,1.15,2.46,2.62,2.46,4.75,6.39,8.85,5.57,,,,,,,,,,,,,,
1799999995026288118,2027-01-15T07:59:55.026288118Z,0.16,-0.16,0.66,0.98,0.16,2.62,1.31,2.46,2.46,2.79,4.43,6.39,9.67,4.59,,,,,,,,,,,,,,
1799999995036803365,2027-01-15T07:59:55.036803365Z,-0.33,-0.98,0.98,0.98,0.66,4.43,0.33,1.48,3.11,3.44,3.44,5.74,5.74,3.11,,,,,,,,,,,,,,
1799999995047318612,2027-01-15T07:59:55.047318612Z,-0.33,0.00,-0.33,1.80,1.97,2.13,0.33,0.98,3.77,2.95,2.95,3.61,4.59,4.92,,,,,,,,,,,,,,
1799999995057833860,2027-01-15T07:59:55.057833860Z,-2.46,-1.48,-0.16,1.97,2.13,0.33,0.33,2.13,3.77,2.79,3.77,2.79,5.08,6.23,,,,,,,,,,,,,,
1799999995068349107,2027-01-15T07:59:55.068349107Z,-0.82,-2.79,0.49,1.31,1.15,-0.98,0.49,3.44,4.59,3.44,5.41,3.28,5.25,6.39,,,,,,,,,,,,,,
1799999995078864354,2027-01-15T07:59:55.078864354Z,0.98,-0.49,0.33,0.33,1.80,1.64,1.15,2.95,3.11,4.92,5.41,4.10,5.74,6.89,,,,,,,,,,,,,,
1799999995089379601,2027-01-15T07:59:55.089379601Z,0.00,-0.98,1.15,1.15,2.13,2.79,1.64,3.11,3.28,4.26,4.59,4.10,5.57,6.72,,,,,,,,,,,,,,
1799999995099894848,2027-01-15T07:59:55.099894848Z,-0.82,-2.46,2.13,2.79,-0.16,2.79,2.79,4.75,3.93,3.11,3.61,4.92,5.08,5.57,,,,,,,,,,,,,,
1799999995110410095,2027-01-15T07:59:55.110410095Z,0.00,-0.16,2.79,2.13,0.00,3.44,2.95,2.79,2.13,4.26,3.61,4.59,4.43,4.92,,,,,,,,,,,,,,
1799999995120925342,2027-01-15T07:59:55.120925342Z,1.15,0.49,2.79,1.15,0.49,2.30,2.95,1.64,2.95,3.93,3.93,4.75,4.26,5.25,,,,,,,,,,,,,,
1799999995131440589,2027-01-15T07:59:55.131440589Z,0.00,-0.66,0.49,0.16,1.15,-0.33,3.28,3.11,2.79,2.95,4.26,4.10,4.75,6.23,,,,,,,,,,,,,,
1799999995141955836,2027-01-15T07:59:55.141955836Z,-0.49,-0.66,0.49,0.49,1.64,0.82,3.28,2.95,1.80,2.95,3.44,3.28,4.43,6.39,,,,,,,,,,,,,,
1799999995152471084,2027-01-15T07:59:55.152471084Z,-1.31,-2.13,1.64,0.33,1.64,3.11,2.95,1.48,3.28,2.79,2.30,4.43,4.26,6.07,,,,,,,,,,,,,,
1799999995162986331,2027-01-15T07:59:55.162986331Z,-1.80,-2.79,0.49,0.00,0.33,1.31,3.11,1.97,2.13,2.79,3.11,5.57,5.57,6.07,,,,,,,,,,,,,,
1799999995173501578,2027-01-15T07:59:55.173501578Z,1.15,-1.31,0.82,0.00,0.49,0.16,3.28,2.46,0.98,3.11,3.61,5.74,4.92,5.90,,,,,,,,,,,,,,
1799999995184016825,2027-01-15T07:59:55.184016825Z,0.82,0.00,0.82,-0.33,0.82,1.80,2.46,3.44,2.13,3.93,3.93,4.92,3.44,5.90,,,,,,,,,,,,,,
1799999995194532072,2027-01-15T07:59:55.194532072Z,-2.30,-0.98,-1.15,-0.66,2.30,3.44,2.95,2.13,5.08,5.08,5.41,3.28,4.26,6.39,,,,,,,,,,,,,,
1799999995205047319,2027-01-15T07:59:55.205047319Z,-1.48,-0.82,-0.98,0.66,2.79,3.28,1.97,1.80,6.07,5.41,4.59,3.44,4.10,5.90,,,,,,,,,,,,,,
1799999995215562566,2027-01-15T07:59:55.215562566Z,-3.28,-2.46,0.82,2.62,0.66,3.11,0.49,2.95,4.59,5.74,3.93,3.61,4.59,5.41,,,,,,,,,,,,,,
1799999995226077813,2027-01-15T07:59:55.226077813Z,1.48,-1.48,0.16,0.82,0.00,1.64,1.80,3.61,2.62,4.75,5.41,3.61,5.74,5.74,,,,,,,,,,,,,,
1799999995236593060,2027-01-15T07:59:55.236593060Z,-0.49,-0.66,-0.16,0.98,0.00,1.64,2.62,3.44,2.30,4.26,5.41,3.77,5.41,5.57,,,,,,,,,,,,,,
1799999995247108308,2027-01-15T07:59:55.247108308Z,-0.82,-0.16,0.66,0.00,-0.66,2.95,1.48,2.46,3.61,3.93,5.57,4.59,4.26,5.57,,,,,,,,,,,,,,
1799999995257623555,2027-01-15T07:59:55.257623555Z,-2.79,-1.48,1.15,-0.16,1.15,2.13,1.80,2.46,2.62,4.59,4.92,5.25,2.95,5.08,,,,,,,,,,,,,,
1799999995268138802,2027-01-15T07:59:55.268138802Z,-1.97,-0.98,0.66,0.98,0.82,1.15,1.48,2.79,3.28,4.92,4.26,4.59,2.46,6.56,,,,,,,,,,,,,,
1799999995278654049,2027-01-15T07:59:55.278654049Z,-0.33,0.33,-0.49,-0.16,-0.16,0.16,0.16,3.28,3.61,5.25,4.92,3.61,3.77,8.03,,,,,,,,,,,,,,
1799999995289169296,2027-01-15T07:59:55.289169296Z,0.00,0.49,-0.33,-0.49,-0.16,0.33,0.33,2.62,2.46,3.93,4.92,4.43,3.77,6.89,,,,,,,,,,,,,,
1799999995299684543,2027-01-15T07:59:55.299684543Z,0.49,-1.15,-0.82,0.33,0.16,0.82,0.98,2.13,2.62,3.28,4.43,4.26,3.61,6.23,,,,,,,,,,,,,,
1799999995310199790,2027-01-15T07:59:55.310199790Z,0.16,-1.15,-3.44,1.48,1.64,2.46,1.64,1.64,4.26,3.44,3.61,4.26,3.11,4.26,,,,,,,,,,,,,,
1799999995320715037,2027-01-15T07:59:55.320715037Z,-1.15,-0.49,-2.62,0.33,0.98,1.80,1.15,3.11,5.41,3.93,3.93,3.77,4.59,4.10,,,,,,,,,,,,,,
1799999995331230284,2027-01-15T07:59:55.331230284Z,0.16,-0.49,-0.98,-0.49,-0.16,0.49,0.98,3.11,4.26,3.44,4.10,3.77,5.74,4.26,,,,,,,,,,,,,,
1799999995341745532,2027-01-15T07:59:55.341745532Z,-2.79,-1.15,-1.80,-2.46,-0.82,-1.80,1.15,0.49,2.79,2.62,3.28,4.75,5.08,4.59,,,,,,,,,,,,,,
1799999995352260779,2027-01-15T07:59:55.352260779Z,-3.77,-0.16,-0.33,-0.66,1.15,0.49,0.82,1.64,4.10,4.10,4.26,2.95,6.07,6.39,,,,,,,,,,,,,,
1799999995362776026,2027-01-15T07:59:55.362776026Z,-3.93,-1.48,0.33,0.00,2.79,2.46,0.66,3.77,3.44,4.59,3.11,3.28,4.92,6.23,,,,,,,,,,,,,,
1799999995373291273,2027-01-15T07:59:55.373291273Z,0.16,-2.62,-1.31,-1.48,4.10,3.44,1.64,2.62,3.11,4.92,1.48,4.43,5.57,5.08,,,,,,,,,,,,,,
1799999995383806520,2027-01-15T07:59:55.383806520Z,0.66,-1.48,-1.97,-0.33,2.13,1.80,2.95,1.80,3.93,5.90,4.26,5.57,9.18,4.75,,,,,,,,,,,,,,
1799999995394321767,2027-01-15T07:59:55.394321767Z,1.15,-0.33,-1.64,0.16,0.16,0.66,2.95,1.80,3.44,6.07,5.57,6.23,7.87,4.43,,,,,,,,,,,,,,
1799999995404837014,2027-01-15T07:59:55.404837014Z,2.79,-0.49,-0.82,-0.98,-0.33,0.16,1.15,3.28,1.48,4.59,3.93,4.59,4.26,5.90,,,,,,,,,,,,,,
1799999995415352261,2027-01-15T07:59:55.415352261Z,-2.30,-0.16,-0.49,-0.16,1.15,-0.16,0.49,3.77,1.80,3.44,3.93,4.43,3.77,6.07,,,,,,,,,,,,,,
1799999995425867508,2027-01-15T07:59:55.425867508Z,-0.49,0.49,0.49,1.80,3.28,0.66,0.66,2.46,3.28,2.79,5.57,4.26,3.61,6.39,,,,,,,,,,,,,,
1799999995436382755,2027-01-15T07:59:55.436382755Z,-1.15,-0.66,-0.49,1.48,0.66,1.64,0.49,3.61,4.75,4.92,5.74,5.25,6.23,5.41,,,,,,,,,,,,,,
1799999995446898003,2027-01-15T07:59:55.446898003Z,0.00,-0.82,-0.82,1.31,-0.82,0.82,1.15,3.61,4.59,5.90,4.92,5.41,6.23,5.74,,,,,,,,,,,,,,
1799999995457413250,2027-01-15T07:59:55.457413250Z,-0.82,0.16,-1.80,0.66,-0.49,0.16,2.30,3.28,3.28,5.57,3.28,4.43,6.23,5.74,,,,,,,,,,,,,,
1799999995467928497,2027-01-15T07:59:55.467928497Z,1.64,0.82,-0.16,1.48,0.82,2.30,1.80,1.97,2.95,3.61,3.61,4.43,8.69,6.07,,,,,,,,,,,,,,
1799999995478443744,2027-01-15T07:59:55.478443744Z,1.15,0.00,0.00,1.48,0.98,2.30,1.97,2.13,3.11,3.93,3.61,5.41,9.34,5.57,,,,,,,,,,,,,,
1799999995488958991,2027-01-15T07:59:55.488958991Z,-0.16,-0.98,-0.33,0.33,0.00,0.66,2.13,2.13,2.79,4.92,3.11,6.39,7.54,5.25,,,,,,,,,,,,,,
1799999995499474238,2027-01-15T07:59:55.499474238Z,-1.15,-0.16,-0.98,-0.33,2.30,3.11,3.11,1.97,2.95,3.11,3.44,4.26,4.43,5.74,,,,,,,,,,,,,,
1799999995509989485,2027-01-15T07:59:55.509989485Z,0.49,-0.16,-0.66,0.33,3.77,4.43,2.13,1.64,3.44,1.97,2.95,3.93,4.43,4.92,,,,,,,,,,,,,,
1799999995520504732,2027-01-15T07:59:55.520504732Z,0.82,-0.82,-1.31,0.82,2.46,2.46,1.48,1.48,4.26,2.46,2.13,4.26,7.87,4.10,,,,,,,,,,,,,,
1799999995531019979,2027-01-15T07:59:55.531019979Z,1.15,0.00,0.49,0.16,2.13,2.30,3.44,3.28,5.08,3.61,4.10,5.90,5.74,5.57,,,,,,,,,,,,,,
1799999995541535227,2027-01-15T07:59:55.541535227Z,-2.79,-0.49,1.15,-0.16,2.13,1.64,3.44,3.11,4.43,2.95,5.08,5.90,4.75,6.07,,,,,,,,,,,,,,
1799999995552050474,2027-01-15T07:59:55.552050474Z,0.16,-1.15,0.33,0.98,2.79,0.66,4.43,1.64,2.95,2.46,5.90,4.92,4.59,6.23,,,,,,,,,,,,,,
1799999995562565721,2027-01-15T07:59:55.562565721Z,-0.33,-0.33,1.64,0.98,2.79,1.48,3.93,3.61,2.30,3.93,6.07,5.41,4.10,6.72,,,,,,,,,,,,,,
1799999995573080968,2027-01-15T07:59:55.573080968Z,1.31,1.31,2.13,2.13,1.80,1.80,3.11,3.44,2.13,3.77,5.74,5.90,6.07,6.72,,,,,,,,,,,,,,
1799999995583596215,2027-01-15T07:59:55.583596215Z,1.97,1.80,1.64,4.10,0.98,1.80,2.79,2.62,1.97,2.62,4.59,5.90,9.51,5.57,,,,,,,,,,,,,,
1799999995594111462,2027-01-15T07:59:55.594111462Z,-3.44,-1.48,1.48,2.13,0.82,1.80,0.98,3.28,3.11,2.46,3.77,4.92,4.75,5.41,,,,,,,,,,,,,,
1799999995604626709,2027-01-15T07:59:55.604626709Z,-1.15,-1.48,1.64,0.98,-0.66,0.49,0.98,2.95,3.28,2.30,4.59,3.93,1.31,5.74,,,,,,,,,,,,,,
1799999995615141956,2027-01-15T07:59:55.615141956Z,-1.31,-1.15,1.48,1.15,-2.46,-1.15,1.80,1.48,2.62,2.46,6.07,3.93,3.61,4.43,,,,,,,,,,,,,,
1799999995625657203,2027-01-15T07:59:55.625657203Z,-1.31,-0.82,-0.16,-0.33,0.33,0.49,2.95,2.62,3.28,3.44,5.41,5.90,4.75,4.59,,,,,,,,,,,,,,
1799999995636172451,2027-01-15T07:59:55.636172451Z,1.31,-0.82,-0.33,-0.33,0.98,0.16,3.77,1.97,2.13,4.75,4.75,5.74,4.43,5.57,,,,,,,,,,,,,,
1799999995646687698,2027-01-15T07:59:55.646687698Z,1.31,-0.33,-0.16,-0.16,0.49,-0.33,2.62,1.48,-0.16,6.39,4.92,4.59,4.26,6.56,,,,,,,,,,,,,,
1799999995657202945,2027-01-15T07:59:55.657202945Z,0.66,-0.82,-0.16,-0.33,0.16,0.49,1.97,2.46,1.64,6.23,5.25,4.75,4.10,4.43,,,,,,,,,,,,,,
1799999995667718192,2027-01-15T07:59:55.667718192Z,0.16,-1.31,1.97,0.33,-0.33,2.95,0.98,3.28,4.43,5.08,4.75,4.75,4.43,1.97,,,,,,,,,,,,,,
1799999995678233439,2027-01-15T07:59:55.678233439Z,-0.33,0.49,0.16,0.66,0.16,2.79,1.97,3.28,2.95,3.11,3.93,5.25,4.43,4.75,,,,,,,,,,,,,,
1799999995688748686,2027-01-15T07:59:55.688748686Z,0.49,0.16,-1.15,0.66,0.66,1.80,1.31,3.61,2.62,2.79,4.59,5.08,3.61,6.07,,,,,,,,,,,,,,
1799999995699263933,2027-01-15T07:59:55.699263933Z,-2.62,-2.13,0.82,-1.48,1.80,0.82,0.66,3.93,4.10,3.28,4.75,4.43,2.79,5.08,,,,,,,,,,,,,,
1799999995709779180,2027-01-15T07:59:55.709779180Z,1.15,0.82,1.80,0.82,0.49,0.82,0.49,2.30,3.28,3.61,2.62,4.43,4.43,7.05,,,,,,,,,,,,,,
1799999995720294427,2027-01-15T07:59:55.720294427Z,-1.48,1.31,0.49,1.31,-0.49,0.66,0.82,2.95,3.28,4.26,2.30,4.75,5.25,5.74,,,,,,,,,,,,,,
1799999995730809675,2027-01-15T07:59:55.730809675Z,-0.82,-2.46,-1.48,2.62,0.33,0.00,2.95,3.77,3.61,5.57,3.28,4.59,3.93,3.93,,,,,,,,,,,,,,
1799999995741324922,2027-01-15T07:59:55.741324922Z,0.66,-1.48,-1.15,0.82,0.33,1.48,2.13,0.98,2.79,5.90,3.93,3.61,3.77,6.89,,,,,,,,,,,,,,
1799999995751840169,2027-01-15T07:59:55.751840169Z,0.98,0.82,-0.33,0.33,0.00,2.30,2.13,0.16,2.13,5.57,4.10,4.10,4.10,6.23,,,,,,,,,,,,,,
1799999995762355416,2027-01-15T07:59:55.762355416Z,-2.95,0.82,-1.31,-1.64,-0.33,3.77,2.95,0.00,3.93,3.28,5.08,5.74,3.61,4.59,,,,,,,,,,,,,,
1799999995772870663,2027-01-15T07:59:55.772870663Z,-1.15,-0.33,-0.16,-1.15,1.48,2.95,0.98,0.82,4.10,3.11,4.92,5.08,4.43,4.59,,,,,,,,,,,,,,
1799999995783385910,2027-01-15T07:59:55.783385910Z,-1.64,-1.64,0.66,-0.98,1.31,3.44,0.66,1.64,4.10,3.77,4.92,4.92,3.93,4.43,,,,,,,,,,,,,,
1799999995793901157,2027-01-15T07:59:55.793901157Z,1.15,-2.13,-0.33,0.66,0.98,4.59,1.48,2.46,4.10,4.10,4.59,5.74,4.59,5.74,,,,,,,,,,,,,,
1799999995804416404,2027-01-15T07:59:55.804416404Z,1.97,-1.48,0.66,-1.15,2.30,1.64,0.66,3.61,2.79,4.10,4.75,4.75,7.05,7.21,,,,,,,,,,,,,,
1799999995814931651,2027-01-15T07:59:55.814931651Z,0.66,-1.31,-0.16,-1.15,1.48,1.31,0.66,4.43,2.30,4.43,4.26,3.61,6.72,6.89,,,,,,,,,,,,,,
1799999995825446899,2027-01-15T07:59:55.825446899Z,0.82,-1.31,-2.13,-1.31,-0.98,2.79,1.15,5.25,3.28,4.10,4.26,3.11,5.25,6.07,,,,,,,,,,,,,,
1799999995835962146,2027-01-15T07:59:55.835962146Z,-2.13,-1.64,-1.97,-0.82,0.82,0.82,0.33,3.44,4.26,2.13,3.11,3.77,8.52,5.74,,,,,,,,,,,,,,
1799999995846477393,2027-01-15T07:59:55.846477393Z,-1.31,-1.80,-1.64,-0.16,2.46,0.00,0.82,4.75,3.77,1.31,4.26,4.26,9.02,5.25,,,,,,,,,,,,,,
1799999995856992640,2027-01-15T07:59:55.856992640Z,-2.62,0.33,0.00,-0.49,2.13,-0.16,1.64,6.07,2.46,2.13,5.74,3.93,5.25,5.74,,,,,,,,,,,,,,
1799999995867507887,2027-01-15T07:59:55.867507887Z,0.00,1.15,-1.15,0.49,2.46,0.66,1.48,4.75,2.46,1.64,4.26,4.75,4.75,8.85,,,,,,,,,,,,,,
1799999995878023134,2027-01-15T07:59:55.878023134Z,-0.49,0.66,-1.97,0.82,2.13,0.98,1.97,4.75,2.95,1.80,3.44,5.41,5.08,8.52,,,,,,,,,,,,,,
1799999995888538381,2027-01-15T07:59:55.888538381Z,1.48,1.48,-2.13,0.82,1.15,0.49,0.82,4.10,3.11,2.95,2.62,5.25,4.10,6.72,,,,,,,,,,,,,,
1799999995899053628,2027-01-15T07:59:55.899053628Z,-0.82,1.31,0.00,1.15,0.82,1.48,1.15,2.79,3.44,2.30,4.10,5.25,7.87,5.74,,,,,,,,,,,,,,
1799999995909568875,2027-01-15T07:59:55.909568875Z,0.82,0.98,0.16,0.16,0.82,2.13,1.15,1.80,3.61,1.64,4.59,5.41,9.02,5.41,,,,,,,,,,,,,,
1799999995920084122,2027-01-15T07:59:55.920084122Z,-0.49,-1.15,1.15,-1.15,1.64,1.80,1.48,2.30,3.93,2.46,5.25,5.08,5.08,6.39,,,,,,,,,,,,,,
1799999995930599370,2027-01-15T07:59:55.930599370Z,0.66,-1.48,0.66,-0.33,0.98,1.64,1.97,2.46,4.26,3.44,6.07,4.92,4.26,6.56,,,,,,,,,,,,,,
1799999995941114617,2027-01-15T07:59:55.941114617Z,0.16,-1.15,-0.16,0.49,0.16,2.30,2.79,1.97,5.74,3.93,4.92,4.75,4.59,6.39,,,,,,,,,,,,,,
1799999995951629864,2027-01-15T07:59:55.951629864Z,-1.97,0.16,1.64,-0.49,0.33,0.49,1.64,2.95,3.77,2.95,2.79,4.59,4.43,4.26,,,,,,,,,,,,,,
1799999995962145111,2027-01-15T07:59:55.962145111Z,-2.13,0.16,1.97,-1.31,0.33,0.82,1.64,2.79,3.28,2.79,2.46,4.43,4.59,2.95,,,,,,,,,,,,,,
1799999995972660358,2027-01-15T07:59:55.972660358Z,-1.97,1.31,2.13,-1.80,0.98,0.49,2.62,2.13,2.95,5.08,2.13,4.59,5.57,3.77,,,,,,,,,,,,,,
1799999995983175605,2027-01-15T07:59:55.983175605Z,-1.97,0.16,1.48,0.00,0.49,0.00,2.13,2.30,4.26,4.10,3.61,3.93,6.56,6.72,,,,,,,,,,,,,,
1799999995993690852,2027-01-15T07:59:55.993690852Z,-0.66,0.33,0.82,1.15,0.66,0.49,1.80,2.95,3.61,2.79,3.28,3.44,5.41,7.21,,,,,,,,,,,,,,
1799999996004206099,2027-01-15T07:59:56.004206099Z,-0.49,0.66,1.15,0.82,1.64,1.64,2.46,5.25,2.46,2.46,1.97,3.44,3.11,5.90,,,,,,,,,,,,,,
1799999996014721346,2027-01-15T07:59:56.014721346Z,-0.66,-1.64,0.66,1.48,1.80,3.61,2.46,3.77,3.28,2.13,2.95,4.10,4.43,4.92,,,,,,,,,,,,,,
1799999996025236594,2027-01-15T07:59:56.025236594Z,-0.16,-2.30,0.66,1.48,1.80,3.11,1.97,2.46,3.93,2.30,3.44,4.26,4.75,5.74,,,,,,,,,,,,,,
1799999996035751841,2027-01-15T07:59:56.035751841Z,-0.16,-2.79,-0.49,1.31,0.33,0.98,1.64,0.66,4.75,3.77,3.11,3.77,5.57,5.41,,,,,,,,,,,,,,
1799999996046267088,2027-01-15T07:59:56.046267088Z,0.16,-1.31,-0.33,0.33,0.00,0.82,1.15,2.13,4.10,4.92,3.77,5.08,6.39,5.90,,,,,,,,,,,,,,
1799999996056782335,2027-01-15T07:59:56.056782335Z,0.82,-0.98,-0.16,-0.16,0.16,1.15,0.98,2.46,3.77,4.92,3.61,5.74,5.90,5.57,,,,,,,,,,,,,,
1799999996067297582,2027-01-15T07:59:56.067297582Z,0.00,-1.97,-1.48,0.16,2.13,1.48,1.64,0.98,2.95,5.41,3.44,5.57,4.75,4.43,,,,,,,,,,,,,,
1799999996077812829,2027-01-15T07:59:56.077812829Z,-0.98,-1.48,-1.15,1.48,1.31,0.66,1.97,1.80,3.77,4.75,4.26,5.41,3.61,4.43,,,,,,,,,,,,,,
1799999996088328076,2027-01-15T07:59:56.088328076Z,0.00,-1.48,-0.66,2.13,0.49,0.33,2.46,2.62,3.11,4.43,3.93,5.41,2.62,4.59,,,,,,,,,,,,,,
1799999996098843323,2027-01-15T07:59:56.098843323Z,-0.33,-3.11,-1.64,1.31,-1.97,1.80,1.80,3.77,1.97,5.25,3.28,4.59,3.44,4.10,,,,,,,,,,,,,,
1799999996109358570,2027-01-15T07:59:56.109358570Z,-1.48,-1.31,-0.98,1.15,-1.64,0.82,0.16,2.46,2.46,3.61,4.10,4.75,4.10,4.75,,,,,,,,,,,,,,
1799999996119873818,2027-01-15T07:59:56.119873818Z,0.33,-0.66,-0.49,0.49,-1.31,0.49,1.15,1.80,2.95,3.44,4.26,3.28,4.59,5.25,,,,,,,,,,,,,,
1799999996130389065,2027-01-15T07:59:56.130389065Z,-0.66,-0.16,-0.98,-1.15,-1.31,-0.66,2.95,0.66,2.46,5.74,3.28,2.95,5.74,5.57,,,,,,,,,,,,,,
1799999996140904312,2027-01-15T07:59:56.140904312Z,0.00,-1.97,-1.97,0.00,-1.31,0.82,1.97,2.30,4.10,3.77,4.10,6.23,4.43,5.25,,,,,,,,,,,,,,
1799999996151419559,2027-01-15T07:59:56.151419559Z,-0.49,-1.97,-2.13,0.49,-0.49,1.15,2.13,2.46,4.75,3.28,4.59,5.41,2.79,5.25,,,,,,,,,,,,,,
1799999996161934806,2027-01-15T07:59:56.161934806Z,-0.66,-1.15,-1.64,1.15,0.16,0.66,3.93,1.64,4.43,5.57,4.10,4.59,3.44,7.05,,,,,,,,,,,,,,
1799999996172450053,2027-01-15T07:59:56.172450053Z,0.82,-0.33,0.00,0.98,0.33,1.15,3.11,1.80,3.11,4.26,3.61,5.57,3.61,5.90,,,,,,,,,,,,,,
1799999996182965300,2027-01-15T07:59:56.182965300Z,0.66,-1.15,1.97,0.49,0.49,2.95,1.80,3.28,3.28,2.30,4.26,4.26,3.28,3.44,,,,,,,,,,,,,,
1799999996193480547,2027-01-15T07:59:56.193480547Z,-0.16,-2.62,1.15,-0.16,0.49,4.26,3.11,2.13,3.93,4.43,3.77,5.25,4.26,5.25,,,,,,,,,,,,,,
1799999996203995794,2027-01-15T07:59:56.203995794Z,0.49,-2.62,-0.66,-0.66,0.82,3.11,3.93,1.31,4.26,2.95,3.93,4.75,4.43,5.41,,,,,,,,,,,,,,
1799999996214511042,2027-01-15T07:59:56.214511042Z,-0.49,-0.66,-2.95,-0.16,0.33,1.31,5.08,0.66,4.10,0.49,4.43,3.11,5.41,4.43,,,,,,,,,,,,,,
1799999996225026289,2027-01-15T07:59:56.225026289Z,-0.82,0.82,-2.46,0.82,0.33,2.46,3.93,2.46,3.44,2.95,4.75,3.61,7.21,5.08,,,,,,,,,,,,,,
1799999996235541536,2027-01-15T07:59:56.235541536Z,-0.49,1.80,-1.97,0.66,0.66,1.15,3.44,3.93,2.95,4.43,3.93,3.93,6.39,5.90,,,,,,,,,,,,,,
1799999996246056783,2027-01-15T07:59:56.246056783Z,-0.66,2.95,-1.97,-0.16,0.49,0.82,2.95,3.93,2.30,3.77,3.44,4.26,4.26,6.89,,,,,,,,,,,,,,
1799999996256572030,2027-01-15T07:59:56.256572030Z,-0.66,1.31,-1.15,0.00,1.48,3.61,3.61,4.10,2.13,3.61,4.75,5.57,5.57,6.72,,,,,,,,,,,,,,
1799999996267087277,2027-01-15T07:59:56.267087277Z,0.33,0.66,0.33,0.82,1.48,2.79,3.77,3.61,1.64,3.77,4.92,5.41,5.57,6.72,,,,,,,,,,,,,,
1799999996277602524,2027-01-15T07:59:56.277602524Z,-0.16,-0.82,0.82,1.48,0.33,0.16,2.79,1.97,1.97,4.92,4.43,2.79,6.07,4.92,,,,,,,,,,,,,,
1799999996288117771,2027-01-15T07:59:56.288117771Z,-0.33,-1.15,-0.33,1.31,-0.33,0.33,1.64,2.79,2.30,7.05,5.57,3.93,5.74,4.26,,,,,,,,,,,,,,
1799999996298633018,2027-01-15T07:59:56.298633018Z,0.00,-1.15,-0.49,1.31,-0.33,0.49,1.97,3.61,2.13,5.57,5.74,5.25,5.57,4.59,,,,,,,,,,,,,,
1799999996309148265,2027-01-15T07:59:56.309148265Z,-0.82,-2.30,0.00,1.48,-0.16,1.31,2.62,3.93,2.13,3.11,4.59,3.61,6.23,5.74,,,,,,,,,,,,,,
1799999996319663513,2027-01-15T07:59:56.319663513Z,-1.97,-1.97,2.62,0.82,0.66,0.49,3.11,5.25,1.64,3.77,5.25,4.92,5.41,6.07,,,,,,,,,,,,,,
1799999996330178760,2027-01-15T07:59:56.330178760Z,0.98,-0.82,2.79,0.49,0.33,0.49,0.66,5.08,1.48,3.77,5.41,6.07,4.59,6.72,,,,,,,,,,,,,,
1799999996340694007,2027-01-15T07:59:56.340694007Z,0.98,-0.16,0.33,0.33,0.82,2.46,-1.97,4.59,3.11,3.77,4.43,6.39,3.44,6.89,,,,,,,,,,,,,,
1799999996351209254,2027-01-15T07:59:56.351209254Z,-2.13,-0.98,-0.66,0.33,1.97,2.30,0.00,3.44,3.11,3.11,5.25,4.92,3.11,6.56,,,,,,,,,,,,,,
1799999996361724501,2027-01-15T07:59:56.361724501Z,-2.13,-0.66,-0.33,-0.33,1.97,2.79,1.15,2.79,2.46,3.44,5.57,4.75,3.93,5.90,,,,,,,,,,,,,,
1799999996372239748,2027-01-15T07:59:56.372239748Z,-0.16,0.66,1.31,0.00,1.48,3.77,1.48,3.11,2.30,5.90,2.95,5.74,5.08,4.10,,,,,,,,,,,,,,
1799999996382754995,2027-01-15T07:59:56.382754995Z,0.33,-0.16,1.15,-1.31,1.64,1.97,1.80,4.59,2.30,4.75,2.79,4.75,4.59,4.92,,,,,,,,,,,,,,
1799999996393270242,2027-01-15T07:59:56.393270242Z,0.00,1.31,0.49,-1.80,1.64,1.15,1.80,3.93,2.46,3.44,3.77,4.43,4.92,6.23,,,,,,,,,,,,,,
1799999996403785489,2027-01-15T07:59:56.403785489Z,0.66,2.62,1.48,-1.15,0.49,-1.15,2.46,3.44,3.28,4.26,4.26,4.26,6.72,7.70,,,,,,,,,,,,,,
1799999996414300737,2027-01-15T07:59:56.414300737Z,-0.98,-0.49,1.48,-0.66,0.66,1.15,3.28,3.93,1.80,2.95,4.92,3.44,5.74,7.05,,,,,,,,,,,,,,
1799999996424815984,2027-01-15T07:59:56.424815984Z,-0.66,-1.97,0.33,-0.66,0.82,3.11,0.98,3.11,3.44,1.80,4.43,3.28,5.74,6.07,,,,,,,,,,,,,,
1799999996435331231,2027-01-15T07:59:56.435331231Z,-2.62,-1.15,-0.66,1.80,2.95,3.11,1.48,0.98,3.11,1.97,3.77,4.43,5.08,5.41,,,,,,,,,,,,,,
1799999996445846478,2027-01-15T07:59:56.445846478Z,-0.82,0.33,-0.49,1.64,3.61,3.11,1.80,1.48,2.30,2.79,5.08,4.75,4.43,5.41,,,,,,,,,,,,,,
1799999996456361725,2027-01-15T07:59:56.456361725Z,-1.15,2.13,-1.15,1.48,2.79,1.31,-1.15,3.11,3.44,3.61,6.89,4.43,7.21,4.75,,,,,,,,,,,,,,
1799999996466876972,2027-01-15T07:59:56.466876972Z,-2.79,0.82,-0.98,1.31,0.49,0.16,-0.66,3.44,4.26,4.59,5.57,4.92,7.05,5.74,,,,,,,,,,,,,,
1799999996477392219,2027-01-15T07:59:56.477392219Z,-1.15,-0.49,-0.82,0.82,1.48,0.16,0.82,3.11,3.77,5.25,4.59,4.43,6.23,6.39,,,,,,,,,,,,,,
1799999996487907466,2027-01-15T07:59:56.487907466Z,-1.64,-0.49,-0.82,0.98,1.64,-0.49,-0.16,2.13,2.62,6.07,5.25,3.61,7.38,7.70,,,,,,,,,,,,,,
1799999996498422713,2027-01-15T07:59:56.498422713Z,-1.48,-2.79,1.31,-0.98,-0.98,0.33,1.15,1.64,1.80,4.75,4.43,4.43,6.39,6.23,,,,,,,,,,,,,,
1799999996508937961,2027-01-15T07:59:56.508937961Z,1.80,-1.64,2.13,-0.16,0.16,1.97,2.46,1.64,3.44,4.10,5.57,4.26,5.90,5.57,,,,,,,,,,,,,,
1799999996519453208,2027-01-15T07:59:56.519453208Z,1.15,0.16,0.82,2.62,2.62,1.15,2.79,1.97,6.56,3.11,6.56,5.41,6.56,6.07,,,,,,,,,,,,,,
1799999996529968455,2027-01-15T07:59:56.529968455Z,-2.79,0.33,0.98,1.48,2.30,0.33,1.97,2.95,5.41,3.61,3.77,5.41,5.57,5.74,,,,,,,,,,,,,,
1799999996540483702,2027-01-15T07:59:56.540483702Z,-0.16,0.66,0.49,0.16,2.95,-0.98,1.31,2.95,4.10,3.77,2.95,4.75,5.08,5.08,,,,,,,,,,,,,,
1799999996550998949,2027-01-15T07:59:56.550998949Z,-0.98,0.16,0.82,-0.82,4.26,-2.46,2.13,2.13,4.26,3.11,3.44,4.43,3.93,4.26,,,,,,,,,,,,,,
1799999996561514196,2027-01-15T07:59:56.561514196Z,-1.48,-1.64,2.79,-0.66,2.30,0.66,2.62,2.46,4.10,3.44,2.30,5.08,3.93,3.93,,,,,,,,,,,,,,
1799999996572029443,2027-01-15T07:59:56.572029443Z,-2.13,-2.13,1.15,-0.49,1.80,1.80,2.46,3.28,3.11,3.77,1.64,5.41,5.08,3.77,,,,,,,,,,,,,,
1799999996582544690,2027-01-15T07:59:56.582544690Z,-2.13,-2.95,-2.95,0.00,3.11,-0.16,2.95,4.59,3.44,4.26,1.64,5.25,6.23,4.75,,,,,,,,,,,,,,
1799999996593059937,2027-01-15T07:59:56.593059937Z,-3.28,-2.30,-1.64,0.33,2.30,0.33,2.46,3.77,6.72,4.43,3.11,4.75,4.26,3.93,,,,,,,,,,,,,,
1799999996603575185,2027-01-15T07:59:56.603575185Z,-2.46,-4.10,0.00,0.33,1.64,0.16,1.97,4.59,6.23,4.10,3.61,4.59,3.93,3.93,,,,,,,,,,,,,,
1799999996614090432,2027-01-15T07:59:56.614090432Z,-1.97,-5.57,-0.82,-0.16,0.66,-2.30,2.46,6.07,3.11,4.43,3.44,5.08,6.72,6.89,,,,,,,,,,,,,,
1799999996624605679,2027-01-15T07:59:56.624605679Z,-1.31,-3.61,-0.98,-0.98,1.97,-1.15,1.80,3.61,2.30,3.61,2.46,4.92,6.72,8.03,,,,,,,,,,,,,,
1799999996635120926,2027-01-15T07:59:56.635120926Z,-1.64,-2.95,-0.82,0.00,2.13,0.33,1.64,2.46,3.44,3.11,3.11,4.75,6.39,6.89,,,,,,,,,,,,,,
1799999996645636173,2027-01-15T07:59:56.645636173Z,-2.79,-1.80,0.49,1.48,1.97,1.97,2.79,2.30,4.26,3.11,4.10,5.25,5.90,4.75,,,,,,,,,,,,,,
1799999996656151420,2027-01-15T07:59:56.656151420Z,-0.16,0.66,1.64,1.15,1.64,0.82,1.48,3.44,1.31,3.28,3.44,4.26,5.57,4.92,,,,,,,,,,,,,,
1799999996666666667,2027-01-15T07:59:56.666666667Z,-0.16,1.15,1.64,1.15,1.80,0.82,1.64,3.11,0.49,4.10,4.43,4.10,5.08,5.41,,,,,,,,,,,,,,
1799999996677181914,2027-01-15T07:59:56.677181914Z,0.82,0.49,2.62,-0.33,1.80,-0.82,3.44,1.97,2.30,5.25,5.41,4.10,4.59,4.75,,,,,,,,,,,,,,
1799999996687697161,2027-01-15T07:59:56.687697161Z,2.95,0.98,2.95,-0.33,1.97,-1.31,2.62,1.97,2.30,4.10,4.92,4.59,4.75,5.08,,,,,,,,,,,,,,
1799999996698212408,2027-01-15T07:59:56.698212408Z,1.64,0.00,1.15,0.82,2.46,0.49,0.49,2.95,3.11,2.30,3.77,4.59,8.36,6.56,,,,,,,,,,,,,,
1799999996708727656,2027-01-15T07:59:56.708727656Z,2.62,1.80,-2.30,1.80,1.80,2.46,0.98,2.62,2.13,3.11,5.41,4.92,6.39,5.90,,,,,,,,,,,,,,
1799999996719242903,2027-01-15T07:59:56.719242903Z,1.15,0.98,-3.11,1.15,2.13,3.11,1.15,2.46,1.80,3.44,4.59,5.08,4.10,5.57,,,,,,,,,,,,,,
1799999996729758150,2027-01-15T07:59:56.729758150Z,0.66,-3.28,-2.62,-0.82,2.30,2.62,0.82,1.31,3.28,3.61,1.97,4.10,5.90,7.54,,,,,,,,,,,,,,
1799999996740273397,2027-01-15T07:59:56.740273397Z,-0.49,-2.13,-3.77,-1.31,1.31,3.44,2.46,2.13,3.77,2.95,3.28,4.10,5.90,7.38,,,,,,,,,,,,,,
1799999996750788644,2027-01-15T07:59:56.750788644Z,-0.66,-0.66,-2.62,-1.80,-0.16,2.62,3.77,2.30,3.61,2.95,4.59,4.59,5.41,6.07,,,,,,,,,,,,,,
1799999996761303891,2027-01-15T07:59:56.761303891Z,-3.28,-1.97,-0.82,-2.79,-1.64,1.64,4.10,2.46,5.25,3.11,3.44,4.59,4.43,4.10,,,,,,,,,,,,,,
1799999996771819138,2027-01-15T07:59:56.771819138Z,-1.64,-0.49,-0.16,-0.33,-1.15,2.79,1.80,2.62,6.23,3.77,3.61,4.75,6.56,5.08,,,,,,,,,,,,,,
1799999996782334385,2027-01-15T07:59:56.782334385Z,-0.33,-0.49,-0.16,-0.66,-1.64,2.95,0.98,1.80,5.25,3.28,4.10,4.92,7.38,5.74,,,,,,,,,,,,,,
1799999996792849632,2027-01-15T07:59:56.792849632Z,-1.31,-0.49,-0.98,-1.97,-1.31,3.44,2.30,0.33,3.28,3.61,4.10,3.77,6.89,7.05,,,,,,,,,,,,,,
1799999996803364880,2027-01-15T07:59:56.803364880Z,-0.66,2.30,0.00,0.98,-0.16,1.80,3.44,2.46,3.93,2.95,4.43,4.26,5.08,7.05,,,,,,,,,,,,,,
1799999996813880127,2027-01-15T07:59:56.813880127Z,2.95,2.62,-0.49,0.98,-0.33,0.66,2.13,3.61,3.44,2.79,4.10,5.25,5.08,7.21,,,,,,,,,,,,,,
1799999996824395374,2027-01-15T07:59:56.824395374Z,1.64,3.44,-1.48,0.66,0.66,1.31,-0.49,2.62,2.79,2.79,4.26,6.39,3.61,5.57,,,,,,,,,,,,,,
1799999996834910621,2027-01-15T07:59:56.834910621Z,0.66,0.82,-0.49,1.97,2.13,2.46,1.31,3.28,2.95,1.64,5.74,6.23,4.59,3.77,,,,,,,,,,,,,,
1799999996845425868,2027-01-15T07:59:56.845425868Z,2.62,0.00,-0.98,1.48,2.13,1.64,2.46,3.28,2.79,0.66,4.59,5.90,5.57,4.26,,,,,,,,,,,,,,
1799999996855941115,2027-01-15T07:59:56.855941115Z,5.25,2.46,-1.15,0.00,1.15,0.33,2.62,1.48,3.93,3.11,2.79,4.92,4.26,5.74,,,,,,,,,,,,,,
1799999996866456362,2027-01-15T07:59:56.866456362Z,2.46,3.44,0.66,1.31,0.66,3.11,2.79,0.33,4.10,3.93,4.75,5.57,4.10,5.74,,,,,,,,,,,,,,
1799999996876971609,2027-01-15T07:59:56.876971609Z,2.62,2.79,0.49,1.64,1.48,3.77,2.62,0.49,3.93,3.28,6.07,5.90,5.25,5.90,,,,,,,,,,,,,,
1799999996887486856,2027-01-15T07:59:56.887486856Z,-0.98,3.44,-0.98,2.13,2.95,1.15,2.13,0.82,4.59,3.11,5.90,5.90,7.54,5.57,,,,,,,,,,,,,,
1799999996898002104,2027-01-15T07:59:56.898002104Z,-1.15,2.62,-3.11,2.13,0.49,0.82,2.95,1.97,4.10,2.95,4.10,5.08,4.43,4.92,,,,,,,,,,,,,,
1799999996908517351,2027-01-15T07:59:56.908517351Z,0.82,2.13,-3.28,2.30,-0.98,0.16,2.79,1.48,3.28,2.95,3.61,5.41,4.26,6.23,,,,,,,,,,,,,,
1799999996919032598,2027-01-15T07:59:56.919032598Z,-0.49,0.00,-0.98,1.31,-0.49,1.64,1.48,-0.16,3.44,2.95,3.93,4.59,3.93,7.38,,,,,,,,,,,,,,
1799999996929547845,2027-01-15T07:59:56.929547845Z,-0.16,0.66,0.98,0.98,-0.49,2.46,0.98,-0.82,3.28,4.10,3.77,3.77,5.08,5.57,,,,,,,,,,,,,,
1799999996940063092,2027-01-15T07:59:56.940063092Z,-1.64,-0.16,2.13,0.16,0.66,4.10,0.82,0.16,2.62,4.26,3.28,5.08,7.87,2.30,,,,,,,,,,,,,,
1799999996950578339,2027-01-15T07:59:56.950578339Z,-0.33,0.00,0.82,0.82,0.98,1.48,0.49,1.97,2.13,3.28,3.11,4.26,7.21,4.26,,,,,,,,,,,,,,
1799999996961093586,2027-01-15T07:59:56.961093586Z,1.48,-0.33,0.16,1.31,0.49,1.64,0.98,3.61,1.97,3.44,3.28,3.77,6.89,5.08,,,,,,,,,,,,,,
1799999996971608833,2027-01-15T07:59:56.971608833Z,-0.66,-1.31,0.00,0.33,0.82,1.97,1.80,4.59,2.46,4.92,4.26,5.08,5.90,4.75,,,,,,,,,,,,,,
1799999996982124080,2027-01-15T07:59:56.982124080Z,-0.16,0.66,1.48,0.82,0.00,2.95,2.30,2.13,1.64,5.74,5.08,4.26,4.10,4.59,,,,,,,,,,,,,,
1799999996992639328,2027-01-15T07:59:56.992639328Z,0.49,1.31,1.80,0.33,-0.33,3.77,2.79,1.64,1.64,4.75,4.43,3.61,4.10,5.25,,,,,,,,,,,,,,
1799999997003154575,2027-01-15T07:59:57.003154575Z,-0.82,1.15,2.30,0.33,0.66,1.97,2.62,2.62,2.62,2.46,3.44,4.43,3.93,4.26,,,,,,,,,,,,,,
1799999997013669822,2027-01-15T07:59:57.013669822Z,0.82,1.80,0.16,3.11,0.33,0.82,1.80,0.82,3.44,2.13,3.11,4.10,3.28,4.43,,,,,,,,,,,,,,
1799999997024185069,2027-01-15T07:59:57.024185069Z,0.00,0.98,-0.16,3.44,-0.49,0.66,0.98,1.15,3.61,2.62,2.95,4.92,4.26,4.75,,,,,,,,,,,,,,
1799999997034700316,2027-01-15T07:59:57.034700316Z,0.16,-0.33,0.98,2.62,-1.64,0.82,0.66,2.62,2.95,4.10,4.26,5.57,5.25,6.39,,,,,,,,,,,,,,
1799999997045215563,2027-01-15T07:59:57.045215563Z,-0.66,0.98,1.15,1.97,0.49,1.80,1.31,1.80,2.95,5.57,5.74,4.59,4.10,8.03,,,,,,,,,,,,,,
1799999997055730810,2027-01-15T07:59:57.055730810Z,0.16,1.15,0.33,1.15,0.49,1.48,0.82,1.64,2.79,5.25,5.57,5.41,3.11,7.38,,,,,,,,,,,,,,
1799999997066246057,2027-01-15T07:59:57.066246057Z,-1.80,1.15,-0.49,2.30,-0.49,0.98,0.82,1.97,1.97,4.59,4.92,6.39,3.77,5.41,,,,,,,,,,,,,,
1799999997076761304,2027-01-15T07:59:57.076761304Z,-1.48,-0.49,1.48,3.11,0.33,2.62,1.97,2.95,2.13,5.57,4.92,4.10,3.28,6.23,,,,,,,,,,,,,,
1799999997087276551,2027-01-15T07:59:57.087276551Z,-0.49,-0.66,2.62,3.11,0.00,2.30,1.15,2.46,3.11,5.08,4.26,2.95,4.92,6.89,,,,,,,,,,,,,,
1799999997097791799,2027-01-15T07:59:57.097791799Z,1.48,-0.66,3.11,2.46,0.00,-0.49,0.00,1.80,3.61,3.77,5.57,3.61,9.51,6.07,,,,,,,,,,,,,,
1799999997108307046,2027-01-15T07:59:57.108307046Z,-1.31,-1.48,1.97,1.31,0.33,0.82,1.80,1.15,3.44,3.93,4.75,3.77,9.18,5.74,,,,,,,,,,,,,,
1799999997118822293,2027-01-15T07:59:57.118822293Z,2.62,-2.30,0.98,0.00,0.16,1.97,2.46,2.13,3.44,4.26,3.93,4.43,7.05,5.90,,,,,,,,,,,,,,
1799999997129337540,2027-01-15T07:59:57.129337540Z,-3.44,-2.62,-0.16,-0.16,-0.98,1.80,2.30,3.93,1.64,3.77,4.59,5.25,6.56,6.23,,,,,,,,,,,,,,
1799999997139852787,2027-01-15T07:59:57.139852787Z,-1.31,-1.15,-1.48,0.66,1.31,1.64,3.93,3.93,1.64,4.10,5.25,4.43,4.10,5.08,,,,,,,,,,,,,,
1799999997150368034,2027-01-15T07:59:57.150368034Z,-0.66,-1.15,-1.31,0.66,1.64,0.98,3.77,3.93,2.30,4.26,4.75,4.10,3.77,4.75,,,,,,,,,,,,,,
1799999997160883281,2027-01-15T07:59:57.160883281Z,-3.77,-0.82,-1.64,0.49,-0.98,-0.16,4.26,4.59,3.44,3.28,4.59,4.43,2.62,5.25,,,,,,,,,,,,,,
1799999997171398528,2027-01-15T07:59:57.171398528Z,-3.28,-3.44,-1.15,-1.48,0.00,0.82,3.61,3.77,4.75,2.30,6.72,3.44,2.30,7.21,,,,,,,,,,,,,,
1799999997181913775,2027-01-15T07:59:57.181913775Z,-2.46,-5.57,-0.82,-2.46,1.31,0.82,3.11,4.26,4.10,3.44,6.56,3.11,3.77,6.89,,,,,,,,,,,,,,
1799999997192429023,2027-01-15T07:59:57.192429023Z,-3.93,-6.07,-0.33,-2.62,0.66,2.62,1.31,5.41,1.80,5.08,3.61,4.26,4.26,5.25,,,,,,,,,,,,,,
1799999997202944270,2027-01-15T07:59:57.202944270Z,-3.93,-4.75,-0.33,-2.79,0.66,2.13,0.00,5.57,2.13,4.92,1.64,4.10,4.26,4.26,,,,,,,,,,,,,,
1799999997213459517,2027-01-15T07:59:57.213459517Z,-6.56,-4.59,-1.80,-2.62,0.98,0.82,-2.79,4.92,2.46,3.93,0.66,3.93,5.08,2.46,,,,,,,,,,,,,,
1799999997223974764,2027-01-15T07:59:57.223974764Z,-6.89,-2.13,-1.64,-1.48,1.15,0.00,-0.66,4.26,2.95,3.11,2.79,4.26,3.77,4.26,,,,,,,,,,,,,,
1799999997234490011,2027-01-15T07:59:57.234490011Z,-8.52,-2.46,-1.31,-1.31,0.16,-0.49,0.16,3.11,3.61,3.93,3.93,3.61,4.75,5.25,,,,,,,,,,,,,,
1799999997245005258,2027-01-15T07:59:57.245005258Z,-7.54,-6.07,-3.44,0.98,-0.16,0.00,0.00,1.80,4.26,5.25,3.44,2.62,6.07,6.56,,,,,,,,,,,,,,
1799999997255520505,2027-01-15T07:59:57.255520505Z,-4.75,-6.07,-3.77,0.66,1.48,1.48,1.31,3.44,3.93,4.26,3.93,3.44,3.93,6.07,,,,,,,,,,,,,,
1799999997266035752,2027-01-15T07:59:57.266035752Z,-4.43,-4.92,-1.64,0.00,1.31,1.97,1.64,3.11,4.92,4.10,4.59,3.11,3.93,6.07,,,,,,,,,,,,,,
1799999997276550999,2027-01-15T07:59:57.276550999Z,-4.59,-1.80,0.82,-1.64,0.49,1.15,0.98,3.77,6.07,5.08,4.75,2.95,4.75,5.57,,,,,,,,,,,,,,
1799999997287066247,2027-01-15T07:59:57.287066247Z,-2.13,0.33,-0.82,-1.80,1.48,0.98,1.15,4.10,6.23,4.43,3.11,4.10,5.08,4.59,,,,,,,,,,,,,,
1799999997297581494,2027-01-15T07:59:57.297581494Z,-0.98,-0.98,-2.30,-1.80,3.11,1.97,1.48,4.10,5.41,5.57,3.11,4.59,4.43,5.08,,,,,,,,,,,,,,
1799999997308096741,2027-01-15T07:59:57.308096741Z,-3.61,-2.46,-0.82,-1.15,5.08,4.26,1.15,3.44,2.62,6.72,3.44,6.72,4.26,5.41,,,,,,,,,,,,,,
1799999997318611988,2027-01-15T07:59:57.318611988Z,0.00,-2.46,-0.82,-0.16,2.79,4.43,2.62,2.62,0.82,4.43,3.93,6.56,8.20,5.74,,,,,,,,,,,,,,
1799999997329127235,2027-01-15T07:59:57.329127235Z,1.64,-0.98,-0.98,0.00,1.15,4.26,2.95,1.97,0.49,3.61,4.10,6.23,9.02,6.23,,,,,,,,,,,,,,
1799999997339642482,2027-01-15T07:59:57.339642482Z,2.13,0.98,-1.64,0.49,1.48,3.93,1.48,3.93,1.48,5.08,2.79,5.90,6.23,6.72,,,,,,,,,,,,,,
1799999997350157729,2027-01-15T07:59:57.350157729Z,1.48,0.66,0.49,1.48,2.13,2.13,1.80,4.10,0.98,4.43,3.11,5.90,6.72,5.25,,,,,,,,,,,,,,
1799999997360672976,2027-01-15T07:59:57.360672976Z,0.98,0.33,0.98,1.80,2.95,1.15,2.46,4.59,0.49,4.10,3.61,5.74,6.89,5.25,,,,,,,,,,,,,,
1799999997371188223,2027-01-15T07:59:57.371188223Z,2.30,0.66,1.15,1.64,3.44,-1.15,0.49,3.93,2.62,4.59,4.10,5.90,6.56,5.25,,,,,,,,,,,,,,
1799999997381703471,2027-01-15T07:59:57.381703471Z,2.13,0.33,-0.33,1.31,0.98,0.00,-0.49,1.31,4.43,4.10,4.10,5.41,6.72,7.05,,,,,,,,,,,,,,
1799999997392218718,2027-01-15T07:59:57.392218718Z,0.49,2.46,-0.82,0.82,1.15,1.48,-0.98,0.33,3.61,3.44,4.26,5.74,6.89,7.38,,,,,,,,,,,,,,
1799999997402733965,2027-01-15T07:59:57.402733965Z,0.82,3.61,0.49,0.82,4.10,2.95,-0.98,0.98,2.62,2.46,4.43,5.74,7.05,4.75,,,,,,,,,,,,,,
1799999997413249212,2027-01-15T07:59:57.413249212Z,0.49,1.64,1.15,1.97,3.11,2.13,-0.33,1.80,4.59,2.30,4.92,4.26,4.92,4.59,,,,,,,,,,,,,,
1799999997423764459,2027-01-15T07:59:57.423764459Z,-1.64,1.48,0.98,0.49,1.64,2.30,0.33,2.13,3.93,2.30,5.57,3.44,4.26,5.57,,,,,,,,,,,,,,
1799999997434279706,2027-01-15T07:59:57.434279706Z,-1.48,0.66,-0.16,-0.66,0.98,2.13,2.13,0.49,2.46,2.46,4.75,3.28,1.97,6.23,,,,,,,,,,,,,,
1799999997444794953,2027-01-15T07:59:57.444794953Z,0.66,1.15,0.00,0.49,0.98,1.80,1.64,-0.33,2.30,2.46,3.93,4.26,1.64,7.38,,,,,,,,,,,,,,
1799999997455310200,2027-01-15T07:59:57.455310200Z,5.74,2.46,0.33,0.16,1.15,1.31,0.49,0.82,1.64,3.61,4.26,5.90,5.90,9.51,,,,,,,,,,,,,,
1799999997465825447,2027-01-15T07:59:57.465825447Z,3.28,2.95,2.46,0.49,-0.66,1.15,1.48,1.64,3.28,2.79,4.59,4.75,6.07,8.85,,,,,,,,,,,,,,
1799999997476340695,2027-01-15T07:59:57.476340695Z,1.15,2.30,2.30,0.33,0.16,1.48,2.13,1.64,2.95,2.30,4.26,5.41,6.07,7.21,,,,,,,,,,,,,,
1799999997486855942,2027-01-15T07:59:57.486855942Z,0.33,0.66,1.15,0.98,2.13,1.15,3.11,1.97,1.64,2.46,4.92,7.38,7.38,4.10,,,,,,,,,,,,,,
1799999997497371189,2027-01-15T07:59:57.497371189Z,-0.66,0.16,0.16,0.49,1.15,1.15,2.46,2.62,3.77,1.80,3.44,6.72,4.92,4.92,,,,,,,,,,,,,,
1799999997507886436,2027-01-15T07:59:57.507886436Z,0.82,0.49,0.16,1.97,1.15,1.31,3.61,3.77,4.75,1.97,4.43,5.90,4.26,5.74,,,,,,,,,,,,,,
1799999997518401683,2027-01-15T07:59:57.518401683Z,0.98,-0.66,-0.16,3.11,2.46,2.30,5.74,4.59,3.77,2.95,6.56,5.41,6.56,5.74,,,,,,,,,,,,,,
1799999997528916930,2027-01-15T07:59:57.528916930Z,-1.80,0.00,-0.16,0.98,2.62,2.30,3.93,3.28,4.26,4.75,6.07,4.43,4.75,6.72,,,,,,,,,,,,,,
1799999997539432177,2027-01-15T07:59:57.539432177Z,-4.92,0.66,-0.82,0.16,1.97,2.46,2.79,3.44,4.75,5.41,4.59,3.44,3.11,5.74,,,,,,,,,,,,,,
1799999997549947424,2027-01-15T07:59:57.549947424Z,-3.11,-0.49,-0.33,0.82,0.82,2.79,2.46,3.44,3.77,3.28,3.28,3.44,5.90,3.28,,,,,,,,,,,,,,
1799999997560462671,2027-01-15T07:59:57.560462671Z,-3.11,-1.80,1.31,-0.49,0.98,2.13,2.46,2.46,1.15,3.28,4.75,4.75,6.89,3.61,,,,,,,,,,,,,,
1799999997570977918,2027-01-15T07:59:57.570977918Z,-0.16,-2.30,2.13,-0.66,0.33,1.64,1.97,2.79,2.46,3.28,5.90,5.08,7.21,4.26,,,,,,,,,,,,,,
1799999997581493166,2027-01-15T07:59:57.581493166Z,-0.16,-2.95,2.30,-0.66,-1.80,2.46,1.15,4.10,5.57,2.30,5.08,4.75,8.52,5.57,,,,,,,,,,,,,,
1799999997592008413,2027-01-15T07:59:57.592008413Z,-3.77,-0.98,0.33,0.66,-0.66,1.80,1.31,2.79,4.59,3.11,4.43,3.93,4.59,6.89,,,,,,,,,,,,,,
1799999997602523660,2027-01-15T07:59:57.602523660Z,-3.61,0.16,0.16,1.48,0.33,2.13,2.79,3.77,3.61,4.26,3.44,3.77,2.95,6.56,,,,,,,,,,,,,,
1799999997613038907,2027-01-15T07:59:57.613038907Z,-0.82,-1.64,0.98,2.13,2.13,3.44,4.75,5.25,4.10,4.26,2.13,5.25,7.05,4.26,,,,,,,,,,,,,,
1799999997623554154,2027-01-15T07:59:57.623554154Z,-0.49,-3.28,0.16,0.33,1.97,0.33,4.10,3.61,3.61,3.11,1.64,5.74,7.70,4.92,,,,,,,,,,,,,,
1799999997634069401,2027-01-15T07:59:57.634069401Z,-1.48,-3.93,0.16,-0.49,1.80,-0.82,4.26,2.79,3.93,3.44,1.48,5.41,6.89,5.41,,,,,,,,,,,,,,
1799999997644584648,2027-01-15T07:59:57.644584648Z,-2.13,-2.95,-0.33,-0.66,1.80,1.64,5.25,2.95,5.08,3.44,4.10,5.25,7.21,4.26,,,,,,,,,,,,,,
1799999997655099895,2027-01-15T07:59:57.655099895Z,-4.10,0.49,0.33,-1.64,1.15,0.82,3.77,2.79,5.41,2.30,4.10,4.92,3.93,5.74,,,,,,,,,,,,,,
1799999997665615142,2027-01-15T07:59:57.665615142Z,-1.64,-0.66,0.49,-1.64,0.98,-0.49,2.13,2.46,4.26,2.46,3.11,4.92,2.46,6.72,,,,,,,,,,,,,,
1799999997676130390,2027-01-15T07:59:57.676130390Z,0.16,-4.43,-0.66,0.00,0.66,-0.49,1.31,2.62,1.97,3.44,4.10,4.75,3.11,5.90,,,,,,,,,,,,,,
1799999997686645637,2027-01-15T07:59:57.686645637Z,-0.33,-1.64,-0.82,-0.66,-0.66,-0.16,0.98,2.13,2.79,2.95,4.10,4.75,4.26,6.72,,,,,,,,,,,,,,
1799999997697160884,2027-01-15T07:59:57.697160884Z,-3.28,-0.66,-0.82,0.49,-0.66,-0.16,0.98,2.30,3.77,2.95,4.10,4.43,4.59,6.39,,,,,,,,,,,,,,
1799999997707676131,2027-01-15T07:59:57.707676131Z,-1.15,-2.79,-1.31,1.48,-0.33,0.82,1.15,3.28,2.62,3.77,3.77,4.59,4.59,4.59,,,,,,,,,,,,,,
1799999997718191378,2027-01-15T07:59:57.718191378Z,-0.66,-2.79,-1.15,0.82,0.16,1.80,2.62,3.28,2.95,4.92,4.59,4.10,4.59,4.10,,,,,,,,,,,,,,
1799999997728706625,2027-01-15T07:59:57.728706625Z,-0.49,-1.31,0.16,-0.49,1.48,2.95,4.10,2.13,4.43,5.25,5.25,3.93,5.41,5.74,,,,,,,,,,,,,,
1799999997739221872,2027-01-15T07:59:57.739221872Z,0.00,-0.98,0.49,-0.82,0.82,0.49,2.30,2.30,3.28,2.46,4.10,5.25,6.07,6.72,,,,,,,,,,,,,,
1799999997749737119,2027-01-15T07:59:57.749737119Z,1.80,-0.66,1.48,-0.16,0.33,-0.16,1.48,2.46,2.46,1.15,3.11,5.74,6.89,6.72,,,,,,,,,,,,,,
1799999997760252366,2027-01-15T07:59:57.760252366Z,0.98,-0.49,2.13,1.15,-0.16,-0.16,2.95,2.62,3.44,1.80,3.11,4.92,5.90,6.07,,,,,,,,,,,,,,
1799999997770767614,2027-01-15T07:59:57.770767614Z,0.00,0.16,0.98,2.13,0.00,1.15,3.61,2.46,4.92,2.30,2.95,4.10,4.92,5.25,,,,,,,,,,,,,,
1799999997781282861,2027-01-15T07:59:57.781282861Z,-0.82,0.00,1.15,2.13,0.49,0.98,4.43,2.30,3.77,1.97,2.62,3.93,5.74,5.25,,,,,,,,,,,,,,
1799999997791798108,2027-01-15T07:59:57.791798108Z,-0.66,-0.16,0.82,1.31,0.66,1.31,4.26,3.44,2.62,1.80,2.62,5.41,7.21,5.90,,,,,,,,,,,,,,
1799999997802313355,2027-01-15T07:59:57.802313355Z,-0.33,-1.31,0.16,-0.66,1.48,1.31,2.79,2.62,4.59,2.13,4.26,6.07,5.25,6.72,,,,,,,,,,,,,,
1799999997812828602,2027-01-15T07:59:57.812828602Z,-0.33,-0.16,0.00,-0.82,0.98,0.66,2.95,2.30,3.61,1.97,4.10,5.90,3.44,6.23,,,,,,,,,,,,,,
1799999997823343849,2027-01-15T07:59:57.823343849Z,-2.30,2.30,-1.31,0.98,-1.31,0.16,3.11,3.28,1.48,2.79,3.11,5.41,1.48,3.93,,,,,,,,,,,,,,
1799999997833859096,2027-01-15T07:59:57.833859096Z,1.64,0.66,0.16,-0.49,-1.31,1.64,1.15,3.28,2.30,4.75,4.59,4.59,4.43,3.93,,,,,,,,,,,,,,
1799999997844374343,2027-01-15T07:59:57.844374343Z,0.66,-0.33,-0.66,-1.15,-1.15,2.13,0.82,2.46,2.95,5.57,4.92,4.10,5.57,4.92,,,,,,,,,,,,,,
1799999997854889590,2027-01-15T07:59:57.854889590Z,-0.49,-0.16,-2.62,0.49,-1.31,1.15,1.48,2.30,3.61,5.25,3.77,4.59,1.97,7.05,,,,,,,,,,,,,,
1799999997865404838,2027-01-15T07:59:57.865404838Z,0.49,-0.66,-0.66,1.15,0.00,1.31,-0.33,2.95,2.30,3.93,4.92,3.44,2.13,6.56,,,,,,,,,,,,,,
1799999997875920085,2027-01-15T07:59:57.875920085Z,0.49,-1.31,0.16,0.16,1.15,0.33,-0.82,2.95,1.97,3.93,5.41,4.26,2.79,5.90,,,,,,,,,,,,,,
1799999997886435332,2027-01-15T07:59:57.886435332Z,-0.82,-1.15,-0.49,0.16,0.49,-1.64,-0.16,3.44,2.46,4.92,6.72,5.74,2.62,4.92,,,,,,,,,,,,,,
1799999997896950579,2027-01-15T07:59:57.896950579Z,-0.98,-1.31,-2.13,1.31,0.16,-0.66,0.66,3.44,2.13,4.75,6.89,4.43,6.39,4.43,,,,,,,,,,,,,,
1799999997907465826,2027-01-15T07:59:57.907465826Z,0.82,-1.31,-0.98,2.13,0.16,-0.66,0.00,2.95,1.97,4.26,5.25,4.92,5.90,4.92,,,,,,,,,,,,,,
1799999997917981073,2027-01-15T07:59:57.917981073Z,-0.66,-0.66,0.49,1.48,-0.49,-0.98,-0.49,3.28,3.28,4.10,2.62,6.39,3.44,6.07,,,,,,,,,,,,,,
1799999997928496320,2027-01-15T07:59:57.928496320Z,-0.66,1.31,0.00,0.49,-0.33,1.64,0.98,2.30,2.13,2.79,3.61,4.92,2.79,6.72,,,,,,,,,,,,,,
1799999997939011567,2027-01-15T07:59:57.939011567Z,-1.64,1.97,0.49,0.49,0.66,3.11,1.48,1.64,1.64,3.28,3.61,3.77,2.62,5.57,,,,,,,,,,,,,,
1799999997949526814,2027-01-15T07:59:57.949526814Z,-1.15,1.31,1.48,0.16,2.30,4.10,1.48,1.64,4.43,3.93,2.95,4.75,3.28,6.07,,,,,,,,,,,,,,
1799999997960042061,2027-01-15T07:59:57.960042061Z,-1.31,0.00,0.98,-0.33,3.44,2.46,1.80,2.62,4.75,3.44,2.79,4.75,4.59,6.56,,,,,,,,,,,,,,
1799999997970557309,2027-01-15T07:59:57.970557309Z,-0.33,-1.80,0.49,-0.49,3.44,0.16,1.97,2.62,3.44,2.46,3.61,4.10,5.74,4.75,,,,,,,,,,,,,,
1799999997981072556,2027-01-15T07:59:57.981072556Z,0.16,-1.31,-2.13,0.98,0.00,2.13,2.95,4.59,3.77,2.62,5.25,3.44,7.87,5.57,,,,,,,,,,,,,,
1799999997991587803,2027-01-15T07:59:57.991587803Z,0.49,-1.97,-2.30,0.98,0.00,2.79,1.97,4.26,3.61,2.79,5.08,3.93,7.05,6.07,,,,,,,,,,,,,,
1799999998002103050,2027-01-15T07:59:58.002103050Z,-0.16,-2.30,0.98,2.46,2.13,1.31,0.98,2.13,4.26,4.26,4.43,4.75,4.59,5.57,,,,,,,,,,,,,,
1799999998012618297,2027-01-15T07:59:58.012618297Z,-2.46,-1.80,0.16,0.82,1.15,1.64,2.79,3.11,3.61,3.28,3.93,4.26,6.39,5.41,,,,,,,,,,,,,,
1799999998023133544,2027-01-15T07:59:58.023133544Z,-1.97,-1.80,-1.31,-0.16,-0.16,1.64,3.11,3.77,2.46,2.46,3.93,4.43,6.23,5.08,,,,,,,,,,,,,,
1799999998033648791,2027-01-15T07:59:58.033648791Z,-1.80,-2.62,-0.66,0.16,0.16,-0.66,2.30,4.92,0.82,3.28,5.25,5.74,3.44,5.41,,,,,,,,,,,,,,
1799999998044164038,2027-01-15T07:59:58.044164038Z,0.49,-1.31,0.66,-1.48,3.77,0.98,2.30,4.43,0.66,4.26,4.92,4.75,4.26,6.23,,,,,,,,,,,,,,
1799999998054679285,2027-01-15T07:59:58.054679285Z,-1.97,-1.48,0.82,-0.82,4.26,2.30,3.28,4.10,1.48,4.75,3.77,4.59,5.57,5.90,,,,,,,,,,,,,,
1799999998065194533,2027-01-15T07:59:58.065194533Z,-2.46,-2.30,0.16,2.13,2.95,0.33,4.43,2.62,1.97,5.08,2.62,4.43,8.20,4.43,,,,,,,,,,,,,,
1799999998075709780,2027-01-15T07:59:58.075709780Z,-1.31,-0.82,-1.15,-0.16,2.46,-0.49,4.26,3.44,2.95,5.25,4.92,3.93,4.59,4.10,,,,,,,,,,,,,,
1799999998086225027,2027-01-15T07:59:58.086225027Z,-2.46,-0.98,-1.31,-0.98,1.15,-0.33,3.61,3.61,4.26,5.57,5.08,3.93,5.08,5.25,,,,,,,,,,,,,,
1799999998096740274,2027-01-15T07:59:58.096740274Z,0.00,-1.97,-1.15,0.49,0.00,-0.98,2.46,1.15,6.39,5.25,3.93,4.75,7.70,6.56,,,,,,,,,,,,,,
1799999998107255521,2027-01-15T07:59:58.107255521Z,0.49,-0.33,0.49,1.15,1.64,-0.49,2.62,0.82,5.57,5.08,3.93,4.59,4.92,6.56,,,,,,,,,,,,,,
1799999998117770768,2027-01-15T07:59:58.117770768Z,-0.16,0.33,0.00,0.49,2.13,0.66,3.44,1.97,4.26,5.57,3.93,4.10,3.77,6.23,,,,,,,,,,,,,,
1799999998128286015,2027-01-15T07:59:58.128286015Z,-0.66,0.16,-2.79,0.16,1.80,2.30,3.44,2.95,2.46,6.23,3.93,4.10,2.62,4.75,,,,,,,,,,,,,,
1799999998138801262,2027-01-15T07:59:58.138801262Z,-0.49,-0.66,-2.62,0.98,2.13,3.11,1.80,3.28,3.77,5.08,4.59,5.57,5.08,4.75,,,,,,,,,,,,,,
1799999998149316509,2027-01-15T07:59:58.149316509Z,1.31,-0.49,-1.48,1.48,1.97,1.97,0.98,3.61,5.08,4.92,5.57,5.74,5.08,4.26,,,,,,,,,,,,,,
1799999998159831757,2027-01-15T07:59:58.159831757Z,0.33,0.16,-0.82,0.82,1.48,0.16,-0.98,3.77,4.43,4.26,5.90,3.93,6.23,3.28,,,,,,,,,,,,,,
1799999998170347004,2027-01-15T07:59:58.170347004Z,0.00,-1.15,0.98,-0.33,0.49,0.49,-0.16,2.30,3.61,3.28,3.61,3.28,5.25,4.43,,,,,,,,,,,,,,
1799999998180862251,2027-01-15T07:59:58.180862251Z,-1.15,-2.13,0.00,-0.16,0.00,1.64,1.64,2.30,2.62,2.79,3.44,3.77,4.10,4.43,,,,,,,,,,,,,,
1799999998191377498,2027-01-15T07:59:58.191377498Z,-1.15,-0.82,-0.82,-0.33,0.16,2.95,2.95,4.59,1.15,3.93,5.25,4.92,4.75,4.43,,,,,,,,,,,,,,
1799999998201892745,2027-01-15T07:59:58.201892745Z,-0.66,0.16,0.16,0.66,-0.49,2.62,1.80,2.46,2.30,5.57,3.93,4.43,5.74,5.90,,,,,,,,,,,,,,
1799999998212407992,2027-01-15T07:59:58.212407992Z,-0.66,0.16,0.16,1.15,-0.98,1.97,0.98,0.98,3.44,5.90,3.28,4.59,7.21,6.39,,,,,,,,,,,,,,
1799999998222923239,2027-01-15T07:59:58.222923239Z,0.00,-0.16,1.15,0.16,0.16,-0.66,0.66,0.66,2.30,5.25,3.93,5.57,8.36,6.23,,,,,,,,,,,,,,
1799999998233438486,2027-01-15T07:59:58.233438486Z,-1.15,0.33,1.97,0.16,-0.82,-0.33,0.33,0.66,1.48,6.56,5.25,5.41,7.21,6.23,,,,,,,,,,,,,,
1799999998243953733,2027-01-15T07:59:58.243953733Z,0.33,0.49,0.49,-0.66,-3.44,0.98,-0.98,1.80,1.15,6.89,6.23,4.59,6.39,6.89,,,,,,,,,,,,,,
1799999998254468981,2027-01-15T07:59:58.254468981Z,-0.98,1.31,-0.82,0.00,-1.48,1.97,0.16,1.31,0.49,3.93,4.75,5.08,4.75,5.57,,,,,,,,,,,,,,
1799999998264984228,2027-01-15T07:59:58.264984228Z,-0.66,0.66,-0.82,0.98,0.16,2.13,0.33,0.66,1.31,3.44,4.43,4.59,5.08,5.25,,,,,,,,,,,,,,
1799999998275499475,2027-01-15T07:59:58.275499475Z,1.64,-0.33,0.66,0.16,0.16,2.30,0.33,1.97,2.79,4.43,5.57,3.61,4.75,6.07,,,,,,,,,,,,,,
1799999998286014722,2027-01-15T07:59:58.286014722Z,1.31,0.16,1.80,0.66,-0.33,1.64,2.30,3.77,2.62,4.26,4.43,4.59,5.41,5.08,,,,,,,,,,,,,,
1799999998296529969,2027-01-15T07:59:58.296529969Z,,-0.16,0.49,0.82,0.66,3.11,2.79,4.43,3.44,3.61,4.43,4.43,5.90,4.43,,,,,,,,,,,,,,
1799999998307045216,2027-01-15T07:59:58.307045216Z,,0.33,-1.31,0.33,1.80,4.75,0.66,5.08,5.08,2.46,4.59,3.28,7.05,4.43,,,,,,,,,,,,,,
1799999998317560463,2027-01-15T07:59:58.317560463Z,,-0.66,-0.49,-0.33,1.31,1.97,1.64,3.93,4.75,3.93,4.26,4.43,6.07,5.90,,,,,,,,,,,,,,
1799999998328075710,2027-01-15T07:59:58.328075710Z,,-1.15,0.49,-0.49,1.48,-0.33,2.79,2.79,2.30,2.79,4.59,5.08,6.56,6.07,,,,,,,,,,,,,,
1799999998338590957,2027-01-15T07:59:58.338590957Z,,-1.15,0.16,-0.49,1.97,-2.13,3.28,2.46,-0.66,1.31,4.10,4.59,7.54,5.90,,,,,,,,,,,,,,
1799999998349106204,2027-01-15T07:59:58.349106204Z,,-0.82,-0.16,0.98,2.79,-1.15,2.62,1.97,2.62,3.61,3.11,3.61,4.59,6.39,,,,,,,,,,,,,,
1799999998359621452,2027-01-15T07:59:58.359621452Z,,-0.66,-1.15,1.48,2.95,-0.16,2.46,3.61,4.92,4.92,3.77,3.28,3.77,6.39,,,,,,,,,,,,,,
1799999998370136699,2027-01-15T07:59:58.370136699Z,,-0.66,-1.64,1.31,1.31,1.31,3.11,5.25,2.46,4.26,4.75,3.77,5.74,6.39,,,,,,,,,,,,,,
1799999998380651946,2027-01-15T07:59:58.380651946Z,,-1.15,-0.16,0.00,0.66,2.13,3.61,2.79,2.46,3.44,4.10,4.10,8.85,5.90,,,,,,,,,,,,,,
1799999998391167193,2027-01-15T07:59:58.391167193Z,,-1.64,-0.16,-0.82,1.48,2.62,3.44,2.30,3.28,2.79,4.92,4.75,8.52,5.57,,,,,,,,,,,,,,
1799999998401682440,2027-01-15T07:59:58.401682440Z,,-1.31,-0.66,0.00,2.95,2.62,0.98,3.28,2.46,2.30,5.90,5.57,6.39,5.08,,,,,,,,,,,,,,
1799999998412197687,2027-01-15T07:59:58.412197687Z,,-1.31,1.48,-0.82,1.80,1.48,1.80,2.62,3.93,3.28,4.43,5.25,5.57,6.07,,,,,,,,,,,,,,
1799999998422712934,2027-01-15T07:59:58.422712934Z,,-1.48,1.97,-0.98,0.98,0.82,2.79,3.93,4.26,3.77,3.61,4.92,5.74,5.74,,,,,,,,,,,,,,
1799999998433228181,2027-01-15T07:59:58.433228181Z,,-0.16,-0.16,-0.66,0.82,0.16,1.15,5.08,2.95,3.61,2.62,5.25,3.11,4.59,,,,,,,,,,,,,,
1799999998443743428,2027-01-15T07:59:58.443743428Z,,0.33,0.66,0.33,2.62,1.31,-0.16,2.46,3.93,3.61,4.59,4.92,2.46,5.08,,,,,,,,,,,,,,
1799999998454258676,2027-01-15T07:59:58.454258676Z,,0.00,0.82,0.33,1.64,1.48,0.98,2.62,3.93,3.61,5.90,4.59,2.95,5.08,,,,,,,,,,,,,,
1799999998464773923,2027-01-15T07:59:58.464773923Z,,-0.98,0.00,1.80,-1.97,-0.49,1.48,3.77,3.77,2.95,5.57,3.93,4.26,5.90,,,,,,,,,,,,,,
1799999998475289170,2027-01-15T07:59:58.475289170Z,,-1.80,0.00,1.48,0.16,0.66,1.31,3.93,4.10,2.79,5.57,4.26,2.62,6.56,,,,,,,,,,,,,,
1799999998485804417,2027-01-15T07:59:58.485804417Z,,-2.95,-0.66,-0.16,4.43,2.79,0.33,3.77,3.11,2.46,5.08,5.90,4.10,5.57,,,,,,,,,,,,,,
1799999998496319664,2027-01-15T07:59:58.496319664Z,,-2.30,-0.49,-0.33,1.97,3.44,0.66,2.79,3.44,3.44,2.79,5.74,2.30,6.07,,,,,,,,,,,,,,
1799999998506834911,2027-01-15T07:59:58.506834911Z,,-1.31,0.33,0.16,0.98,3.11,1.15,2.79,3.28,3.93,1.64,5.08,3.93,6.56,,,,,,,,,,,,,,
1799999998517350158,2027-01-15T07:59:58.517350158Z,,-0.49,0.98,0.98,2.13,0.82,1.64,2.13,3.77,3.11,1.97,4.43,6.39,6.23,,,,,,,,,,,,,,
1799999998527865405,2027-01-15T07:59:58.527865405Z,,-0.33,-1.15,0.82,1.97,1.31,2.95,3.11,4.26,3.77,4.26,4.59,6.23,6.23,,,,,,,,,,,,,,
1799999998538380652,2027-01-15T07:59:58.538380652Z,,0.16,-0.98,0.49,1.48,2.30,3.28,3.44,3.93,4.43,4.43,4.92,6.23,5.25,,,,,,,,,,,,,,
1799999998548895900,2027-01-15T07:59:58.548895900Z,,0.98,-0.16,1.15,0.33,1.48,0.82,2.13,1.97,4.43,2.62,5.41,7.54,5.08,,,,,,,,,,,,,,
1799999998559411147,2027-01-15T07:59:58.559411147Z,,-0.33,-0.98,0.33,0.49,2.62,1.15,2.13,3.44,3.93,3.11,4.75,5.74,6.23,,,,,,,,,,,,,,
1799999998569926394,2027-01-15T07:59:58.569926394Z,,-1.15,-0.49,-0.16,0.33,2.79,2.13,1.64,4.10,3.93,3.77,4.26,5.57,4.43,,,,,,,,,,,,,,
1799999998580441641,2027-01-15T07:59:58.580441641Z,,-0.66,0.82,0.82,0.66,1.97,1.80,1.48,5.90,2.30,3.93,3.44,6.23,2.62,,,,,,,,,,,,,,
1799999998590956888,2027-01-15T07:59:58.590956888Z,,0.82,0.98,2.46,1.80,4.43,1.15,3.61,2.30,1.64,4.59,4.92,5.57,5.57,,,,,,,,,,,,,,
1799999998601472135,2027-01-15T07:59:58.601472135Z,,0.49,-0.16,0.98,2.13,2.95,1.31,5.08,1.15,2.62,4.10,4.59,6.07,6.72,,,,,,,,,,,,,,
1799999998611987382,2027-01-15T07:59:58.611987382Z,,0.49,-1.80,-0.82,0.49,-0.82,1.48,5.41,3.61,4.10,4.10,3.28,4.75,7.05,,,,,,,,,,,,,,
1799999998622502629,2027-01-15T07:59:58.622502629Z,,0.33,-0.66,1.15,-1.64,0.16,0.82,2.13,3.61,3.11,4.92,5.08,3.44,5.08,,,,,,,,,,,,,,
1799999998633017876,2027-01-15T07:59:58.633017876Z,,0.00,0.00,1.48,-2.30,1.15,0.16,0.66,3.61,3.93,4.43,6.23,3.93,4.26,,,,,,,,,,,,,,
1799999998643533124,2027-01-15T07:59:58.643533124Z,,0.66,0.82,2.13,-1.64,1.64,-0.33,1.80,3.11,5.41,2.62,5.41,6.07,4.10,,,,,,,,,,,,,,
1799999998654048371,2027-01-15T07:59:58.654048371Z,,-0.66,1.80,2.79,0.33,2.46,0.66,2.46,3.28,3.44,1.80,4.59,5.57,5.74,,,,,,,,,,,,,,
1799999998664563618,2027-01-15T07:59:58.664563618Z,,-1.15,0.49,1.48,1.80,1.97,0.66,3.28,2.13,3.28,2.46,4.10,5.74,5.57,,,,,,,,,,,,,,
1799999998675078865,2027-01-15T07:59:58.675078865Z,,-1.15,-0.66,-0.49,2.13,1.48,1.80,2.95,1.15,4.10,3.11,3.44,4.26,5.90,,,,,,,,,,,,,,
1799999998685594112,2027-01-15T07:59:58.685594112Z,,0.33,0.00,0.00,-0.49,2.95,2.13,1.64,2.79,3.61,3.93,4.59,5.08,7.05,,,,,,,,,,,,,,
1799999998696109359,2027-01-15T07:59:58.696109359Z,,0.16,-0.33,-0.82,-0.66,3.11,1.97,1.64,3.44,3.44,4.10,4.43,5.08,6.56,,,,,,,,,,,,,,
1799999998706624606,2027-01-15T07:59:58.706624606Z,,0.16,0.16,-1.64,0.00,2.30,1.48,0.98,3.77,2.95,3.44,4.75,4.10,6.07,,,,,,,,,,,,,,
1799999998717139853,2027-01-15T07:59:58.717139853Z,,-1.15,-1.31,0.66,-0.98,2.13,1.97,0.66,3.61,4.10,2.95,6.07,4.75,7.05,,,,,,,,,,,,,,
1799999998727655100,2027-01-15T07:59:58.727655100Z,,-1.64,-1.97,1.31,0.16,2.30,1.31,1.48,3.61,3.93,2.46,6.72,3.77,6.72,,,,,,,,,,,,,,
1799999998738170348,2027-01-15T07:59:58.738170348Z,,-0.16,0.16,1.97,1.80,0.16,3.44,2.95,3.61,3.28,1.80,5.74,3.93,5.08,,,,,,,,,,,,,,
1799999998748685595,2027-01-15T07:59:58.748685595Z,,1.48,0.98,1.97,1.64,-0.98,4.75,2.46,2.95,4.26,2.95,5.74,4.10,4.92,,,,,,,,,,,,,,
1799999998759200842,2027-01-15T07:59:58.759200842Z,,0.98,-0.49,0.98,1.31,1.31,2.79,2.30,3.61,4.10,5.25,6.39,1.80,5.57,,,,,,,,,,,,,,
1799999998769716089,2027-01-15T07:59:58.769716089Z,,0.33,-0.16,0.33,1.64,3.11,3.44,0.82,3.77,2.30,4.59,5.57,5.08,6.56,,,,,,,,,,,,,,
1799999998780231336,2027-01-15T07:59:58.780231336Z,,-0.16,0.16,1.31,1.97,2.95,3.28,1.48,3.61,3.44,3.77,4.75,6.72,6.89,,,,,,,,,,,,,,
1799999998790746583,2027-01-15T07:59:58.790746583Z,,-0.66,-0.82,2.79,2.62,3.28,3.11,3.28,2.46,5.57,4.10,4.10,6.56,6.39,,,,,,,,,,,,,,
1799999998801261830,2027-01-15T07:59:58.801261830Z,,-0.98,-0.33,1.31,2.62,2.30,3.44,3.44,1.31,4.26,5.08,5.08,6.39,7.70,,,,,,,,,,,,,,
1799999998811777077,2027-01-15T07:59:58.811777077Z,,0.33,0.49,0.49,2.46,1.64,3.11,3.61,1.80,2.79,4.75,4.92,7.21,8.03,,,,,,,,,,,,,,
1799999998822292324,2027-01-15T07:59:58.822292324Z,,2.13,1.48,1.15,1.48,-0.16,2.62,3.61,3.93,1.97,4.92,4.10,6.72,7.05,,,,,,,,,,,,,,
1799999998832807571,2027-01-15T07:59:58.832807571Z,,0.82,0.00,1.31,0.66,1.64,2.30,3.44,3.93,2.95,6.89,3.93,6.72,5.41,,,,,,,,,,,,,,
1799999998843322819,2027-01-15T07:59:58.843322819Z,,0.16,-0.98,1.15,0.98,1.97,1.80,3.28,3.44,4.26,6.23,3.77,6.56,4.59,,,,,,,,,,,,,,
1799999998853838066,2027-01-15T07:59:58.853838066Z,,-1.31,-0.49,0.16,1.15,0.33,1.64,3.61,3.11,5.25,4.26,4.10,5.25,4.10,,,,,,,,,,,,,,
1799999998864353313,2027-01-15T07:59:58.864353313Z,,-4.59,1.97,-0.49,1.48,0.82,1.15,2.13,3.77,2.79,3.44,5.57,5.90,5.08,,,,,,,,,,,,,,
1799999998874868560,2027-01-15T07:59:58.874868560Z,,-3.11,1.15,-0.82,0.33,1.80,1.15,3.28,2.95,1.48,4.26,6.23,6.56,5.57,,,,,,,,,,,,,,
1799999998885383807,2027-01-15T07:59:58.885383807Z,,0.66,-1.15,-0.16,-0.82,0.66,2.13,5.57,1.80,1.97,5.25,6.07,7.54,4.59,,,,,,,,,,,,,,
1799999998895899054,2027-01-15T07:59:58.895899054Z,,-0.82,-0.16,-0.16,1.31,2.62,2.30,2.95,2.95,3.61,4.26,4.75,5.41,4.92,,,,,,,,,,,,,,
1799999998906414301,2027-01-15T07:59:58.906414301Z,,-1.97,0.49,-0.33,1.64,1.80,1.64,1.15,3.11,3.44,4.43,4.92,6.07,5.57,,,,,,,,,,,,,,
1799999998916929548,2027-01-15T07:59:58.916929548Z,,-2.79,-0.49,0.66,0.33,-0.49,0.66,2.79,3.28,4.10,4.75,5.25,6.39,6.56,,,,,,,,,,,,,,
1799999998927444795,2027-01-15T07:59:58.927444795Z,,-0.16,0.66,0.49,1.80,-0.66,0.16,1.97,3.61,5.25,5.41,4.92,3.61,6.07,,,,,,,,,,,,,,
1799999998937960043,2027-01-15T07:59:58.937960043Z,,0.82,0.98,0.49,2.79,-0.16,0.66,1.80,4.26,4.43,5.57,4.92,3.93,6.07,,,,,,,,,,,,,,
1799999998948475290,2027-01-15T07:59:58.948475290Z,,0.82,1.31,1.48,3.61,0.98,1.80,2.62,5.74,2.79,5.25,3.93,5.41,5.90,,,,,,,,,,,,,,
1799999998958990537,2027-01-15T07:59:58.958990537Z,,0.16,-0.66,0.82,2.30,0.33,2.95,3.44,3.28,2.95,4.75,3.11,4.75,4.10,,,,,,,,,,,,,,
1799999998969505784,2027-01-15T07:59:58.969505784Z,,-0.16,-1.31,0.82,1.48,0.49,2.46,3.28,2.30,2.79,4.59,3.11,4.75,3.28,,,,,,,,,,,,,,
1799999998980021031,2027-01-15T07:59:58.980021031Z,,-1.31,-0.33,0.98,1.48,0.66,1.97,2.46,1.64,3.11,3.93,3.28,4.43,4.75,,,,,,,,,,,,,,
1799999998990536278,2027-01-15T07:59:58.990536278Z,,-0.66,-0.49,0.49,1.48,-0.16,2.62,2.30,1.48,3.77,3.44,3.44,4.43,6.72,,,,,,,,,,,,,,
1799999999001051525,2027-01-15T07:59:59.001051525Z,,-2.30,-0.98,0.16,1.48,-1.15,4.10,1.15,2.30,3.61,2.95,3.11,4.43,5.90,,,,,,,,,,,,,,
1799999999011566772,2027-01-15T07:59:59.011566772Z,,-0.98,-0.66,1.31,1.15,0.16,3.11,-0.33,4.26,4.75,4.26,3.44,3.77,5.57,,,,,,,,,,,,,,
1799999999022082019,2027-01-15T07:59:59.022082019Z,,0.00,-1.15,0.00,1.48,0.82,2.62,0.16,3.77,5.08,5.08,3.77,3.93,5.90,,,,,,,,,,,,,,
1799999999032597267,2027-01-15T07:59:59.032597267Z,,-2.30,-1.64,-2.30,0.98,-0.49,2.30,2.30,2.79,3.93,4.43,4.26,4.10,5.41,,,,,,,,,,,,,,
1799999999043112514,2027-01-15T07:59:59.043112514Z,,-2.13,0.49,-1.64,-0.33,-0.16,0.82,1.97,2.13,3.28,3.61,3.77,4.75,5.74,,,,,,,,,,,,,,
1799999999053627761,2027-01-15T07:59:59.053627761Z,,-1.80,0.66,-1.48,-0.33,0.66,0.33,1.80,2.30,3.28,3.28,3.61,5.74,5.90,,,,,,,,,,,,,,
1799999999064143008,2027-01-15T07:59:59.064143008Z,-5.25,0.33,-0.82,-1.15,-0.82,1.64,1.97,2.46,4.26,1.97,2.79,5.08,6.23,5.25,,,,,,,,,,,,,,
1799999999074658255,2027-01-15T07:59:59.074658255Z,-5.25,-0.49,-0.16,-0.33,0.00,1.80,0.82,3.11,4.59,3.61,3.44,6.07,4.92,5.08,,,,,,,,,,,,,,
1799999999085173502,2027-01-15T07:59:59.085173502Z,,-0.82,0.98,0.49,0.82,1.48,0.49,2.79,4.26,4.26,5.57,5.74,4.92,5.57,,,,,,,,,,,,,,
1799999999095688749,2027-01-15T07:59:59.095688749Z,,-0.98,0.33,0.33,0.33,1.97,2.62,1.80,3.11,4.43,8.36,5.25,6.39,5.90,,,,,,,,,,,,,,
1799999999106203996,2027-01-15T07:59:59.106203996Z,,0.66,0.49,0.33,0.16,3.77,0.66,2.62,2.46,2.46,5.08,5.74,4.75,5.41,,,,,,,,,,,,,,
1799999999116719243,2027-01-15T07:59:59.116719243Z,,0.33,0.49,0.33,0.00,3.61,-0.98,3.28,2.30,1.97,3.61,5.41,3.93,5.90,,,,,,,,,,,,,,
1799999999127234491,2027-01-15T07:59:59.127234491Z,,-0.33,0.66,0.00,-0.16,3.11,1.80,3.11,1.48,3.28,3.44,4.26,2.95,6.72,,,,,,,,,,,,,,
1799999999137749738,2027-01-15T07:59:59.137749738Z,,1.64,0.16,-0.16,0.16,1.80,3.11,4.26,2.95,3.11,3.28,3.28,3.44,5.25,,,,,,,,,,,,,,
1799999999148264985,2027-01-15T07:59:59.148264985Z,,0.98,0.00,-0.49,0.16,1.31,2.79,3.28,3.77,3.11,3.61,4.26,3.77,4.92,,,,,,,,,,,,,,
1799999999158780232,2027-01-15T07:59:59.158780232Z,,-2.46,-1.48,-1.48,-0.33,2.46,1.31,1.48,3.44,4.75,3.11,5.74,4.75,5.41,,,,,,,,,,,,,,
1799999999169295479,2027-01-15T07:59:59.169295479Z,,-1.48,-0.16,-0.66,-0.16,-0.16,0.49,2.62,1.48,4.26,3.28,3.61,4.92,5.41,,,,,,,,,,,,,,
1799999999179810726,2027-01-15T07:59:59.179810726Z,,-0.66,0.98,-1.48,0.49,0.33,0.98,2.13,1.97,3.93,3.77,3.11,4.59,4.75,,,,,,,,,,,,,,
