# spacing_uv=20.0
timestamp_ns,timestamp_iso,AF3,F7,F3,FC5,T7,P7,O1,O2,P8,T8,FC6,F4,F8,AF4,AF3_q,F7_q,F3_q,FC5_q,T7_q,P7_q,O1_q,O2_q,P8_q,T8_q,FC6_q,F4_q,F8_q,AF4_q
1799999990000000000,2027-01-15T07:59:50.000000000Z,,,,,,,,,,,,,,,,,,,,,,,,,,,,
1799999990009990010,2027-01-15T07:59:50.009990010Z,2.55,-1.28,,2.98,,,,,,,,,,,,,,,,,,,,,,,,
1799999990019980020,2027-01-15T07:59:50.019980020Z,1.91,-0.43,0.85,1.06,1.28,1.91,3.62,2.77,4.68,5.96,6.17,6.81,7.02,6.81,,,,,,,,,,,,,,
1799999990029970030,2027-01-15T07:59:50.029970030Z,0.64,0.21,0.64,0.43,1.06,1.49,2.77,2.77,4.89,5.32,5.74,6.38,7.02,7.45,,,,,,,,,,,,,,
1799999990039960040,2027-01-15T07:59:50.039960040Z,-0.85,0.21,1.70,0.64,1.28,1.28,2.34,3.83,3.83,4.68,5.74,6.60,6.17,8.09,,,,,,,,,,,,,,
1799999990049950050,2027-01-15T07:59:50.049950050Z,0.00,0.00,0.21,0.21,1.28,1.70,3.62,4.26,4.68,4.89,6.17,7.23,7.02,6.81,,,,,,,,,,,,,,
1799999990059940060,2027-01-15T07:59:50.059940060Z,-0.21,-0.64,-0.64,-0.21,1.49,1.49,4.26,3.40,5.32,5.53,5.74,6.17,7.66,6.38,,,,,,,,,,,,,,
1799999990069930070,2027-01-15T07:59:50.069930070Z,-1.49,-2.77,0.64,-1.49,2.98,1.28,3.62,2.34,5.96,7.02,5.32,5.11,8.51,7.66,,,,,,,,,,,,,,
1799999990079920080,2027-01-15T07:59:50.079920080Z,-2.13,-1.91,-0.21,-0.43,3.40,2.13,2.98,1.49,5.32,5.96,5.96,6.17,8.94,8.30,,,,,,,,,,,,,,
1799999990089910090,2027-01-15T07:59:50.089910090Z,0.00,1.49,-0.85,2.13,2.55,2.13,1.91,2.98,4.26,4.68,6.38,5.96,8.94,9.15,,,,,,,,,,,,,,
1799999990099900100,2027-01-15T07:59:50.099900100Z,-1.06,1.70,-0.43,2.13,2.55,1.49,2.13,3.62,3.62,4.47,5.53,6.17,8.94,9.57,,,,,,,,,,,,,,
1799999990109890110,2027-01-15T07:59:50.109890110Z,-0.64,-0.85,-0.64,-0.43,1.91,0.85,1.28,3.19,2.77,4.68,4.04,7.66,7.87,8.72,,,,,,,,,,,,,,
1799999990119880120,2027-01-15T07:59:50.119880120Z,0.00,-0.64,0.00,-0.21,1.06,0.85,1.28,3.62,2.34,3.62,4.89,6.38,6.17,8.51,,,,,,,,,,,,,,
1799999990129870130,2027-01-15T07:59:50.129870130Z,-1.49,-0.85,0.00,0.64,3.83,1.91,4.04,4.47,2.77,2.77,4.47,5.74,5.53,7.45,,,,,,,,,,,,,,
1799999990139860140,2027-01-15T07:59:50.139860140Z,-2.98,-0.85,-0.85,0.43,4.26,2.13,4.68,4.26,2.98,2.34,5.11,6.60,5.53,6.60,,,,,,,,,,,,,,
1799999990149850150,2027-01-15T07:59:50.149850150Z,-3.40,0.00,-2.55,0.21,-1.06,2.55,2.77,3.19,2.55,2.13,5.53,8.30,7.02,6.38,,,,,,,,,,,,,,
1799999990159840160,2027-01-15T07:59:50.159840160Z,-2.77,-0.43,-2.98,-0.21,0.21,3.19,2.34,4.68,4.89,3.40,4.89,8.09,7.23,6.60,,,,,,,,,,,,,,
1799999990169830170,2027-01-15T07:59:50.169830170Z,1.06,-0.85,-2.98,-0.64,2.55,3.40,2.13,3.83,6.17,4.04,4.89,7.87,6.81,7.02,,,,,,,,,,,,,,
1799999990179820180,2027-01-15T07:59:50.179820180Z,-0.43,0.00,-2.77,-0.64,1.28,2.13,1.49,2.34,6.38,4.89,4.26,7.45,5.53,7.66,,,,,,,,,,,,,,
1799999990189810190,2027-01-15T07:59:50.189810190Z,0.00,-1.28,-2.55,-0.85,1.49,3.19,2.55,5.11,4.26,4.68,3.40,6.60,6.38,8.72,,,,,,,,,,,,,,
1799999990199800200,2027-01-15T07:59:50.199800200Z,-0.43,-2.55,-0.43,-1.49,0.85,4.47,1.70,4.04,2.98,4.26,5.11,5.53,8.30,6.17,,,,,,,,,,,,,,
1799999990209790210,2027-01-15T07:59:50.209790210Z,1.06,-2.13,0.43,-0.64,0.64,4.47,1.28,2.98,2.77,3.62,5.11,6.17,7.02,4.89,,,,,,,,,,,,,,
1799999990219780220,2027-01-15T07:59:50.219780220Z,-0.21,-1.06,0.85,1.28,2.13,5.11,1.06,2.77,2.77,2.98,4.26,5.53,4.47,7.66,,,,,,,,,,,,,,
1799999990229770230,2027-01-15T07:59:50.229770230Z,1.28,-1.49,0.64,2.34,1.28,2.98,2.13,2.13,4.68,4.26,5.96,3.83,5.53,7.02,,,,,,,,,,,,,,
1799999990239760240,2027-01-15T07:59:50.239760240Z,-0.85,-1.49,1.06,2.34,0.43,1.49,2.34,2.13,5.32,4.47,5.96,4.04,6.38,6.38,,,,,,,,,,,,,,
1799999990249750250,2027-01-15T07:59:50.249750250Z,-0.21,-0.43,0.43,1.49,0.00,2.98,1.91,1.49,5.11,4.89,5.53,5.74,6.17,8.09,,,,,,,,,,,,,,
1799999990259740260,2027-01-15T07:59:50.259740260Z,-0.64,-0.64,-0.64,0.85,1.28,1.91,1.91,2.98,3.83,5.74,5.96,5.96,5.11,7.87,,,,,,,,,,,,,,
1799999990269730270,2027-01-15T07:59:50.269730270Z,-1.06,-1.49,1.70,1.06,0.43,-0.21,1.91,4.68,2.98,5.74,4.26,7.66,7.87,8.09,,,,,,,,,,,,,,
1799999990279720280,2027-01-15T07:59:50.279720280Z,-1.91,-3.19,1.06,0.85,-0.21,-1.06,2.13,4.04,2.77,5.74,4.89,7.87,9.57,8.51,,,,,,,,,,,,,,
1799999990289710290,2027-01-15T07:59:50.289710290Z,0.21,-4.26,-0.85,0.00,0.00,0.00,2.13,3.62,2.98,4.89,6.60,6.60,7.87,8.51,,,,,,,,,,,,,,
1799999990299700300,2027-01-15T07:59:50.299700300Z,0.21,-1.49,0.00,0.43,1.91,1.49,1.91,3.62,3.19,4.04,5.53,4.47,6.38,7.45,,,,,,,,,,,,,,
1799999990309690310,2027-01-15T07:59:50.309690310Z,-2.55,-1.49,-0.21,0.21,2.77,2.13,2.13,3.62,3.19,4.47,5.53,5.11,6.38,7.66,,,,,,,,,,,,,,
1799999990319680320,2027-01-15T07:59:50.319680320Z,-0.21,-1.06,-0.43,-1.28,3.83,1.49,2.55,2.98,2.98,5.11,6.60,7.02,6.60,8.72,,,,,,,,,,,,,,
1799999990329670330,2027-01-15T07:59:50.329670330Z,0.21,0.64,0.21,-1.06,2.34,3.19,3.40,3.83,2.13,4.68,6.60,7.23,5.96,8.30,,,,,,,,,,,,,,
1799999990339660340,2027-01-15T07:59:50.339660340Z,-1.70,1.70,-0.21,-0.43,0.64,5.74,3.40,4.47,2.77,5.11,5.53,5.96,5.74,7.23,,,,,,,,,,,,,,
1799999990349650350,2027-01-15T07:59:50.349650350Z,0.00,0.64,0.64,0.85,0.85,4.26,3.40,3.62,1.91,5.32,5.53,4.89,5.96,7.02,,,,,,,,,,,,,,
1799999990359640360,2027-01-15T07:59:50.359640360Z,-0.21,0.85,1.49,2.55,1.28,1.49,2.34,2.34,0.21,4.68,5.32,3.19,5.74,7.02,,,,,,,,,,,,,,
1799999990369630370,2027-01-15T07:59:50.369630370Z,-0.64,3.40,-0.21,1.70,1.49,2.55,1.70,2.98,1.06,4.04,5.74,4.68,5.11,7.87,,,,,,,,,,,,,,
1799999990379620380,2027-01-15T07:59:50.379620380Z,0.64,3.40,-1.49,0.21,1.06,1.06,2.98,2.34,1.28,4.04,5.96,5.74,5.53,6.81,,,,,,,,,,,,,,
1799999990389610390,2027-01-15T07:59:50.389610390Z,-1.06,1.06,-2.13,0.43,1.70,2.77,3.19,3.19,2.13,4.04,5.74,5.74,5.74,6.38,,,,,,,,,,,,,,
1799999990399600400,2027-01-15T07:59:50.399600400Z,-0.43,-0.85,-2.98,0.85,2.34,5.32,2.77,5.11,4.04,4.89,5.32,7.02,7.23,7.23,,,,,,,,,,,,,,
1799999990409590410,2027-01-15T07:59:50.409590410Z,-0.85,-1.06,-1.28,-0.43,0.43,2.34,3.19,4.89,5.11,4.47,3.83,7.23,5.96,8.30,,,,,,,,,,,,,,
1799999990419580420,2027-01-15T07:59:50.419580420Z,0.21,-1.06,0.43,-0.43,-0.21,0.21,2.98,3.62,4.68,3.83,3.40,6.81,5.32,8.09,,,,,,,,,,,,,,
1799999990429570430,2027-01-15T07:59:50.429570430Z,-0.21,1.28,1.70,0.64,1.28,1.49,2.13,2.77,4.89,4.47,4.68,5.11,6.60,8.51,,,,,,,,,,,,,,
1799999990439560440,2027-01-15T07:59:50.439560440Z,-0.43,1.91,1.70,1.06,2.55,3.62,2.77,2.34,6.17,5.32,5.32,4.47,8.30,8.30,,,,,,,,,,,,,,
1799999990449550450,2027-01-15T07:59:50.449550450Z,-0.21,-0.64,1.49,0.85,1.28,2.34,3.40,3.62,5.32,4.47,5.53,6.38,6.17,8.30,,,,,,,,,,,,,,
1799999990459540460,2027-01-15T07:59:50.459540460Z,-0.85,-0.64,1.70,0.64,0.64,1.70,3.62,4.47,4.26,4.47,5.32,7.02,5.32,8.72,,,,,,,,,,,,,,
1799999990469530470,2027-01-15T07:59:50.469530470Z,-1.49,0.64,0.85,0.43,0.64,0.85,4.26,5.11,2.98,5.32,4.47,6.81,4.68,8.30,,,,,,,,,,,,,,
1799999990479520480,2027-01-15T07:59:50.479520480Z,-1.28,-0.43,-1.28,0.00,1.91,0.85,3.40,4.26,1.91,4.89,4.47,5.74,4.89,6.17,,,,,,,,,,,,,,
1799999990489510490,2027-01-15T07:59:50.489510490Z,-2.98,-1.06,-1.49,-0.21,1.28,1.28,2.55,4.26,2.55,4.47,5.74,6.81,4.89,6.38,,,,,,,,,,,,,,
1799999990499500500,2027-01-15T07:59:50.499500500Z,-2.55,-1.49,-0.64,0.43,0.64,2.55,1.70,3.62,4.04,3.62,7.45,8.51,5.11,6.60,,,,,,,,,,,,,,
1799999990509490510,2027-01-15T07:59:50.509490510Z,-2.34,-1.91,-1.49,0.64,1.91,3.62,2.13,3.19,3.40,4.04,7.87,7.66,8.30,4.47,,,,,,,,,,,,,,
1799999990519480520,2027-01-15T07:59:50.519480520Z,,0.00,-0.85,0.64,1.28,1.06,2.77,4.47,3.83,5.11,5.74,6.81,8.51,5.53,,,,,,,,,,,,,,
1799999990529470530,2027-01-15T07:59:50.529470530Z,-0.21,-0.64,-0.21,1.06,2.13,0.64,3.19,4.26,4.47,4.89,5.32,6.60,7.23,6.81,,,,,,,,,,,,,,
1799999990539460540,2027-01-15T07:59:50.539460540Z,-0.43,-4.04,-0.21,0.85,4.47,4.47,2.77,2.98,3.83,5.11,6.81,5.96,3.40,7.02,,,,,,,,,,,,,,
1799999990549450550,2027-01-15T07:59:50.549450550Z,-0.43,-2.98,-1.06,0.00,2.34,4.68,2.34,4.89,4.26,6.60,5.32,6.38,4.89,7.66,,,,,,,,,,,,,,
1799999990559440560,2027-01-15T07:59:50.559440560Z,-2.98,-1.91,-0.43,0.00,0.64,3.40,3.19,5.11,4.47,6.38,4.26,6.17,4.89,7.45,,,,,,,,,,,,,,
1799999990569430570,2027-01-15T07:59:50.569430570Z,2.55,-3.19,-0.21,-1.06,1.49,1.49,4.68,2.13,4.26,5.53,5.32,6.17,6.60,6.60,,,,,,,,,,,,,,
1799999990579420580,2027-01-15T07:59:50.579420580Z,-1.06,-1.28,-2.13,-1.28,0.85,1.49,2.77,1.91,3.62,5.74,5.96,6.60,8.94,6.17,,,,,,,,,,,,,,
1799999990589410590,2027-01-15T07:59:50.589410590Z,-1.70,1.06,-1.49,1.49,1.28,2.34,2.55,3.40,2.98,4.89,5.74,6.17,7.87,6.60,,,,,,,,,,,,,,
1799999990599400600,2027-01-15T07:59:50.599400600Z,-2.98,-0.21,-0.43,0.43,1.70,3.19,2.34,3.19,2.98,4.68,4.89,6.60,6.17,5.96,,,,,,,,,,,,,,
1799999990609390610,2027-01-15T07:59:50.609390610Z,0.43,-2.77,1.06,-2.13,1.06,3.19,1.28,2.13,3.40,5.32,4.47,7.23,4.89,6.17,,,,,,,,,,,,,,
1799999990619380620,2027-01-15T07:59:50.619380620Z,-0.21,-2.13,1.06,-0.21,-0.21,2.34,1.70,2.98,3.83,4.68,5.32,6.17,6.17,8.09,,,,,,,,,,,,,,
1799999990629370630,2027-01-15T07:59:50.629370630Z,-0.43,-0.43,1.49,2.34,0.43,1.49,2.55,4.26,4.26,4.47,5.11,5.74,6.81,7.45,,,,,,,,,,,,,,
1799999990639360640,2027-01-15T07:59:50.639360640Z,-1.06,0.21,1.91,3.62,0.85,1.28,3.19,3.83,4.04,4.26,5.11,6.38,7.23,6.81,,,,,,,,,,,,,,
1799999990649350650,2027-01-15T07:59:50.649350650Z,-0.85,-0.21,1.49,3.40,0.00,2.13,3.19,1.91,4.26,5.11,6.17,6.38,7.45,8.30,,,,,,,,,,,,,,
1799999990659340660,2027-01-15T07:59:50.659340660Z,-1.49,1.49,-0.64,1.06,0.00,3.40,2.34,1.91,4.89,6.81,5.74,5.32,5.96,8.30,,,,,,,,,,,,,,
1799999990669330670,2027-01-15T07:59:50.669330670Z,-1.91,1.49,0.85,0.43,0.43,4.26,2.98,2.55,4.68,6.60,6.17,5.53,5.32,7.66,,,,,,,,,,,,,,
1799999990679320680,2027-01-15T07:59:50.679320680Z,-1.70,-1.70,3.40,0.64,0.64,4.04,2.55,1.70,5.11,5.74,7.45,5.53,6.17,6.38,,,,,,,,,,,,,,
1799999990689310690,2027-01-15T07:59:50.689310690Z,0.64,-1.49,1.91,0.00,1.70,2.34,-0.21,1.28,5.11,5.32,6.60,4.89,6.81,4.26,,,,,,,,,,,,,,
1799999990699300700,2027-01-15T07:59:50.699300700Z,0.21,-1.06,1.06,1.28,1.49,2.98,1.28,0.64,5.96,4.68,7.23,5.74,6.81,6.17,,,,,,,,,,,,,,
1799999990709290710,2027-01-15T07:59:50.709290710Z,-1.91,-1.06,-0.21,2.34,1.06,2.34,1.70,0.85,5.32,4.68,8.09,4.89,5.96,7.66,,,,,,,,,,,,,,
1799999990719280720,2027-01-15T07:59:50.719280720Z,0.64,0.00,-1.91,2.55,0.00,0.00,0.00,0.85,3.19,4.26,7.87,4.26,5.11,6.38,,,,,,,,,,,,,,
1799999990729270730,2027-01-15T07:59:50.729270730Z,-0.43,-1.28,-1.49,0.85,0.00,0.21,2.34,1.06,2.77,4.26,5.74,6.60,6.38,7.45,,,,,,,,,,,,,,
1799999990739260740,2027-01-15T07:59:50.739260740Z,0.00,-1.06,-1.91,-0.21,0.85,1.06,3.40,1.28,2.77,4.89,5.32,6.81,7.02,8.51,,,,,,,,,,,,,,
1799999990749250750,2027-01-15T07:59:50.749250750Z,-0.85,0.85,-2.77,-1.06,2.13,2.98,1.06,1.70,3.83,6.17,5.32,5.96,6.38,7.02,,,,,,,,,,,,,,
1799999990759240760,2027-01-15T07:59:50.759240760Z,0.85,0.64,-1.91,-0.43,2.77,2.34,1.70,2.34,4.04,5.74,5.11,6.60,7.87,7.45,,,,,,,,,,,,,,
1799999990769230770,2027-01-15T07:59:50.769230770Z,-0.43,0.85,-1.91,0.85,2.13,3.19,2.55,2.98,1.70,4.68,4.26,6.60,7.02,6.38,,,,,,,,,,,,,,
1799999990779220780,2027-01-15T07:59:50.779220780Z,-1.70,-0.43,-0.43,1.28,1.28,3.62,2.34,4.04,2.77,4.26,4.04,6.17,6.38,5.74,,,,,,,,,,,,,,
1799999990789210790,2027-01-15T07:59:50.789210790Z,-5.11,-1.91,1.28,0.21,0.00,2.77,4.26,4.89,4.04,3.40,4.04,7.23,5.96,6.81,,,,,,,,,,,,,,
1799999990799200800,2027-01-15T07:59:50.799200800Z,-1.91,-0.43,0.21,-1.28,0.21,1.70,5.53,3.62,3.40,2.55,4.47,6.81,5.53,5.53,,,,,,,,,,,,,,
1799999990809190810,2027-01-15T07:59:50.809190810Z,-1.06,-1.06,0.21,-1.06,0.43,0.85,5.32,3.19,3.83,2.98,5.11,6.60,4.89,6.17,,,,,,,,,,,,,,
1799999990819180820,2027-01-15T07:59:50.819180820Z,-2.55,-4.04,-1.28,-0.21,0.43,0.85,5.53,2.13,4.68,4.68,6.81,6.60,5.32,8.09,,,,,,,,,,,,,,
1799999990829170830,2027-01-15T07:59:50.829170830Z,0.85,-4.04,-1.70,0.21,1.49,2.55,5.32,1.91,3.83,5.32,6.60,6.60,5.96,6.81,,,,,,,,,,,,,,
1799999990839160840,2027-01-15T07:59:50.839160840Z,1.28,-1.28,0.43,0.85,0.85,1.49,3.83,2.13,5.32,4.26,5.32,5.53,6.38,7.02,,,,,,,,,,,,,,
1799999990849150850,2027-01-15T07:59:50.849150850Z,-1.28,-0.64,0.85,0.43,0.43,2.13,4.26,1.91,4.04,3.19,4.68,5.53,7.87,7.45,,,,,,,,,,,,,,
1799999990859140860,2027-01-15T07:59:50.859140860Z,-2.13,0.00,-0.64,1.06,-0.43,1.70,4.89,2.34,1.49,2.55,4.26,5.53,9.36,5.53,,,,,,,,,,,,,,
1799999990869130870,2027-01-15T07:59:50.869130870Z,0.21,0.21,-2.13,2.55,-0.64,-1.06,3.83,1.91,2.13,4.68,4.47,4.68,8.09,5.11,,,,,,,,,,,,,,
1799999990879120880,2027-01-15T07:59:50.879120880Z,0.21,-1.70,-0.85,0.64,1.91,0.85,4.47,3.83,4.47,6.38,4.89,6.17,7.87,7.02,,,,,,,,,,,,,,
1799999990889110890,2027-01-15T07:59:50.889110890Z,-0.85,-0.21,-0.64,-0.43,2.77,1.28,4.26,4.26,5.32,5.74,4.89,6.38,8.30,7.87,,,,,,,,,,,,,,
1799999990899100900,2027-01-15T07:59:50.899100900Z,-1.28,1.49,-1.91,-0.64,1.06,-1.49,2.77,2.55,4.47,4.26,5.96,4.68,7.45,7.02,,,,,,,,,,,,,,
1799999990909090910,2027-01-15T07:59:50.909090910Z,-0.64,0.43,-0.43,1.06,-0.43,-0.64,2.34,2.98,3.19,4.47,5.96,5.11,5.96,7.87,,,,,,,,,,,,,,
1799999990919080920,2027-01-15T07:59:50.919080920Z,-1.28,0.43,-0.85,2.34,-0.64,0.43,2.55,3.62,4.47,4.26,5.53,5.74,5.32,8.30,,,,,,,,,,,,,,
1799999990929070930,2027-01-15T07:59:50.929070930Z,0.00,-0.43,-3.40,2.55,1.06,1.49,2.77,3.40,7.02,3.40,6.81,5.74,5.74,7.45,,,,,,,,,,,,,,
1799999990939060940,2027-01-15T07:59:50.939060940Z,-0.64,1.06,-1.91,1.28,2.77,3.19,3.83,2.34,6.60,4.89,6.38,4.89,5.96,6.38,,,,,,,,,,,,,,
1799999990949050950,2027-01-15T07:59:50.949050950Z,1.28,1.06,0.85,1.49,1.49,2.34,4.68,3.83,3.83,5.53,4.89,5.74,5.74,6.81,,,,,,,,,,,,,,
1799999990959040960,2027-01-15T07:59:50.959040960Z,-0.64,0.85,0.43,0.00,1.70,1.70,4.68,4.04,3.83,4.89,4.04,6.17,6.60,7.45,,,,,,,,,,,,,,
1799999990969030970,2027-01-15T07:59:50.969030970Z,-0.43,0.85,-0.85,-2.13,2.55,1.49,4.89,2.34,4.47,3.62,4.04,5.96,7.23,7.87,,,,,,,,,,,,,,
1799999990979020980,2027-01-15T07:59:50.979020980Z,-0.43,0.21,0.21,-1.06,0.64,0.43,4.47,3.40,3.62,3.83,3.40,6.60,6.38,7.23,,,,,,,,,,,,,,
1799999990989010990,2027-01-15T07:59:50.989010990Z,1.06,0.00,-0.43,-0.43,0.85,1.91,3.83,4.89,4.68,3.83,3.62,7.02,6.60,6.60,,,,,,,,,,,,,,
1799999990999001000,2027-01-15T07:59:50.999001000Z,1.49,2.13,0.00,1.06,1.49,4.68,2.55,3.83,6.38,3.83,5.11,6.81,6.60,5.32,,,,,,,,,,,,,,
1799999991008991009,2027-01-15T07:59:51.008991009Z,3.40,3.62,1.70,2.55,0.43,3.83,1.91,2.55,5.74,4.47,5.96,6.38,6.38,7.02,,,,,,,,,,,,,,
1799999991018981019,2027-01-15T07:59:51.018981019Z,-3.19,2.13,0.85,1.91,2.34,4.68,2.77,1.49,5.32,4.68,5.74,5.53,7.23,8.51,,,,,,,,,,,,,,
1799999991028971029,2027-01-15T07:59:51.028971029Z,-1.49,1.91,-0.21,1.70,1.91,3.83,1.91,1.70,5.32,4.47,5.11,5.74,7.23,8.30,,,,,,,,,,,,,,
1799999991038961039,2027-01-15T07:59:51.038961039Z,-2.77,0.00,-0.43,1.70,-0.43,-1.06,1.06,2.98,4.47,4.68,3.62,5.53,7.23,7.23,,,,,,,,,,,,,,
1799999991048951049,2027-01-15T07:59:51.048951049Z,-1.49,-2.77,-1.06,0.64,0.43,-0.43,1.91,2.98,2.98,5.11,4.89,4.68,11.49,7.45,,,,,,,,,,,,,,
1799999991058941059,2027-01-15T07:59:51.058941059Z,-2.34,-2.55,0.00,0.21,-0.64,1.28,1.28,2.55,2.77,4.89,6.17,4.89,12.34,7.87,,,,,,,,,,,,,,
1799999991068931069,2027-01-15T07:59:51.068931069Z,-0.21,-1.28,1.91,0.00,-2.77,2.55,0.85,2.77,2.13,5.11,5.11,5.74,6.60,9.36,,,,,,,,,,,,,,
1799999991078921079,2027-01-15T07:59:51.078921079Z,-4.04,-2.77,0.21,-0.21,-1.28,3.83,2.34,2.77,4.04,4.89,5.53,6.60,3.62,9.79,,,,,,,,,,,,,,
1799999991088911089,2027-01-15T07:59:51.088911089Z,-0.64,-4.26,-0.43,0.21,1.49,3.62,2.34,3.62,4.89,5.11,4.68,6.60,5.11,10.43,,,,,,,,,,,,,,
1799999991098901099,2027-01-15T07:59:51.098901099Z,-0.64,-4.89,-0.64,1.06,1.49,2.98,2.55,4.04,4.26,5.32,5.11,5.53,6.38,9.36,,,,,,,,,,,,,,
1799999991108891109,2027-01-15T07:59:51.108891109Z,-3.40,-6.17,-1.28,0.64,0.43,1.70,2.55,5.32,2.98,5.32,6.60,5.32,7.66,7.87,,,,,,,,,,,,,,
1799999991118881119,2027-01-15T07:59:51.118881119Z,-5.74,-4.47,-1.91,-1.49,1.49,-0.43,1.28,6.60,1.70,4.47,6.38,6.81,7.66,7.45,,,,,,,,,,,,,,
1799999991128871129,2027-01-15T07:59:51.128871129Z,-5.32,-1.91,-2.13,-1.28,2.77,0.43,1.49,4.04,2.55,4.04,4.26,7.23,6.60,7.23,,,,,,,,,,,,,,
1799999991138861139,2027-01-15T07:59:51.138861139Z,-4.04,-1.70,-2.34,-1.49,1.91,1.06,1.06,5.74,2.77,3.83,3.83,7.23,6.60,7.02,,,,,,,,,,,,,,
1799999991148851149,2027-01-15T07:59:51.148851149Z,-5.53,-3.83,-2.13,-1.06,0.21,0.00,0.00,7.87,3.19,4.26,5.53,6.38,7.02,7.45,,,,,,,,,,,,,,
1799999991158841159,2027-01-15T07:59:51.158841159Z,-5.11,-3.62,-1.06,-0.64,0.85,2.13,2.34,3.83,4.47,4.89,7.45,5.96,6.17,8.09,,,,,,,,,,,,,,
1799999991168831169,2027-01-15T07:59:51.168831169Z,-3.83,-2.98,-1.28,-0.85,1.49,4.04,3.83,2.13,5.11,5.96,6.81,6.60,4.89,7.87,,,,,,,,,,,,,,
1799999991178821179,2027-01-15T07:59:51.178821179Z,-2.34,-1.49,-1.28,-1.70,2.34,2.77,3.19,3.40,4.89,7.02,4.68,7.23,4.89,8.09,,,,,,,,,,,,,,
1799999991188811189,2027-01-15T07:59:51.188811189Z,-1.70,0.43,0.00,-1.06,4.04,3.40,2.34,4.47,3.83,6.38,4.68,7.87,7.23,8.09,,,,,,,,,,,,,,
1799999991198801199,2027-01-15T07:59:51.198801199Z,2.77,-0.64,-0.85,0.64,3.19,2.77,1.49,4.04,4.68,7.02,6.38,6.17,7.02,6.60,,,,,,,,,,,,,,
1799999991208791209,2027-01-15T07:59:51.208791209Z,0.21,-1.06,-0.21,1.49,2.13,1.28,1.91,3.62,4.04,7.23,6.81,5.53,6.38,7.02,,,,,,,,,,,,,,
1799999991218781219,2027-01-15T07:59:51.218781219Z,0.21,2.34,-0.43,1.49,2.34,-1.49,2.77,4.26,2.98,5.11,5.96,6.60,7.87,8.72,,,,,,,,,,,,,,
1799999991228771229,2027-01-15T07:59:51.228771229Z,0.85,4.47,-2.13,1.91,2.77,-0.85,2.55,2.98,4.04,3.40,6.60,7.66,5.96,8.30,,,,,,,,,,,,,,
1799999991238761239,2027-01-15T07:59:51.238761239Z,1.91,4.04,-0.64,2.34,1.28,-0.85,2.34,2.34,3.83,3.19,6.60,7.66,5.32,8.30,,,,,,,,,,,,,,
1799999991248751249,2027-01-15T07:59:51.248751249Z,1.91,3.62,3.19,1.91,-0.21,1.49,1.28,3.83,3.40,3.19,5.53,6.17,5.96,8.72,,,,,,,,,,,,,,
1799999991258741259,2027-01-15T07:59:51.258741259Z,1.49,4.04,2.55,0.00,1.49,4.26,1.49,4.26,3.62,4.47,5.96,5.96,4.47,7.66,,,,,,,,,,,,,,
1799999991268731269,2027-01-15T07:59:51.268731269Z,,1.06,1.28,0.00,2.98,2.98,2.77,2.77,3.19,4.26,5.11,7.66,5.32,7.87,,,,,,,,,,,,,,
1799999991278721279,2027-01-15T07:59:51.278721279Z,0.64,0.00,0.43,1.49,2.55,1.49,3.19,2.55,3.40,3.83,5.11,7.23,5.53,7.02,,,,,,,,,,,,,,
1799999991288711289,2027-01-15T07:59:51.288711289Z,-1.70,0.00,-0.21,3.19,0.43,0.43,2.55,2.34,3.40,4.26,5.53,5.11,4.68,4.47,,,,,,,,,,,,,,
1799999991298701299,2027-01-15T07:59:51.298701299Z,-2.34,-2.13,0.43,2.13,0.00,2.34,4.68,2.34,2.34,3.40,5.74,6.38,6.81,5.53,,,,,,,,,,,,,,
1799999991308691309,2027-01-15T07:59:51.308691309Z,2.34,-1.06,0.43,1.28,0.00,2.55,5.32,2.77,2.34,3.62,5.32,7.23,6.38,6.60,,,,,,,,,,,,,,
1799999991318681319,2027-01-15T07:59:51.318681319Z,-0.64,1.49,0.85,2.34,0.21,0.85,3.19,3.83,2.77,3.62,3.62,7.23,4.89,7.45,,,,,,,,,,,,,,
1799999991328671329,2027-01-15T07:59:51.328671329Z,-1.28,-0.85,0.85,1.70,1.06,0.85,2.13,4.04,4.04,3.62,4.04,5.96,5.74,6.38,,,,,,,,,,,,,,
1799999991338661339,2027-01-15T07:59:51.338661339Z,-1.06,-0.21,2.55,0.64,3.19,3.62,1.49,2.98,3.40,4.68,5.74,5.53,6.38,7.02,,,,,,,,,,,,,,
1799999991348651349,2027-01-15T07:59:51.348651349Z,-0.21,0.85,3.19,1.28,3.62,5.11,1.49,2.55,3.19,5.11,5.74,6.17,6.38,8.09,,,,,,,,,,,,,,
1799999991358641359,2027-01-15T07:59:51.358641359Z,-0.43,0.43,1.49,2.34,2.34,3.83,2.13,2.77,2.98,4.68,6.81,7.23,5.96,8.30,,,,,,,,,,,,,,
1799999991368631369,2027-01-15T07:59:51.368631369Z,-0.43,1.49,0.21,1.06,2.13,2.34,2.55,2.98,3.62,4.47,8.72,7.02,6.81,7.66,,,,,,,,,,,,,,
1799999991378621379,2027-01-15T07:59:51.378621379Z,2.77,1.49,0.64,1.28,3.40,0.43,1.49,1.28,3.19,5.11,6.81,4.68,8.09,5.96,,,,,,,,,,,,,,
1799999991388611389,2027-01-15T07:59:51.388611389Z,2.55,1.49,-0.43,1.49,3.40,1.28,1.91,1.28,3.40,4.47,5.32,4.89,7.87,7.45,,,,,,,,,,,,,,
1799999991398601399,2027-01-15T07:59:51.398601399Z,1.91,2.13,-1.70,2.34,3.40,2.77,3.40,1.06,4.04,2.98,5.32,7.45,6.38,8.94,,,,,,,,,,,,,,
1799999991408591409,2027-01-15T07:59:51.408591409Z,4.04,4.89,-0.21,2.13,2.77,0.64,3.19,1.91,3.40,3.19,5.96,6.17,6.60,6.60,,,,,,,,,,,,,,
1799999991418581419,2027-01-15T07:59:51.418581419Z,5.96,4.47,-0.64,3.19,2.13,0.85,3.83,1.06,4.04,3.83,5.74,5.11,7.23,5.96,,,,,,,,,,,,,,
1799999991428571429,2027-01-15T07:59:51.428571429Z,2.98,1.49,-2.77,5.32,1.70,1.70,3.83,-0.21,5.53,4.04,4.89,5.32,8.09,5.96,,,,,,,,,,,,,,
1799999991438561439,2027-01-15T07:59:51.438561439Z,0.85,-0.43,-1.70,3.83,1.06,0.21,1.91,0.64,4.89,4.68,5.74,4.89,8.30,6.60,,,,,,,,,,,,,,
1799999991448551449,2027-01-15T07:59:51.448551449Z,0.00,-0.21,0.64,1.28,1.49,1.28,1.49,2.98,4.04,4.04,7.02,6.38,7.87,7.02,,,,,,,,,,,,,,
1799999991458541459,2027-01-15T07:59:51.458541459Z,0.21,0.00,-0.85,1.28,0.64,1.28,1.06,3.83,3.83,3.40,6.38,7.02,7.23,8.09,,,,,,,,,,,,,,
1799999991468531469,2027-01-15T07:59:51.468531469Z,-1.28,-2.13,-2.13,0.64,-0.43,1.70,0.85,2.34,4.68,4.04,5.96,5.74,5.53,7.45,,,,,,,,,,,,,,
1799999991478521479,2027-01-15T07:59:51.478521479Z,-1.28,-1.28,0.43,1.28,0.21,4.26,2.55,2.34,3.40,5.32,7.02,5.53,5.11,4.89,,,,,,,,,,,,,,
1799999991488511489,2027-01-15T07:59:51.488511489Z,-1.70,-1.70,-0.64,1.70,0.00,2.98,2.55,3.62,3.40,4.68,6.17,5.96,5.32,5.96,,,,,,,,,,,,,,
1799999991498501499,2027-01-15T07:59:51.498501499Z,-4.47,-2.77,-3.19,1.91,0.00,1.28,2.34,4.89,5.74,3.62,4.04,7.45,5.53,8.09,,,,,,,,,,,,,,
1799999991508491509,2027-01-15T07:59:51.508491509Z,-3.40,-2.34,-2.34,0.43,1.28,3.19,2.77,4.89,5.74,4.47,4.26,7.45,5.74,6.17,,,,,,,,,,,,,,
1799999991518481519,2027-01-15T07:59:51.518481519Z,-3.83,-3.19,-0.21,0.43,1.49,0.64,2.13,4.04,3.83,4.47,4.04,6.38,5.74,5.74,,,,,,,,,,,,,,
1799999991528471529,2027-01-15T07:59:51.528471529Z,-5.11,-5.32,0.43,0.43,1.28,1.06,2.55,4.47,3.83,4.47,4.68,5.96,7.45,6.81,,,,,,,,,,,,,,
1799999991538461539,2027-01-15T07:59:51.538461539Z,-8.09,-8.09,0.64,-2.98,1.06,2.55,4.04,5.32,6.38,4.68,5.53,6.17,8.94,8.09,,,,,,,,,,,,,,
1799999991548451549,2027-01-15T07:59:51.548451549Z,-5.96,-6.17,-0.43,-3.83,1.06,1.70,3.40,3.83,7.45,4.04,4.47,6.60,7.23,7.66,,,,,,,,,,,,,,
1799999991558441559,2027-01-15T07:59:51.558441559Z,-4.89,-4.04,-1.28,-2.13,3.83,3.83,4.68,2.98,5.11,4.68,4.26,5.32,7.45,6.60,,,,,,,,,,,,,,
1799999991568431569,2027-01-15T07:59:51.568431569Z,-8.72,-4.04,-1.06,-2.34,3.19,4.89,5.74,3.83,3.62,4.68,4.47,4.47,6.38,6.60,,,,,,,,,,,,,,
1799999991578421579,2027-01-15T07:59:51.578421579Z,-6.81,-3.40,-0.64,-4.04,0.00,4.47,5.74,5.96,3.19,4.04,4.47,3.19,4.47,5.96,,,,,,,,,,,,,,
1799999991588411589,2027-01-15T07:59:51.588411589Z,-6.81,-4.89,-1.70,-3.62,-0.21,4.26,2.98,4.68,3.62,4.89,5.11,3.83,5.32,5.32,,,,,,,,,,,,,,
1799999991598401599,2027-01-15T07:59:51.598401599Z,-7.23,-5.74,-2.13,-2.77,1.06,3.83,2.13,6.17,4.68,5.74,5.53,4.47,5.53,5.96,,,,,,,,,,,,,,
1799999991608391609,2027-01-15T07:59:51.608391609Z,-1.28,-1.91,-1.28,-0.64,1.91,3.19,3.62,8.09,6.81,6.81,3.83,5.96,6.81,7.02,,,,,,,,,,,,,,
1799999991618381619,2027-01-15T07:59:51.618381619Z,0.00,-1.06,-0.85,-0.43,1.06,3.62,4.89,5.53,6.38,6.60,1.91,6.60,7.23,6.60,,,,,,,,,,,,,,
1799999991628371629,2027-01-15T07:59:51.628371629Z,-2.98,-0.21,0.21,-0.21,1.70,1.70,3.83,3.19,4.26,5.11,3.40,6.60,7.45,7.02,,,,,,,,,,,,,,
1799999991638361639,2027-01-15T07:59:51.638361639Z,-4.47,0.00,0.64,0.00,1.49,0.85,2.98,4.04,2.98,4.89,4.89,7.23,7.66,7.02,,,,,,,,,,,,,,
1799999991648351649,2027-01-15T07:59:51.648351649Z,-1.06,-2.34,-0.43,0.21,0.00,2.13,3.19,4.89,2.77,5.74,6.17,8.72,7.87,7.23,,,,,,,,,,,,,,
1799999991658341659,2027-01-15T07:59:51.658341659Z,0.43,-2.13,0.64,0.00,0.43,0.85,1.91,2.55,5.32,5.53,7.02,7.02,8.09,7.87,,,,,,,,,,,,,,
1799999991668331669,2027-01-15T07:59:51.668331669Z,0.85,-1.70,1.49,0.00,1.28,1.49,2.13,1.70,6.17,5.53,7.45,6.38,8.51,7.45,,,,,,,,,,,,,,
1799999991678321679,2027-01-15T07:59:51.678321679Z,-0.64,-3.40,1.91,0.00,2.13,4.89,1.70,3.19,4.68,4.89,6.60,5.74,9.15,7.23,,,,,,,,,,,,,,
1799999991688311689,2027-01-15T07:59:51.688311689Z,0.21,-3.83,0.85,-0.21,1.49,4.04,0.43,2.77,2.34,5.11,5.53,7.45,7.66,8.51,,,,,,,,,,,,,,
1799999991698301699,2027-01-15T07:59:51.698301699Z,1.70,0.21,0.43,-0.43,0.00,-0.64,1.49,3.19,4.04,4.26,6.38,7.23,6.81,8.94,,,,,,,,,,,,,,
1799999991708291709,2027-01-15T07:59:51.708291709Z,-0.43,2.34,1.06,0.85,0.21,-1.91,1.06,3.40,4.47,4.04,6.38,6.81,5.74,8.51,,,,,,,,,,,,,,
1799999991718281719,2027-01-15T07:59:51.718281719Z,1.49,2.77,1.70,1.91,0.64,-1.28,1.70,3.62,3.19,5.96,5.11,7.87,4.89,7.66,,,,,,,,,,,,,,
1799999991728271729,2027-01-15T07:59:51.728271729Z,1.91,2.98,1.06,1.70,-0.21,1.06,4.26,2.77,2.13,5.11,6.17,6.38,6.60,8.30,,,,,,,,,,,,,,
1799999991738261739,2027-01-15T07:59:51.738261739Z,1.91,3.83,1.70,2.13,-0.85,2.77,2.98,2.13,1.91,4.68,5.53,5.74,6.81,8.72,,,,,,,,,,,,,,
1799999991748251749,2027-01-15T07:59:51.748251749Z,8.30,3.83,2.13,1.91,-1.49,5.74,1.06,0.21,4.04,4.47,4.47,4.47,6.38,7.45,,,,,,,,,,,,,,
1799999991758241759,2027-01-15T07:59:51.758241759Z,7.45,3.40,1.06,0.85,0.00,3.62,4.26,0.21,6.60,2.55,6.17,3.62,6.38,6.60,,,,,,,,,,,,,,
1799999991768231769,2027-01-15T07:59:51.768231769Z,5.74,4.47,0.85,2.34,1.70,1.91,4.89,-0.64,5.96,2.98,6.81,6.38,6.38,7.02,,,,,,,,,,,,,,
1799999991778221779,2027-01-15T07:59:51.778221779Z,4.68,3.83,1.06,3.62,1.70,1.70,4.47,-1.06,5.11,3.62,5.53,8.09,5.96,6.81,,,,,,,,,,,,,,
1799999991788211789,2027-01-15T07:59:51.788211789Z,4.04,2.55,1.28,2.34,0.64,2.13,1.91,0.43,2.98,3.19,3.62,7.66,6.17,6.81,,,,,,,,,,,,,,
1799999991798201799,2027-01-15T07:59:51.798201799Z,-0.21,2.34,1.06,0.85,1.06,4.04,1.06,1.28,-0.43,4.26,5.74,7.02,7.66,6.38,,,,,,,,,,,,,,
1799999991808191809,2027-01-15T07:59:51.808191809Z,-1.06,0.43,0.64,2.13,1.91,2.98,1.49,2.55,2.77,4.68,6.38,7.02,6.17,5.32,,,,,,,,,,,,,,
1799999991818181819,2027-01-15T07:59:51.818181819Z,0.21,0.21,0.00,2.77,2.55,1.91,1.70,2.77,5.11,5.11,5.74,5.74,4.89,5.11,,,,,,,,,,,,,,
1799999991828171829,2027-01-15T07:59:51.828171829Z,-0.43,2.34,-0.43,1.28,2.77,2.98,1.06,3.19,2.34,6.17,3.83,4.04,5.32,6.38,,,,,,,,,,,,,,
1799999991838161839,2027-01-15T07:59:51.838161839Z,0.21,0.21,-0.85,1.06,1.49,1.49,2.13,2.77,3.19,5.96,5.53,6.38,5.32,8.30,,,,,,,,,,,,,,
1799999991848151849,2027-01-15T07:59:51.848151849Z,-2.13,-1.70,-1.49,0.64,2.34,1.49,1.91,2.55,3.40,4.89,6.60,6.60,5.96,8.72,,,,,,,,,,,,,,
1799999991858141859,2027-01-15T07:59:51.858141859Z,0.85,0.00,0.00,-0.43,3.40,2.98,0.00,0.85,2.55,3.62,7.87,5.74,6.60,7.45,,,,,,,,,,,,,,
1799999991868131869,2027-01-15T07:59:51.868131869Z,0.43,1.06,-1.06,1.06,1.91,2.34,0.43,0.00,5.74,4.04,7.23,7.02,5.96,7.66,,,,,,,,,,,,,,
1799999991878121879,2027-01-15T07:59:51.878121879Z,-0.21,0.64,-2.55,1.28,1.49,2.13,2.13,1.70,5.53,3.83,5.53,5.74,5.53,8.94,,,,,,,,,,,,,,
1799999991888111889,2027-01-15T07:59:51.888111889Z,1.06,1.49,-1.91,0.21,0.85,0.64,3.19,2.98,4.04,4.47,5.32,5.74,5.96,8.30,,,,,,,,,,,,,,
1799999991898101899,2027-01-15T07:59:51.898101899Z,0.21,0.21,-1.70,-1.91,0.00,-0.21,3.62,4.04,2.77,4.89,5.96,7.66,6.81,6.60,,,,,,,,,,,,,,
1799999991908091909,2027-01-15T07:59:51.908091909Z,-2.98,-2.13,-2.34,-0.43,1.06,1.49,4.47,6.17,4.68,4.04,4.47,7.23,5.32,6.81,,,,,,,,,,,,,,
1799999991918081919,2027-01-15T07:59:51.918081919Z,-0.64,-2.55,-2.13,0.43,0.21,2.55,4.47,5.74,6.17,4.04,4.89,7.45,4.68,6.17,,,,,,,,,,,,,,
1799999991928071929,2027-01-15T07:59:51.928071929Z,-6.81,-4.47,-1.28,-0.43,-1.28,5.74,4.68,4.89,6.60,4.26,5.96,7.66,4.26,5.11,,,,,,,,,,,,,,
1799999991938061939,2027-01-15T07:59:51.938061939Z,-7.02,-2.98,0.64,0.21,0.00,6.38,4.04,6.60,5.32,3.40,4.47,7.02,4.89,6.17,,,,,,,,,,,,,,
1799999991948051949,2027-01-15T07:59:51.948051949Z,-2.98,-1.28,0.43,-1.28,1.91,3.83,2.13,5.74,3.62,2.77,4.68,6.17,6.38,7.66,,,,,,,,,,,,,,
1799999991958041959,2027-01-15T07:59:51.958041959Z,-3.40,-1.28,-0.21,-2.34,2.55,1.06,1.49,4.68,2.77,3.19,4.89,6.38,7.23,8.30,,,,,,,,,,,,,,
1799999991968031969,2027-01-15T07:59:51.968031969Z,-5.96,-2.77,0.21,-2.13,2.13,-0.85,2.77,2.98,2.34,4.68,4.26,7.45,7.66,7.45,,,,,,,,,,,,,,
1799999991978021979,2027-01-15T07:59:51.978021979Z,-3.40,-2.98,-1.06,-0.21,-0.21,0.64,3.40,3.19,3.40,5.96,5.11,6.38,7.23,6.60,,,,,,,,,,,,,,
1799999991988011989,2027-01-15T07:59:51.988011989Z,0.21,-2.13,-1.06,-0.43,0.00,2.34,4.04,3.62,3.40,6.38,5.74,5.11,7.02,6.60,,,,,,,,,,,,,,
1799999991998001999,2027-01-15T07:59:51.998001999Z,-4.04,0.00,-1.49,-1.91,0.85,2.98,4.68,5.53,2.77,6.17,6.17,5.32,7.02,6.38,,,,,,,,,,,,,,
1799999992007992008,2027-01-15T07:59:52.007992008Z,-3.40,-1.91,-1.91,-0.64,-0.21,1.70,3.62,5.11,4.89,6.17,5.11,7.23,6.38,7.23,,,,,,,,,,,,,,
1799999992017982018,2027-01-15T07:59:52.017982018Z,-2.55,-3.83,-1.06,0.64,0.64,3.19,2.34,4.26,2.77,4.47,4.68,5.74,5.53,8.51,,,,,,,,,,,,,,
1799999992027972028,2027-01-15T07:59:52.027972028Z,-4.04,-3.19,-1.28,0.43,1.06,3.62,2.55,4.26,1.91,3.83,5.32,5.11,6.17,8.30,,,,,,,,,,,,,,
1799999992037962038,2027-01-15T07:59:52.037962038Z,-3.40,-2.55,-1.06,-0.43,0.85,0.85,3.40,4.89,1.06,5.53,5.11,6.17,7.45,8.09,,,,,,,,,,,,,,
1799999992047952048,2027-01-15T07:59:52.047952048Z,-6.81,-3.40,0.00,-0.21,1.28,0.43,4.04,3.40,1.49,6.17,4.04,5.32,6.60,8.72,,,,,,,,,,,,,,
1799999992057942058,2027-01-15T07:59:52.057942058Z,-6.38,-4.04,-0.85,0.00,0.64,-0.21,3.83,2.77,1.70,4.89,4.89,6.81,5.74,8.09,,,,,,,,,,,,,,
1799999992067932068,2027-01-15T07:59:52.067932068Z,-7.23,-4.04,-1.28,-0.21,1.49,0.00,4.26,2.98,3.62,4.68,4.89,7.02,5.96,8.09,,,,,,,,,,,,,,
1799999992077922078,2027-01-15T07:59:52.077922078Z,-7.66,-3.19,-0.21,-0.43,4.04,3.19,4.47,4.89,6.81,5.96,3.62,5.32,5.32,8.09,,,,,,,,,,,,,,
1799999992087912088,2027-01-15T07:59:52.087912088Z,-6.60,-3.19,-0.64,-0.85,3.40,2.13,3.19,5.74,4.68,4.68,4.04,5.32,5.11,7.23,,,,,,,,,,,,,,
1799999992097902098,2027-01-15T07:59:52.097902098Z,-6.60,-4.04,-0.21,-1.06,2.34,2.34,4.04,4.68,5.32,4.04,4.26,5.96,5.74,7.23,,,,,,,,,,,,,,
1799999992107892108,2027-01-15T07:59:52.107892108Z,-5.32,-3.62,1.28,-1.49,2.34,4.47,5.53,2.34,5.53,4.47,4.47,7.02,7.23,7.45,,,,,,,,,,,,,,
1799999992117882118,2027-01-15T07:59:52.117882118Z,-4.26,-2.98,1.06,-3.19,2.98,3.40,4.47,1.91,3.19,4.26,5.74,7.45,8.09,6.60,,,,,,,,,,,,,,
1799999992127872128,2027-01-15T07:59:52.127872128Z,-2.55,-2.77,-1.49,-1.06,3.40,2.13,6.17,2.98,3.62,4.26,6.17,6.38,7.02,8.09,,,,,,,,,,,,,,
1799999992137862138,2027-01-15T07:59:52.137862138Z,-2.34,-1.28,-1.91,0.00,3.62,2.34,7.23,3.19,4.47,3.83,5.53,6.17,7.45,8.72,,,,,,,,,,,,,,
1799999992147852148,2027-01-15T07:59:52.147852148Z,0.64,0.43,0.00,1.28,2.55,4.68,4.68,3.62,3.62,3.40,4.47,6.81,8.09,8.30,,,,,,,,,,,,,,
1799999992157842158,2027-01-15T07:59:52.157842158Z,0.85,0.43,0.43,-0.21,0.00,4.89,2.77,3.19,4.04,4.89,5.74,7.02,7.02,7.66,,,,,,,,,,,,,,
1799999992167832168,2027-01-15T07:59:52.167832168Z,-0.43,0.64,0.64,0.00,1.49,4.04,3.19,2.77,3.62,5.53,6.17,6.81,7.45,8.51,,,,,,,,,,,,,,
1799999992177822178,2027-01-15T07:59:52.177822178Z,3.83,1.06,1.70,1.06,4.26,1.49,2.13,2.55,3.19,4.47,5.32,5.96,8.09,10.00,,,,,,,,,,,,,,
1799999992187812188,2027-01-15T07:59:52.187812188Z,2.13,1.70,1.70,2.13,1.91,0.43,0.85,1.91,3.19,3.83,5.74,4.68,6.60,7.87,,,,,,,,,,,,,,
1799999992197802198,2027-01-15T07:59:52.197802198Z,2.34,2.77,2.98,3.40,1.06,-1.06,0.64,1.49,3.19,5.11,4.68,4.89,6.38,5.53,,,,,,,,,,,,,,
1799999992207792208,2027-01-15T07:59:52.207792208Z,4.68,2.55,2.77,2.77,1.28,-0.64,1.28,1.91,2.98,4.68,4.47,5.74,7.23,6.60,,,,,,,,,,,,,,
1799999992217782218,2027-01-15T07:59:52.217782218Z,5.53,2.77,1.28,1.70,0.21,1.91,1.06,3.62,1.49,3.40,5.96,5.53,8.72,9.36,,,,,,,,,,,,,,
1799999992227772228,2027-01-15T07:59:52.227772228Z,6.17,4.47,0.64,2.77,2.13,2.55,-0.21,1.70,1.49,4.47,5.11,5.53,6.38,8.09,,,,,,,,,,,,,,
1799999992237762238,2027-01-15T07:59:52.237762238Z,7.23,5.53,1.28,3.19,3.40,3.19,0.64,-0.21,1.70,5.11,4.26,6.17,5.32,7.45,,,,,,,,,,,,,,
1799999992247752248,2027-01-15T07:59:52.247752248Z,8.30,6.81,1.49,4.26,1.28,4.26,2.98,-0.85,1.91,4.47,3.83,7.45,7.02,7.87,,,,,,,,,,,,,,
1799999992257742258,2027-01-15T07:59:52.257742258Z,7.45,5.96,0.00,5.32,0.00,2.98,2.34,-0.85,4.47,4.47,3.40,6.38,7.66,7.23,,,,,,,,,,,,,,
1799999992267732268,2027-01-15T07:59:52.267732268Z,3.83,3.83,0.85,3.19,1.06,2.98,2.77,0.85,4.04,4.68,4.04,7.02,7.02,7.45,,,,,,,,,,,,,,
1799999992277722278,2027-01-15T07:59:52.277722278Z,1.28,1.70,-1.06,1.49,1.06,3.62,3.19,1.49,4.47,4.47,4.47,7.45,7.23,6.60,,,,,,,,,,,,,,
1799999992287712288,2027-01-15T07:59:52.287712288Z,1.70,-0.21,-3.62,0.43,1.06,2.98,3.19,1.06,7.45,4.47,4.89,6.38,8.09,5.96,,,,,,,,,,,,,,
1799999992297702298,2027-01-15T07:59:52.297702298Z,5.11,1.49,-2.13,2.13,2.77,2.55,1.49,0.85,7.02,4.89,6.17,5.74,7.45,7.23,,,,,,,,,,,,,,
1799999992307692308,2027-01-15T07:59:52.307692308Z,1.06,0.85,-0.64,1.70,2.13,2.98,2.13,1.91,5.11,3.19,7.02,6.17,6.38,8.51,,,,,,,,,,,,,,
1799999992317682318,2027-01-15T07:59:52.317682318Z,0.85,-0.21,-0.85,1.28,1.49,2.98,2.34,2.55,4.26,2.55,6.60,6.38,5.74,8.09,,,,,,,,,,,,,,
1799999992327672328,2027-01-15T07:59:52.327672328Z,-4.68,-2.13,-1.49,1.06,0.64,3.40,2.34,1.70,4.68,2.77,7.23,7.02,7.02,7.02,,,,,,,,,,,,,,
1799999992337662338,2027-01-15T07:59:52.337662338Z,-3.40,-2.13,-0.43,1.91,-0.85,3.40,2.98,0.64,2.98,5.32,7.02,6.38,7.66,6.17,,,,,,,,,,,,,,
1799999992347652348,2027-01-15T07:59:52.347652348Z,-3.40,-1.91,0.00,2.13,-0.85,3.83,3.83,1.06,2.34,5.96,5.74,5.96,7.02,6.17,,,,,,,,,,,,,,
1799999992357642358,2027-01-15T07:59:52.357642358Z,-3.19,-0.85,-0.21,0.64,-0.85,3.40,4.47,1.06,4.04,5.11,3.83,5.53,4.89,7.02,,,,,,,,,,,,,,
1799999992367632368,2027-01-15T07:59:52.367632368Z,-0.85,-0.85,-1.06,-2.34,-1.06,1.06,2.77,0.21,4.47,6.81,5.11,5.32,6.17,6.81,,,,,,,,,,,,,,
1799999992377622378,2027-01-15T07:59:52.377622378Z,0.00,-2.98,-0.43,-1.28,-0.85,1.28,3.40,3.40,4.26,5.96,4.47,4.68,8.30,6.38,,,,,,,,,,,,,,
1799999992387612388,2027-01-15T07:59:52.387612388Z,-1.28,-1.70,-0.64,0.21,-0.85,1.91,2.13,5.32,3.40,5.11,4.04,5.53,7.66,6.60,,,,,,,,,,,,,,
1799999992397602398,2027-01-15T07:59:52.397602398Z,-1.91,0.21,-0.85,0.43,0.43,1.70,0.21,5.11,2.98,5.96,5.74,6.38,5.32,7.66,,,,,,,,,,,,,,
1799999992407592408,2027-01-15T07:59:52.407592408Z,-4.26,-1.49,-1.28,0.64,0.85,1.06,2.98,3.19,4.26,4.68,6.60,5.11,5.32,5.96,,,,,,,,,,,,,,
1799999992417582418,2027-01-15T07:59:52.417582418Z,-4.68,-1.91,-1.49,0.64,-0.43,1.28,4.47,3.19,4.68,5.11,5.96,5.11,5.32,5.53,,,,,,,,,,,,,,
1799999992427572428,2027-01-15T07:59:52.427572428Z,-3.62,-2.13,-0.85,1.91,-2.55,0.85,4.04,5.74,4.89,5.32,5.74,6.17,4.47,4.89,,,,,,,,,,,,,,
1799999992437562438,2027-01-15T07:59:52.437562438Z,-3.83,-2.77,-0.64,1.70,-1.91,1.49,3.83,7.45,4.68,2.98,5.74,5.53,4.04,6.81,,,,,,,,,,,,,,
1799999992447552448,2027-01-15T07:59:52.447552448Z,-5.11,-1.91,-0.85,-0.64,0.43,2.55,4.47,7.23,4.26,4.47,5.74,5.32,5.11,8.30,,,,,,,,,,,,,,
1799999992457542458,2027-01-15T07:59:52.457542458Z,-6.17,-2.98,-0.64,-1.06,1.28,1.49,3.40,6.38,4.26,5.96,5.96,5.96,5.32,8.51,,,,,,,,,,,,,,
1799999992467532468,2027-01-15T07:59:52.467532468Z,-4.04,-3.83,0.21,0.21,0.85,0.00,2.13,4.68,2.55,6.17,5.74,7.02,5.96,6.60,,,,,,,,,,,,,,
1799999992477522478,2027-01-15T07:59:52.477522478Z,-3.83,-3.40,0.43,-0.43,0.64,1.70,3.40,4.68,3.40,5.74,6.38,6.60,5.74,6.81,,,,,,,,,,,,,,
1799999992487512488,2027-01-15T07:59:52.487512488Z,-5.53,-3.40,0.64,-1.49,0.64,0.00,2.98,5.53,4.47,5.96,5.53,7.02,6.17,7.45,,,,,,,,,,,,,,
1799999992497502498,2027-01-15T07:59:52.497502498Z,-5.32,-2.77,0.21,-2.55,1.06,-0.43,3.62,6.17,3.62,6.60,4.47,7.02,6.60,7.02,,,,,,,,,,,,,,
1799999992507492508,2027-01-15T07:59:52.507492508Z,-4.68,-1.28,-2.13,-2.98,1.49,3.83,5.96,5.53,3.19,6.60,5.11,5.74,5.74,7.23,,,,,,,,,,,,,,
1799999992517482518,2027-01-15T07:59:52.517482518Z,-2.77,-1.91,-1.49,-2.13,2.13,3.40,4.26,4.26,3.40,6.60,5.74,5.32,6.17,5.96,,,,,,,,,,,,,,
1799999992527472528,2027-01-15T07:59:52.527472528Z,-0.64,-2.55,-0.85,-1.70,2.13,2.34,2.55,4.04,3.62,7.02,5.96,5.53,5.96,5.74,,,,,,,,,,,,,,
1799999992537462538,2027-01-15T07:59:52.537462538Z,-3.40,-1.91,-0.64,-1.49,2.77,0.85,1.49,3.83,5.96,5.74,6.17,6.17,5.11,7.66,,,,,,,,,,,,,,
1799999992547452548,2027-01-15T07:59:52.547452548Z,-0.85,-1.49,-0.85,-1.28,2.13,1.28,2.13,3.62,7.02,4.26,5.53,6.60,5.96,9.15,,,,,,,,,,,,,,
1799999992557442558,2027-01-15T07:59:52.557442558Z,0.43,-2.13,-0.85,0.21,1.06,0.85,3.62,4.04,4.68,3.83,5.32,5.96,7.02,7.66,,,,,,,,,,,,,,
1799999992567432568,2027-01-15T07:59:52.567432568Z,0.21,-2.34,0.21,0.43,0.64,1.28,2.98,3.62,2.98,3.83,6.17,5.96,6.60,7.45,,,,,,,,,,,,,,
1799999992577422578,2027-01-15T07:59:52.577422578Z,0.43,-1.49,1.91,-0.21,0.64,2.77,1.70,2.77,3.19,3.40,7.23,6.38,5.32,6.81,,,,,,,,,,,,,,
1799999992587412588,2027-01-15T07:59:52.587412588Z,-0.64,-0.43,1.28,0.85,1.49,3.83,1.28,2.34,4.04,4.89,6.17,6.17,5.74,5.53,,,,,,,,,,,,,,
1799999992597402598,2027-01-15T07:59:52.597402598Z,-0.85,0.64,0.43,1.49,1.49,2.34,0.85,3.40,5.11,5.96,5.32,5.53,6.60,5.96,,,,,,,,,,,,,,
1799999992607392608,2027-01-15T07:59:52.607392608Z,1.28,1.49,0.00,1.28,2.98,0.43,2.13,3.83,6.38,7.02,4.68,5.32,8.09,6.60,,,,,,,,,,,,,,
1799999992617382618,2027-01-15T07:59:52.617382618Z,2.34,1.91,0.85,1.49,5.53,1.70,3.40,1.28,4.26,5.32,3.40,6.81,8.51,4.89,,,,,,,,,,,,,,
1799999992627372628,2027-01-15T07:59:52.627372628Z,4.26,1.91,1.06,3.62,4.89,3.19,2.34,0.64,4.04,4.26,4.26,7.02,8.09,6.81,,,,,,,,,,,,,,
1799999992637362638,2027-01-15T07:59:52.637362638Z,2.98,2.13,1.06,3.40,3.62,3.40,1.70,1.06,3.40,4.89,4.89,6.38,8.09,8.51,,,,,,,,,,,,,,
1799999992647352648,2027-01-15T07:59:52.647352648Z,3.40,4.26,0.21,1.06,3.19,2.77,0.64,1.49,2.98,5.32,4.89,6.38,7.45,9.57,,,,,,,,,,,,,,
1799999992657342658,2027-01-15T07:59:52.657342658Z,2.77,3.83,-1.28,1.06,2.34,1.70,0.00,2.77,4.26,3.62,6.17,7.45,6.81,11.28,,,,,,,,,,,,,,
1799999992667332668,2027-01-15T07:59:52.667332668Z,2.77,2.98,-1.06,1.49,1.49,0.85,0.00,3.83,4.26,3.83,6.81,6.60,7.02,11.70,,,,,,,,,,,,,,
1799999992677322678,2027-01-15T07:59:52.677322678Z,0.43,1.49,0.21,1.49,0.21,0.64,1.70,4.04,3.62,5.74,5.11,5.32,7.45,9.57,,,,,,,,,,,,,,
1799999992687312688,2027-01-15T07:59:52.687312688Z,1.06,2.77,1.06,3.83,0.00,1.91,1.91,3.40,4.47,6.17,5.96,5.96,5.96,7.66,,,,,,,,,,,,,,
1799999992697302698,2027-01-15T07:59:52.697302698Z,1.06,1.91,0.21,0.85,1.70,3.83,3.83,1.49,4.47,4.47,5.53,6.81,5.74,6.17,,,,,,,,,,,,,,
1799999992707292708,2027-01-15T07:59:52.707292708Z,-0.43,1.28,-0.21,-1.06,2.34,3.40,4.89,0.85,4.04,3.40,5.96,7.02,5.96,6.38,,,,,,,,,,,,,,
1799999992717282718,2027-01-15T07:59:52.717282718Z,0.85,0.43,-1.28,1.06,2.34,0.43,5.74,2.55,3.19,3.83,7.23,5.74,6.60,7.45,,,,,,,,,,,,,,
1799999992727272728,2027-01-15T07:59:52.727272728Z,-1.70,-0.21,-1.70,0.85,1.70,-0.21,3.19,4.04,4.47,3.62,5.74,4.89,9.79,7.66,,,,,,,,,,,,,,
1799999992737262738,2027-01-15T07:59:52.737262738Z,1.28,0.64,-0.64,1.28,1.91,0.43,2.34,4.47,4.47,3.62,5.53,4.89,10.85,7.87,,,,,,,,,,,,,,
1799999992747252748,2027-01-15T07:59:52.747252748Z,0.00,1.28,1.06,3.19,0.85,2.77,2.13,3.62,2.98,3.40,4.68,4.47,8.72,7.45,,,,,,,,,,,,,,
1799999992757242758,2027-01-15T07:59:52.757242758Z,-0.43,-0.85,-0.43,1.28,-0.43,2.77,3.40,2.98,3.40,5.11,4.47,5.11,10.85,7.45,,,,,,,,,,,,,,
1799999992767232768,2027-01-15T07:59:52.767232768Z,-2.98,-1.06,-0.64,-0.21,1.70,2.98,3.83,4.68,6.60,6.38,5.53,6.17,6.60,8.09,,,,,,,,,,,,,,
1799999992777222778,2027-01-15T07:59:52.777222778Z,-3.19,-0.64,-0.85,0.00,0.85,3.40,4.26,4.89,6.38,6.17,5.32,7.02,3.62,8.30,,,,,,,,,,,,,,
1799999992787212788,2027-01-15T07:59:52.787212788Z,-2.34,-2.34,-3.40,0.00,-1.28,1.70,4.89,2.55,5.53,5.96,5.74,7.23,6.60,7.23,,,,,,,,,,,,,,
1799999992797202798,2027-01-15T07:59:52.797202798Z,-1.91,-2.98,-3.40,1.70,-0.43,-1.91,3.62,1.49,5.96,6.17,6.38,6.60,6.17,5.53,,,,,,,,,,,,,,
1799999992807192808,2027-01-15T07:59:52.807192808Z,-2.98,-2.34,-1.70,1.70,0.85,0.21,2.77,2.34,4.68,4.89,4.26,6.17,5.96,6.81,,,,,,,,,,,,,,
1799999992817182818,2027-01-15T07:59:52.817182818Z,-2.34,-1.49,0.00,0.85,1.06,1.70,2.98,2.77,3.19,4.89,5.32,6.81,5.96,7.87,,,,,,,,,,,,,,
1799999992827172828,2027-01-15T07:59:52.827172828Z,-2.77,-1.06,0.85,0.21,0.85,2.34,3.62,3.19,3.19,3.83,6.81,7.87,5.32,8.09,,,,,,,,,,,,,,
1799999992837162838,2027-01-15T07:59:52.837162838Z,-2.77,-1.91,0.21,0.00,2.13,1.28,3.40,5.11,2.55,2.55,5.11,6.81,5.96,6.17,,,,,,,,,,,,,,
1799999992847152848,2027-01-15T07:59:52.847152848Z,-2.55,-1.06,0.85,0.00,3.19,2.13,2.77,4.26,1.70,2.77,5.11,5.53,5.96,4.89,,,,,,,,,,,,,,
1799999992857142858,2027-01-15T07:59:52.857142858Z,-2.98,-0.21,0.43,0.64,3.62,2.98,1.70,2.98,0.85,3.40,4.89,4.26,5.11,5.53,,,,,,,,,,,,,,
1799999992867132868,2027-01-15T07:59:52.867132868Z,-2.55,-0.85,-1.91,1.06,2.55,1.91,2.98,4.04,3.62,3.62,4.04,4.47,4.68,6.81,,,,,,,,,,,,,,
1799999992877122878,2027-01-15T07:59:52.877122878Z,-0.85,0.64,-1.91,-0.21,1.06,2.77,2.77,2.77,3.62,4.68,6.38,5.96,5.53,7.23,,,,,,,,,,,,,,
1799999992887112888,2027-01-15T07:59:52.887112888Z,-0.64,0.21,-1.28,-0.64,1.06,2.13,2.55,2.34,4.04,4.04,7.23,6.38,5.96,7.87,,,,,,,,,,,,,,
1799999992897102898,2027-01-15T07:59:52.897102898Z,-0.85,-2.13,-1.70,0.64,0.64,2.34,4.04,3.40,4.68,2.98,7.02,6.38,5.96,8.30,,,,,,,,,,,,,,
1799999992907092908,2027-01-15T07:59:52.907092908Z,-1.06,-1.49,1.70,0.00,-1.06,3.62,4.68,3.40,2.55,4.04,5.96,5.32,4.89,6.38,,,,,,,,,,,,,,
1799999992917082918,2027-01-15T07:59:52.917082918Z,-2.13,-1.28,3.19,-0.43,-0.21,3.19,3.83,3.40,4.26,4.89,5.53,4.89,4.68,7.02,,,,,,,,,,,,,,
1799999992927072928,2027-01-15T07:59:52.927072928Z,-0.85,-1.91,0.64,0.64,1.28,2.77,1.91,2.13,6.38,6.60,4.26,4.68,6.60,8.09,,,,,,,,,,,,,,
1799999992937062938,2027-01-15T07:59:52.937062938Z,-1.28,-2.98,0.00,0.43,0.85,4.04,1.70,2.55,4.47,6.17,5.32,5.74,7.23,6.81,,,,,,,,,,,,,,
1799999992947052948,2027-01-15T07:59:52.947052948Z,-1.70,-2.55,-0.64,0.00,1.06,1.28,1.91,3.62,5.11,4.68,5.96,7.02,6.60,8.09,,,,,,,,,,,,,,
1799999992957042958,2027-01-15T07:59:52.957042958Z,-1.49,-2.13,-0.64,0.21,0.43,1.28,2.34,3.62,4.89,4.04,5.96,7.23,6.17,8.72,,,,,,,,,,,,,,
1799999992967032968,2027-01-15T07:59:52.967032968Z,-0.85,-2.77,1.28,-0.43,-0.64,2.34,2.55,4.47,2.77,4.04,5.53,6.81,5.32,7.45,,,,,,,,,,,,,,
1799999992977022978,2027-01-15T07:59:52.977022978Z,-0.43,-1.49,2.34,0.00,1.06,0.43,2.55,4.47,2.98,4.68,4.68,6.17,6.38,7.66,,,,,,,,,,,,,,
1799999992987012988,2027-01-15T07:59:52.987012988Z,-1.49,-0.43,1.70,-0.64,1.06,0.85,1.70,2.98,4.68,5.53,6.38,7.02,5.53,6.38,,,,,,,,,,,,,,
1799999992997002998,2027-01-15T07:59:52.997002998Z,-0.85,-0.85,0.43,0.21,0.64,0.43,1.28,3.62,5.96,4.47,7.02,7.23,5.32,6.38,,,,,,,,,,,,,,
1799999993006993007,2027-01-15T07:59:53.006993007Z,-0.43,-1.28,-1.49,1.28,1.06,-0.21,0.85,5.74,7.02,2.98,5.11,7.23,7.02,8.09,,,,,,,,,,,,,,
1799999993016983017,2027-01-15T07:59:53.016983017Z,2.34,1.06,-1.06,-0.43,0.00,2.55,2.34,5.32,3.83,4.26,5.74,6.81,7.02,6.60,,,,,,,,,,,,,,
1799999993026973027,2027-01-15T07:59:53.026973027Z,-1.91,1.91,-0.85,0.43,0.21,3.62,2.55,3.40,2.34,4.68,6.17,6.81,6.60,5.32,,,,,,,,,,,,,,
1799999993036963037,2027-01-15T07:59:53.036963037Z,1.28,2.77,0.21,1.49,3.19,1.70,2.13,1.28,2.98,3.40,4.47,6.81,7.87,4.89,,,,,,,,,,,,,,
1799999993046953047,2027-01-15T07:59:53.046953047Z,0.85,1.49,0.21,-0.64,3.40,-0.64,3.40,3.19,0.85,2.34,3.62,7.23,7.23,6.17,,,,,,,,,,,,,,
1799999993056943057,2027-01-15T07:59:53.056943057Z,0.00,0.85,0.85,-1.06,1.70,0.43,3.62,2.55,2.34,3.19,4.26,6.17,6.60,7.23,,,,,,,,,,,,,,
1799999993066933067,2027-01-15T07:59:53.066933067Z,,1.06,0.85,0.00,0.43,0.85,3.83,2.77,3.83,4.04,4.47,6.38,6.60,7.87,,,,,,,,,,,,,,
1799999993076923077,2027-01-15T07:59:53.076923077Z,-0.43,0.43,-0.21,1.49,-0.21,1.06,5.32,3.19,2.77,4.68,3.83,7.23,6.81,8.09,,,,,,,,,,,,,,
1799999993086913087,2027-01-15T07:59:53.086913087Z,-2.13,0.64,-0.21,1.06,2.13,3.19,4.26,2.98,3.83,4.26,3.62,6.81,6.81,7.45,,,,,,,,,,,,,,
1799999993096903097,2027-01-15T07:59:53.096903097Z,-2.77,0.21,-1.06,0.64,3.62,2.55,3.19,3.19,5.32,4.26,4.47,7.66,7.66,8.09,,,,,,,,,,,,,,
1799999993106893107,2027-01-15T07:59:53.106893107Z,-2.55,-1.28,-2.55,-0.21,3.19,0.85,3.19,2.98,6.38,6.38,5.74,7.87,8.30,8.30,,,,,,,,,,,,,,
1799999993116883117,2027-01-15T07:59:53.116883117Z,-2.55,-2.13,-1.06,-1.49,4.26,1.49,2.34,1.70,4.68,7.45,5.32,5.53,7.02,7.87,,,,,,,,,,,,,,
1799999993126873127,2027-01-15T07:59:53.126873127Z,-0.21,-2.34,0.00,-1.06,2.34,1.06,1.91,2.34,4.89,4.47,4.04,5.11,7.02,8.94,,,,,,,,,,,,,,
1799999993136863137,2027-01-15T07:59:53.136863137Z,0.43,-2.98,-1.06,0.21,0.85,1.70,1.70,2.34,5.11,4.68,4.26,5.74,7.02,8.94,,,,,,,,,,,,,,
1799999993146853147,2027-01-15T07:59:53.146853147Z,-1.06,-2.55,-2.34,1.91,0.21,1.49,2.98,3.62,3.83,5.32,4.47,5.96,7.23,7.02,,,,,,,,,,,,,,
1799999993156843157,2027-01-15T07:59:53.156843157Z,-0.21,-0.43,-2.34,1.91,0.00,-0.85,5.32,5.32,4.26,5.11,5.53,6.81,7.45,7.02,,,,,,,,,,,,,,
1799999993166833167,2027-01-15T07:59:53.166833167Z,-0.64,0.21,-2.55,0.64,0.21,-0.43,4.26,4.04,3.62,5.53,6.17,6.81,6.81,7.02,,,,,,,,,,,,,,
1799999993176823177,2027-01-15T07:59:53.176823177Z,-0.85,1.06,-0.21,-0.85,0.85,1.49,1.70,1.28,2.34,3.62,6.17,6.38,5.96,5.74,,,,,,,,,,,,,,
1799999993186813187,2027-01-15T07:59:53.186813187Z,-2.55,0.00,1.91,0.21,0.64,1.06,1.91,2.55,3.19,1.70,5.32,5.96,4.47,5.96,,,,,,,,,,,,,,
1799999993196803197,2027-01-15T07:59:53.196803197Z,-2.77,-1.91,-0.43,0.43,0.85,1.49,1.91,4.47,3.62,2.98,6.17,5.74,4.89,6.81,,,,,,,,,,,,,,
1799999993206793207,2027-01-15T07:59:53.206793207Z,-1.06,-0.85,-2.13,0.43,1.06,2.77,2.55,2.55,3.83,3.62,5.53,6.60,5.32,6.60,,,,,,,,,,,,,,
1799999993216783217,2027-01-15T07:59:53.216783217Z,-1.06,0.85,-2.98,1.49,0.43,5.11,2.77,-0.64,4.04,3.62,4.26,7.87,4.68,6.60,,,,,,,,,,,,,,
1799999993226773227,2027-01-15T07:59:53.226773227Z,0.00,-1.06,-3.19,1.06,0.85,3.62,0.85,0.43,4.89,3.19,4.68,6.81,6.38,7.02,,,,,,,,,,,,,,
1799999993236763237,2027-01-15T07:59:53.236763237Z,0.43,-1.28,-0.64,1.28,4.04,0.21,1.91,2.13,3.40,3.62,4.89,5.32,8.09,7.23,,,,,,,,,,,,,,
1799999993246753247,2027-01-15T07:59:53.246753247Z,-0.43,-0.64,0.00,2.13,2.55,0.85,1.70,2.98,2.13,4.04,4.47,6.17,8.09,7.02,,,,,,,,,,,,,,
1799999993256743257,2027-01-15T07:59:53.256743257Z,-0.85,0.00,0.00,2.77,-0.85,2.34,0.21,2.98,1.49,3.62,5.32,8.30,7.23,7.45,,,,,,,,,,,,,,
1799999993266733267,2027-01-15T07:59:53.266733267Z,-1.28,-0.21,0.00,1.49,0.64,2.55,2.13,2.98,3.40,3.40,5.96,7.87,10.21,7.02,,,,,,,,,,,,,,
1799999993276723277,2027-01-15T07:59:53.276723277Z,-0.21,-0.21,0.64,1.06,0.64,3.19,2.34,2.98,3.40,3.83,5.74,7.87,11.06,6.17,,,,,,,,,,,,,,
1799999993286713287,2027-01-15T07:59:53.286713287Z,-0.64,-0.85,1.06,1.28,1.06,4.89,1.49,1.91,4.04,4.47,4.68,7.23,7.23,4.68,,,,,,,,,,,,,,
1799999993296703297,2027-01-15T07:59:53.296703297Z,-1.06,0.21,-1.06,0.85,1.49,3.83,2.34,1.06,5.32,4.26,4.04,5.96,5.74,5.74,,,,,,,,,,,,,,
1799999993306693307,2027-01-15T07:59:53.306693307Z,-1.70,-1.49,-0.43,1.91,2.55,1.28,1.28,2.55,4.47,3.83,4.89,4.68,6.38,7.87,,,,,,,,,,,,,,
1799999993316683317,2027-01-15T07:59:53.316683317Z,-1.28,-2.13,0.43,1.91,1.91,0.43,1.06,3.19,4.68,4.47,5.32,4.89,6.60,8.09,,,,,,,,,,,,,,
1799999993326673327,2027-01-15T07:59:53.326673327Z,0.43,-0.64,0.00,0.64,1.49,2.34,1.91,3.62,3.83,5.96,6.81,6.17,7.45,8.72,,,,,,,,,,,,,,
1799999993336663337,2027-01-15T07:59:53.336663337Z,0.64,-1.06,0.85,1.06,2.34,3.40,2.55,3.62,3.83,5.32,6.17,5.53,7.02,8.30,,,,,,,,,,,,,,
1799999993346653347,2027-01-15T07:59:53.346653347Z,-0.85,-2.34,1.28,1.91,1.49,3.40,3.40,4.26,4.04,4.89,5.32,5.74,6.38,7.45,,,,,,,,,,,,,,
1799999993356643357,2027-01-15T07:59:53.356643357Z,-1.49,-0.85,1.49,2.98,-0.43,4.68,3.83,4.47,2.55,5.32,4.47,5.96,5.96,6.60,,,,,,,,,,,,,,
1799999993366633367,2027-01-15T07:59:53.366633367Z,0.64,0.85,2.55,1.70,0.85,4.04,3.83,2.13,2.98,5.32,5.32,5.53,5.96,6.38,,,,,,,,,,,,,,
1799999993376623377,2027-01-15T07:59:53.376623377Z,-0.85,0.00,1.28,0.43,1.49,1.49,4.04,2.55,3.62,4.47,5.74,5.96,6.17,7.45,,,,,,,,,,,,,,
1799999993386613387,2027-01-15T07:59:53.386613387Z,0.85,-0.85,0.43,0.43,1.49,0.43,4.26,3.62,3.40,4.04,5.74,5.53,6.38,8.09,,,,,,,,,,,,,,
1799999993396603397,2027-01-15T07:59:53.396603397Z,-0.85,-0.64,1.06,0.64,2.55,1.91,4.26,2.77,2.55,3.62,4.68,4.89,5.74,7.87,,,,,,,,,,,,,,
1799999993406593407,2027-01-15T07:59:53.406593407Z,-1.49,-3.19,0.85,0.43,1.70,2.98,3.83,1.91,3.62,3.62,4.04,6.38,6.81,7.66,,,,,,,,,,,,,,
1799999993416583417,2027-01-15T07:59:53.416583417Z,-1.91,-2.98,0.43,0.21,0.85,1.91,4.04,2.55,2.77,3.83,4.26,7.02,7.02,7.66,,,,,,,,,,,,,,
1799999993426573427,2027-01-15T07:59:53.426573427Z,0.85,0.21,1.28,0.21,1.49,0.43,4.04,3.62,1.49,4.04,4.89,7.87,4.47,7.23,,,,,,,,,,,,,,
1799999993436563437,2027-01-15T07:59:53.436563437Z,0.43,0.00,0.64,0.00,1.28,2.55,3.19,4.04,2.77,4.89,5.32,6.38,4.68,7.45,,,,,,,,,,,,,,
1799999993446553447,2027-01-15T07:59:53.446553447Z,-2.98,-0.85,-1.06,-0.43,2.77,4.04,4.04,2.55,5.96,5.96,6.81,4.89,5.53,8.09,,,,,,,,,,,,,,
1799999993456543457,2027-01-15T07:59:53.456543457Z,-1.70,-0.85,-0.85,0.85,3.19,3.83,2.98,2.13,6.81,6.38,5.96,5.11,5.32,7.66,,,,,,,,,,,,,,
1799999993466533467,2027-01-15T07:59:53.466533467Z,-3.62,-2.55,0.85,2.98,1.06,3.62,1.28,3.19,5.11,6.60,5.11,5.32,5.74,7.23,,,,,,,,,,,,,,
1799999993476523477,2027-01-15T07:59:53.476523477Z,-1.91,-2.77,0.85,0.85,-0.21,2.77,2.55,3.62,3.62,5.53,7.02,4.26,7.87,7.66,,,,,,,,,,,,,,
1799999993486513487,2027-01-15T07:59:53.486513487Z,-1.49,-0.64,-0.21,1.06,0.43,2.13,3.62,3.83,2.98,5.11,6.60,5.11,6.81,7.02,,,,,,,,,,,,,,
1799999993496503497,2027-01-15T07:59:53.496503497Z,0.85,-0.21,0.00,0.21,0.43,2.34,3.19,3.40,3.19,4.89,6.38,5.96,5.74,7.02,,,,,,,,,,,,,,
1799999993506493507,2027-01-15T07:59:53.506493507Z,-3.19,-1.49,1.06,-1.28,1.49,2.77,2.55,2.77,3.40,4.47,6.60,6.60,5.11,6.60,,,,,,,,,,,,,,
1799999993516483517,2027-01-15T07:59:53.516483517Z,-1.28,-1.06,0.43,1.28,1.28,1.70,2.55,3.40,4.04,5.74,5.53,5.96,3.83,8.09,,,,,,,,,,,,,,
1799999993526473527,2027-01-15T07:59:53.526473527Z,-0.43,0.00,-0.43,1.06,0.21,0.85,1.91,3.83,4.26,6.38,5.74,5.32,4.04,8.30,,,,,,,,,,,,,,
1799999993536463537,2027-01-15T07:59:53.536463537Z,-0.64,1.06,-1.49,-0.64,0.43,0.21,1.28,3.83,2.34,5.32,6.17,6.17,5.11,8.51,,,,,,,,,,,,,,
1799999993546453547,2027-01-15T07:59:53.546453547Z,-0.43,0.21,-0.43,0.00,-0.21,1.28,1.91,2.55,2.98,4.47,5.74,5.96,5.11,8.09,,,,,,,,,,,,,,
1799999993556443557,2027-01-15T07:59:53.556443557Z,0.21,-1.06,-2.13,1.49,1.06,2.98,2.34,2.13,4.68,4.26,5.11,5.74,4.89,6.60,,,,,,,,,,,,,,
1799999993566433567,2027-01-15T07:59:53.566433567Z,-0.43,-0.43,-3.19,1.49,1.70,3.62,2.55,1.91,5.96,4.89,4.89,5.74,5.74,5.96,,,,,,,,,,,,,,
1799999993576423577,2027-01-15T07:59:53.576423577Z,-1.91,-0.43,-0.85,0.00,0.64,2.55,1.91,3.40,6.38,5.11,5.53,4.47,7.23,6.60,,,,,,,,,,,,,,
1799999993586413587,2027-01-15T07:59:53.586413587Z,-2.98,-1.70,-1.28,-1.70,-0.21,-0.85,1.70,2.55,4.26,3.83,5.11,5.32,7.02,6.17,,,,,,,,,,,,,,
1799999993596403597,2027-01-15T07:59:53.596403597Z,-3.62,-0.64,-1.28,-1.91,0.43,-0.64,1.91,1.49,4.47,4.04,5.32,4.89,7.45,6.81,,,,,,,,,,,,,,
1799999993606393607,2027-01-15T07:59:53.606393607Z,-3.40,0.21,0.64,0.21,2.13,1.70,1.49,4.26,4.89,5.53,6.60,4.26,8.09,8.09,,,,,,,,,,,,,,
1799999993616383617,2027-01-15T07:59:53.616383617Z,-4.89,-1.49,0.43,0.21,3.83,2.98,1.49,4.04,2.77,6.17,4.26,5.96,5.96,7.02,,,,,,,,,,,,,,
1799999993626373627,2027-01-15T07:59:53.626373627Z,0.21,-2.13,-1.49,-0.21,3.19,2.77,3.40,3.19,4.26,6.60,4.68,6.17,8.94,6.60,,,,,,,,,,,,,,
1799999993636363637,2027-01-15T07:59:53.636363637Z,0.21,-1.49,-1.91,-0.21,2.34,2.55,4.04,2.34,4.89,6.81,5.53,7.02,10.43,6.38,,,,,,,,,,,,,,
1799999993646353647,2027-01-15T07:59:53.646353647Z,1.28,-0.21,-1.06,-0.21,0.21,1.49,3.83,1.70,2.77,7.02,5.74,7.87,6.38,6.17,,,,,,,,,,,,,,
1799999993656343657,2027-01-15T07:59:53.656343657Z,2.55,-0.43,-1.06,-0.85,0.00,0.85,2.13,3.62,2.13,5.53,5.11,6.17,5.53,7.45,,,,,,,,,,,,,,
1799999993666333667,2027-01-15T07:59:53.666333667Z,-2.34,-0.21,-0.64,0.00,1.49,0.64,1.28,4.26,2.55,4.26,5.11,5.96,5.11,7.87,,,,,,,,,,,,,,
1799999993676323677,2027-01-15T07:59:53.676323677Z,-0.85,0.43,0.21,1.91,3.62,1.49,1.70,2.77,3.83,3.83,6.81,5.74,4.89,8.09,,,,,,,,,,,,,,
1799999993686313687,2027-01-15T07:59:53.686313687Z,-0.43,0.43,0.00,2.55,1.70,2.77,1.06,2.34,5.32,5.11,7.87,6.60,7.45,6.81,,,,,,,,,,,,,,
1799999993696303697,2027-01-15T07:59:53.696303697Z,1.06,-0.64,-1.06,1.28,-0.21,1.70,1.91,4.04,5.53,6.60,6.17,7.02,7.66,7.23,,,,,,,,,,,,,,
1799999993706293707,2027-01-15T07:59:53.706293707Z,-1.49,0.21,-1.91,0.43,-0.43,1.06,2.55,3.83,4.89,6.38,4.89,5.96,7.66,7.45,,,,,,,,,,,,,,
1799999993716283717,2027-01-15T07:59:53.716283717Z,1.70,1.91,-2.13,0.64,0.43,2.98,2.55,1.91,3.40,4.47,4.47,4.89,10.00,7.66,,,,,,,,,,,,,,
1799999993726273727,2027-01-15T07:59:53.726273727Z,1.28,0.43,-0.21,1.49,1.28,4.26,2.55,2.55,3.83,3.83,4.89,5.96,10.64,7.87,,,,,,,,,,,,,,
1799999993736263737,2027-01-15T07:59:53.736263737Z,0.85,-0.64,-0.21,0.85,0.64,2.34,3.19,2.98,3.62,5.11,4.89,7.66,8.94,7.23,,,,,,,,,,,,,,
1799999993746253747,2027-01-15T07:59:53.746253747Z,-0.85,-0.43,-0.64,0.43,1.70,2.55,4.04,2.55,3.62,4.68,4.89,7.23,6.60,7.66,,,,,,,,,,,,,,
1799999993756243757,2027-01-15T07:59:53.756243757Z,1.70,0.00,-0.43,0.00,4.26,5.32,4.26,2.55,4.04,2.98,4.89,5.53,3.62,7.23,,,,,,,,,,,,,,
1799999993766233767,2027-01-15T07:59:53.766233767Z,-0.64,-0.64,-0.85,0.85,4.26,4.68,2.77,1.91,4.68,3.19,3.83,5.74,7.02,5.74,,,,,,,,,,,,,,
1799999993776223777,2027-01-15T07:59:53.776223777Z,0.85,0.00,0.00,0.64,3.19,3.19,3.40,3.19,5.11,4.04,4.47,6.81,8.72,6.17,,,,,,,,,,,,,,
1799999993786213787,2027-01-15T07:59:53.786213787Z,-1.06,0.43,1.91,0.21,2.55,2.98,4.47,4.89,5.96,4.89,6.17,8.09,6.17,7.66,,,,,,,,,,,,,,
1799999993796203797,2027-01-15T07:59:53.796203797Z,-4.89,-0.85,1.06,-0.21,1.91,1.70,3.83,3.40,4.89,3.62,7.45,6.81,4.47,7.66,,,,,,,,,,,,,,
1799999993806193807,2027-01-15T07:59:53.806193807Z,0.64,-1.28,1.06,1.06,3.19,1.91,5.32,3.83,3.40,4.04,7.23,6.60,5.53,7.23,,,,,,,,,,,,,,
1799999993816183817,2027-01-15T07:59:53.816183817Z,-0.43,-0.43,1.70,0.85,2.98,2.34,4.89,4.04,2.98,4.68,7.23,7.02,5.53,8.30,,,,,,,,,,,,,,
1799999993826173827,2027-01-15T07:59:53.826173827Z,2.34,2.77,1.70,2.34,1.70,2.55,3.83,3.19,2.98,3.83,7.02,7.45,7.45,9.36,,,,,,,,,,,,,,
1799999993836163837,2027-01-15T07:59:53.836163837Z,1.70,1.06,1.49,2.77,2.13,2.98,2.55,3.40,3.19,3.40,5.53,7.23,7.66,7.23,,,,,,,,,,,,,,
1799999993846153847,2027-01-15T07:59:53.846153847Z,-2.55,-1.49,1.28,2.34,1.28,2.77,1.91,3.62,3.83,3.19,4.89,6.38,5.96,7.02,,,,,,,,,,,,,,
1799999993856143857,2027-01-15T07:59:53.856143857Z,-1.28,-0.64,1.49,1.28,-1.91,0.64,2.98,1.91,4.04,3.40,5.96,5.32,2.13,7.87,,,,,,,,,,,,,,
1799999993866133867,2027-01-15T07:59:53.866133867Z,-1.49,-1.06,1.49,1.28,-2.13,-0.64,2.98,2.13,3.19,3.62,7.02,5.53,4.89,5.96,,,,,,,,,,,,,,
1799999993876123877,2027-01-15T07:59:53.876123877Z,-1.70,-0.85,-0.21,-0.21,0.64,0.85,4.04,3.19,4.04,4.47,6.60,7.23,6.38,5.96,,,,,,,,,,,,,,
1799999993886113887,2027-01-15T07:59:53.886113887Z,1.06,-0.64,-0.43,-0.21,1.28,0.64,4.68,2.34,2.98,5.74,5.96,7.23,5.96,7.02,,,,,,,,,,,,,,
1799999993896103897,2027-01-15T07:59:53.896103897Z,0.43,-0.21,0.64,0.00,0.85,-0.64,4.47,1.28,0.21,7.87,6.17,6.17,5.74,8.72,,,,,,,,,,,,,,
1799999993906093907,2027-01-15T07:59:53.906093907Z,0.21,-0.85,-0.21,-0.21,0.64,1.28,2.77,2.98,2.34,7.02,6.81,6.60,5.74,5.96,,,,,,,,,,,,,,
1799999993916083917,2027-01-15T07:59:53.916083917Z,0.43,-0.85,0.85,0.43,0.43,3.19,2.13,3.62,3.62,5.96,6.38,6.38,5.96,5.11,,,,,,,,,,,,,,
1799999993926073927,2027-01-15T07:59:53.926073927Z,0.64,0.43,1.06,0.21,0.64,4.68,2.98,3.19,3.62,4.26,5.53,6.60,5.74,6.38,,,,,,,,,,,,,,
1799999993936063937,2027-01-15T07:59:53.936063937Z,-1.06,0.64,-1.70,1.06,0.43,3.40,2.98,3.83,2.77,3.40,4.89,6.60,5.53,8.72,,,,,,,,,,,,,,
1799999993946053947,2027-01-15T07:59:53.946053947Z,-3.62,-1.49,-0.85,-0.85,1.49,1.49,1.70,4.47,4.47,4.47,5.74,5.96,4.68,7.66,,,,,,,,,,,,,,
1799999993956043957,2027-01-15T07:59:53.956043957Z,-3.40,-1.70,0.85,-1.28,1.49,1.70,1.70,3.19,5.11,4.26,4.68,5.53,4.68,8.51,,,,,,,,,,,,,,
1799999993966033967,2027-01-15T07:59:53.966033967Z,-2.55,1.49,1.70,1.28,0.00,1.49,1.28,1.70,4.04,4.47,3.62,5.96,6.38,9.57,,,,,,,,,,,,,,
1799999993976023977,2027-01-15T07:59:53.976023977Z,0.21,1.91,0.43,4.26,-0.43,-0.43,1.91,3.40,2.77,6.17,4.89,6.60,6.81,6.81,,,,,,,,,,,,,,
1799999993986013987,2027-01-15T07:59:53.986013987Z,0.00,-2.34,-1.49,2.77,1.06,0.64,2.98,2.13,4.04,6.60,5.11,5.53,5.32,7.45,,,,,,,,,,,,,,
1799999993996003997,2027-01-15T07:59:53.996003997Z,2.13,-1.49,-1.28,1.06,0.85,2.13,2.77,1.49,3.40,7.02,5.11,5.11,5.32,8.51,,,,,,,,,,,,,,
1799999994005994006,2027-01-15T07:59:54.005994006Z,0.00,1.91,-0.21,0.43,-0.85,2.98,3.19,1.70,2.77,6.81,4.89,6.38,5.53,6.17,,,,,,,,,,,,,,
1799999994015984016,2027-01-15T07:59:54.015984016Z,-2.34,0.43,-0.85,-1.70,0.64,4.04,2.98,0.43,4.68,4.47,6.60,7.02,5.74,6.38,,,,,,,,,,,,,,
1799999994025974026,2027-01-15T07:59:54.025974026Z,-2.55,-0.43,-0.21,-1.06,1.91,3.62,2.13,1.28,4.68,4.26,6.17,6.60,5.96,6.17,,,,,,,,,,,,,,
1799999994035964036,2027-01-15T07:59:54.035964036Z,-1.91,-1.70,0.43,1.70,1.28,4.04,2.34,3.83,4.89,6.17,4.47,6.17,4.89,5.53,,,,,,,,,,,,,,
1799999994045954046,2027-01-15T07:59:54.045954046Z,1.06,-2.13,-0.43,0.85,1.49,5.11,2.55,2.98,4.68,5.32,5.96,7.23,6.17,7.23,,,,,,,,,,,,,,
1799999994055944056,2027-01-15T07:59:54.055944056Z,1.91,-1.49,0.43,-0.85,2.77,2.34,1.49,4.04,3.62,5.11,6.17,6.17,8.51,8.72,,,,,,,,,,,,,,
1799999994065934066,2027-01-15T07:59:54.065934066Z,0.21,-1.49,-0.43,-1.06,1.70,2.13,1.49,4.89,3.19,5.32,5.53,5.11,8.09,8.51,,,,,,,,,,,,,,
1799999994075924076,2027-01-15T07:59:54.075924076Z,0.43,-1.49,-2.34,-1.28,-0.64,3.62,1.91,5.74,4.04,4.89,5.53,4.68,6.38,7.66,,,,,,,,,,,,,,
1799999994085914086,2027-01-15T07:59:54.085914086Z,-2.55,-1.70,-2.13,-0.64,1.28,1.70,1.06,3.83,4.89,3.19,4.47,5.32,9.79,7.45,,,,,,,,,,,,,,
1799999994095904096,2027-01-15T07:59:54.095904096Z,-1.70,-1.91,-1.70,0.00,2.77,0.64,1.70,5.11,4.47,2.34,5.53,5.74,10.43,6.81,,,,,,,,,,,,,,
1799999994105894106,2027-01-15T07:59:54.105894106Z,-2.98,0.21,0.00,-0.21,2.34,0.21,2.55,6.38,3.19,3.19,7.02,5.32,6.60,7.23,,,,,,,,,,,,,,
1799999994115884116,2027-01-15T07:59:54.115884116Z,-2.13,2.55,0.21,0.21,2.98,1.28,2.13,4.68,2.77,3.19,5.53,5.74,5.53,10.21,,,,,,,,,,,,,,
1799999994125874126,2027-01-15T07:59:54.125874126Z,1.06,0.64,-2.13,0.85,2.55,1.70,2.98,5.32,3.83,2.77,4.68,7.02,6.17,10.21,,,,,,,,,,,,,,
1799999994135864136,2027-01-15T07:59:54.135864136Z,1.49,0.43,-2.34,0.85,1.70,1.28,2.34,4.89,3.83,3.40,4.68,7.23,5.96,9.15,,,,,,,,,,,,,,
1799999994145854146,2027-01-15T07:59:54.145854146Z,1.06,1.91,-0.43,2.13,1.06,1.28,1.06,3.40,3.19,4.26,5.53,6.81,8.09,8.09,,,,,,,,,,,,,,
1799999994155844156,2027-01-15T07:59:54.155844156Z,2.13,1.06,0.00,0.43,1.28,2.77,2.13,2.34,4.47,2.98,5.96,7.02,10.43,7.02,,,,,,,,,,,,,,
1799999994165834166,2027-01-15T07:59:54.165834166Z,-1.28,1.06,0.64,-1.06,1.70,3.19,2.34,2.13,4.68,2.98,5.74,7.02,8.72,7.66,,,,,,,,,,,,,,
1799999994175824176,2027-01-15T07:59:54.175824176Z,2.34,-1.49,0.85,-0.21,2.34,1.49,2.55,3.19,4.47,4.26,7.23,6.17,5.53,8.30,,,,,,,,,,,,,,
1799999994185814186,2027-01-15T07:59:54.185814186Z,0.21,-2.98,-0.85,0.85,1.49,2.34,4.04,2.98,5.32,4.68,8.09,5.53,6.81,7.66,,,,,,,,,,,,,,
1799999994195804196,2027-01-15T07:59:54.195804196Z,-0.21,-1.06,0.64,0.64,0.43,1.70,3.19,3.19,6.17,4.68,5.74,6.17,6.17,6.60,,,,,,,,,,,,,,
1799999994205794206,2027-01-15T07:59:54.205794206Z,-2.13,0.21,1.49,-0.64,0.64,1.06,2.34,3.40,4.47,3.83,4.04,5.96,6.17,5.96,,,,,,,,,,,,,,
1799999994215784216,2027-01-15T07:59:54.215784216Z,-2.34,0.43,1.06,-1.91,0.43,2.55,2.34,2.55,2.55,3.83,4.04,5.74,5.96,4.47,,,,,,,,,,,,,,
1799999994225774226,2027-01-15T07:59:54.225774226Z,-2.13,1.70,1.91,-1.70,1.28,1.06,3.40,2.55,3.62,5.96,3.62,5.96,6.81,5.32,,,,,,,,,,,,,,
1799999994235764236,2027-01-15T07:59:54.235764236Z,-2.13,0.21,1.28,0.00,1.06,0.64,2.77,2.77,4.89,4.89,4.68,5.32,7.87,8.51,,,,,,,,,,,,,,
1799999994245754246,2027-01-15T07:59:54.245754246Z,-0.85,0.21,0.85,1.06,1.28,1.06,2.55,3.40,4.26,3.83,4.47,4.89,6.81,8.94,,,,,,,,,,,,,,
1799999994255744256,2027-01-15T07:59:54.255744256Z,-0.43,0.64,1.06,0.85,2.13,2.34,3.40,5.74,3.19,3.40,3.40,4.89,4.47,7.66,,,,,,,,,,,,,,
1799999994265734266,2027-01-15T07:59:54.265734266Z,-0.64,-1.49,0.21,1.70,2.13,4.26,3.40,4.26,4.04,2.98,4.26,5.53,5.74,6.60,,,,,,,,,,,,,,
1799999994275724276,2027-01-15T07:59:54.275724276Z,-0.43,-2.34,0.21,1.70,2.13,3.62,2.98,2.77,4.68,3.19,4.68,5.74,6.17,7.23,,,,,,,,,,,,,,
1799999994285714286,2027-01-15T07:59:54.285714286Z,0.00,-2.77,-0.64,1.49,0.85,1.70,2.77,1.06,5.53,4.68,4.26,5.32,6.81,6.81,,,,,,,,,,,,,,
1799999994295704296,2027-01-15T07:59:54.295704296Z,-0.21,-1.91,-1.06,0.43,-0.43,1.49,2.34,1.91,6.17,5.96,4.89,5.96,8.72,7.45,,,,,,,,,,,,,,
1799999994305694306,2027-01-15T07:59:54.305694306Z,-0.64,-0.85,-0.43,-0.21,0.64,1.70,2.13,2.98,4.47,5.74,4.89,7.23,7.02,7.02,,,,,,,,,,,,,,
1799999994315684316,2027-01-15T07:59:54.315684316Z,0.85,-1.49,-1.06,0.00,2.13,1.91,2.55,2.34,3.62,6.38,4.47,7.23,5.96,6.38,,,,,,,,,,,,,,
1799999994325674326,2027-01-15T07:59:54.325674326Z,-0.64,-1.49,-1.91,1.49,2.98,1.28,2.77,1.28,4.47,7.23,5.32,6.60,6.17,6.17,,,,,,,,,,,,,,
1799999994335664336,2027-01-15T07:59:54.335664336Z,-0.64,-1.28,-0.64,2.13,1.06,1.06,3.40,2.98,4.04,5.32,5.32,6.81,4.26,6.38,,,,,,,,,,,,,,
1799999994345654346,2027-01-15T07:59:54.345654346Z,-0.64,-2.13,-1.06,1.70,-0.43,2.34,2.77,3.83,3.40,5.32,5.11,6.38,4.26,5.96,,,,,,,,,,,,,,
1799999994355644356,2027-01-15T07:59:54.355644356Z,-3.19,-2.98,-1.70,1.28,-1.70,3.40,0.85,3.62,2.98,5.11,5.32,6.17,5.96,5.74,,,,,,,,,,,,,,
1799999994365634366,2027-01-15T07:59:54.365634366Z,-0.85,-0.64,-0.43,1.06,-0.85,1.49,1.06,2.55,4.04,2.98,6.17,6.38,5.53,6.81,,,,,,,,,,,,,,
1799999994375624376,2027-01-15T07:59:54.375624376Z,0.00,0.43,-0.64,-0.64,-0.64,0.21,2.98,1.28,3.62,4.68,5.11,4.68,6.38,7.23,,,,,,,,,,,,,,
1799999994385614386,2027-01-15T07:59:54.385614386Z,-0.43,-0.21,-1.49,-1.06,-1.06,0.64,3.62,1.70,3.83,4.89,4.47,6.60,5.74,7.45,,,,,,,,,,,,,,
1799999994395604396,2027-01-15T07:59:54.395604396Z,-0.85,-2.13,-2.34,0.85,-0.85,2.13,2.34,3.40,5.53,2.77,5.53,8.51,4.04,6.81,,,,,,,,,,,,,,
1799999994405594406,2027-01-15T07:59:54.405594406Z,-1.28,-3.19,-2.34,2.13,0.00,1.49,2.98,2.98,6.38,4.47,6.38,5.53,4.26,6.60,,,,,,,,,,,,,,
1799999994415584416,2027-01-15T07:59:54.415584416Z,-0.85,-1.28,-1.91,1.06,0.43,1.28,4.68,2.13,5.11,6.60,5.32,6.17,4.68,8.72,,,,,,,,,,,,,,
1799999994425574426,2027-01-15T07:59:54.425574426Z,0.43,-0.43,-0.21,1.06,0.64,1.91,4.04,2.34,4.04,5.32,4.89,7.23,4.89,7.45,,,,,,,,,,,,,,
1799999994435564436,2027-01-15T07:59:54.435564436Z,0.43,-1.28,1.70,0.43,0.85,3.40,2.77,3.83,3.83,3.19,5.74,5.96,4.47,5.11,,,,,,,,,,,,,,
1799999994445554446,2027-01-15T07:59:54.445554446Z,-0.43,-2.55,1.06,-0.21,0.85,4.89,4.04,2.77,4.47,5.11,5.11,6.81,5.53,6.81,,,,,,,,,,,,,,
1799999994455544456,2027-01-15T07:59:54.455544456Z,0.21,-2.55,-0.64,-0.43,1.06,3.83,4.89,1.91,4.89,3.83,5.32,6.38,5.74,7.02,,,,,,,,,,,,,,
1799999994465534466,2027-01-15T07:59:54.465534466Z,-0.64,-0.64,-2.98,0.00,0.64,1.70,6.17,1.28,4.68,1.49,5.74,4.68,6.81,5.96,,,,,,,,,,,,,,
1799999994475524476,2027-01-15T07:59:54.475524476Z,-0.85,0.43,-4.04,0.85,-0.85,2.98,5.53,2.98,5.53,3.40,6.17,4.47,9.57,6.17,,,,,,,,,,,,,,
1799999994485514486,2027-01-15T07:59:54.485514486Z,-1.70,1.91,-1.91,0.64,0.85,1.70,4.26,4.47,3.62,5.32,5.11,5.53,7.66,7.45,,,,,,,,,,,,,,
1799999994495504496,2027-01-15T07:59:54.495504496Z,-1.06,2.98,-1.49,-0.21,1.49,1.28,3.62,4.47,2.98,5.11,4.89,5.96,5.74,7.87,,,,,,,,,,,,,,
1799999994505494506,2027-01-15T07:59:54.505494506Z,-1.06,1.49,-1.70,-0.43,1.91,4.26,4.04,4.04,4.04,4.26,5.96,6.38,7.23,7.66,,,,,,,,,,,,,,
1799999994515484516,2027-01-15T07:59:54.515484516Z,-0.43,0.64,0.00,1.06,1.91,3.40,4.47,4.04,2.34,4.68,6.17,6.81,6.81,8.30,,,,,,,,,,,,,,
1799999994525474526,2027-01-15T07:59:54.525474526Z,-0.43,-0.43,0.43,1.49,1.70,2.13,3.62,3.40,2.34,5.96,5.53,5.74,6.81,7.02,,,,,,,,,,,,,,
1799999994535464536,2027-01-15T07:59:54.535464536Z,-1.06,-1.91,-0.43,0.85,1.06,1.28,2.34,3.19,3.62,8.30,6.17,4.47,7.45,5.32,,,,,,,,,,,,,,
1799999994545454546,2027-01-15T07:59:54.545454546Z,-0.85,-1.28,-0.64,1.28,0.21,1.06,2.77,4.26,2.77,8.09,7.02,6.81,6.60,6.17,,,,,,,,,,,,,,
1799999994555444556,2027-01-15T07:59:54.555444556Z,-1.49,-1.70,0.00,1.70,0.00,1.49,3.62,4.26,2.77,5.11,6.17,6.38,7.02,7.02,,,,,,,,,,,,,,
1799999994565434566,2027-01-15T07:59:54.565434566Z,-1.91,-2.13,1.91,1.28,0.43,1.49,4.26,4.68,2.98,4.47,5.74,5.74,6.81,7.23,,,,,,,,,,,,,,
1799999994575424576,2027-01-15T07:59:54.575424576Z,-2.77,-1.06,4.04,0.85,1.06,0.43,4.04,5.53,1.91,4.68,6.60,7.45,6.17,7.66,,,,,,,,,,,,,,
1799999994585414586,2027-01-15T07:59:54.585414586Z,0.85,-0.43,1.70,0.64,1.28,2.13,1.06,5.11,2.98,4.47,6.17,8.09,5.32,8.72,,,,,,,,,,,,,,
1799999994595404596,2027-01-15T07:59:54.595404596Z,-1.06,-1.06,0.00,0.64,1.70,3.19,0.43,4.89,3.62,4.68,5.74,7.02,4.89,8.51,,,,,,,,,,,,,,
1799999994605394606,2027-01-15T07:59:54.605394606Z,-2.13,-1.49,-0.85,0.64,2.34,2.13,2.13,3.40,2.77,3.62,7.66,5.74,5.32,8.30,,,,,,,,,,,,,,
1799999994615384616,2027-01-15T07:59:54.615384616Z,-2.55,-0.43,-0.43,-0.43,1.70,3.40,1.70,2.55,3.19,4.68,6.60,6.60,5.32,7.66,,,,,,,,,,,,,,
1799999994625374626,2027-01-15T07:59:54.625374626Z,0.21,-0.21,1.28,0.21,1.91,3.19,2.34,4.26,2.98,6.38,4.04,7.23,6.38,5.96,,,,,,,,,,,,,,
1799999994635364636,2027-01-15T07:59:54.635364636Z,-0.21,-0.21,1.06,-1.28,1.91,2.55,2.55,4.89,2.98,5.74,4.26,6.38,5.96,6.60,,,,,,,,,,,,,,
1799999994645354646,2027-01-15T07:59:54.645354646Z,-0.43,1.91,0.21,-2.98,1.91,1.91,2.98,3.40,4.04,4.04,5.11,5.32,6.17,8.72,,,,,,,,,,,,,,
1799999994655344656,2027-01-15T07:59:54.655344656Z,0.21,2.55,1.28,-1.06,1.06,-0.21,3.19,3.83,3.83,5.32,5.53,5.74,7.87,9.36,,,,,,,,,,,,,,
1799999994665334666,2027-01-15T07:59:54.665334666Z,-1.06,-0.64,1.28,-0.43,1.06,1.91,4.04,4.26,2.55,3.83,6.17,5.11,7.02,8.72,,,,,,,,,,,,,,
1799999994675324676,2027-01-15T07:59:54.675324676Z,-0.64,-1.91,0.00,-0.64,1.28,3.62,1.91,3.62,4.26,2.77,5.74,4.89,7.02,7.66,,,,,,,,,,,,,,
1799999994685314686,2027-01-15T07:59:54.685314686Z,-3.40,-1.28,-1.49,1.91,1.91,2.34,0.00,1.28,5.96,2.34,4.68,5.96,7.66,6.60,,,,,,,,,,,,,,
1799999994695304696,2027-01-15T07:59:54.695304696Z,-1.91,0.43,-0.64,1.91,3.83,3.62,2.98,1.91,2.98,3.62,6.38,6.17,5.74,7.02,,,,,,,,,,,,,,
1799999994705294706,2027-01-15T07:59:54.705294706Z,-1.06,0.64,-0.85,1.49,3.19,2.13,1.70,2.98,3.40,4.26,7.02,5.74,7.45,6.60,,,,,,,,,,,,,,
1799999994715284716,2027-01-15T07:59:54.715284716Z,-4.04,1.06,-1.28,2.34,0.21,-1.06,-0.43,4.04,5.74,4.89,7.23,7.23,9.79,6.17,,,,,,,,,,,,,,
1799999994725274726,2027-01-15T07:59:54.725274726Z,-1.70,-0.64,-0.43,0.64,1.06,0.85,2.13,3.83,4.47,6.17,5.53,6.60,7.66,8.09,,,,,,,,,,,,,,
1799999994735264736,2027-01-15T07:59:54.735264736Z,-3.19,-0.64,-0.85,0.64,1.91,0.64,1.70,2.77,3.19,7.02,5.96,5.11,7.66,9.36,,,,,,,,,,,,,,
1799999994745254746,2027-01-15T07:59:54.745254746Z,-1.49,-2.77,0.21,-0.85,1.06,0.00,1.91,2.34,2.77,6.60,5.74,5.32,7.66,8.51,,,,,,,,,,,,,,
1799999994755244756,2027-01-15T07:59:54.755244756Z,-2.55,-3.83,2.34,-2.55,-0.43,2.77,3.62,2.34,2.34,5.11,5.11,5.74,6.60,7.23,,,,,,,,,,,,,,
1799999994765234766,2027-01-15T07:59:54.765234766Z,1.70,-0.64,1.49,0.43,2.77,2.98,3.62,2.55,5.74,4.47,7.23,6.38,7.87,7.23,,,,,,,,,,,,,,
1799999994775224776,2027-01-15T07:59:54.775224776Z,-1.70,0.21,0.85,2.34,2.77,1.70,3.19,2.77,7.23,4.47,5.96,7.02,7.87,7.87,,,,,,,,,,,,,,
1799999994785214786,2027-01-15T07:59:54.785214786Z,-1.28,0.85,1.49,1.06,2.77,0.85,2.13,3.40,4.47,5.11,3.62,6.17,7.02,7.45,,,,,,,,,,,,,,
1799999994795204796,2027-01-15T07:59:54.795204796Z,-0.64,0.64,0.21,0.21,4.68,-0.85,1.91,3.19,3.62,4.68,4.89,5.53,5.96,6.38,,,,,,,,,,,,,,
1799999994805194806,2027-01-15T07:59:54.805194806Z,-1.28,0.21,1.70,-0.64,3.62,0.43,3.19,2.55,4.89,4.04,4.26,6.17,4.89,5.96,,,,,,,,,,,,,,
1799999994815184816,2027-01-15T07:59:54.815184816Z,-2.98,-1.70,2.77,-0.64,2.77,1.49,3.62,2.98,4.47,4.26,3.40,6.81,5.32,5.53,,,,,,,,,,,,,,
1799999994825174826,2027-01-15T07:59:54.825174826Z,-2.34,-4.04,0.00,-0.43,2.55,2.55,3.19,4.26,2.98,5.11,2.98,6.81,7.23,5.32,,,,,,,,,,,,,,
1799999994835164836,2027-01-15T07:59:54.835164836Z,-2.34,-2.34,-2.77,0.21,3.62,0.85,4.04,4.26,5.74,5.32,3.19,6.81,6.60,6.38,,,,,,,,,,,,,,
1799999994845154846,2027-01-15T07:59:54.845154846Z,-2.55,-2.34,-1.70,0.64,2.77,1.06,3.40,4.26,7.45,5.32,4.47,6.38,5.53,5.53,,,,,,,,,,,,,,
1799999994855144856,2027-01-15T07:59:54.855144856Z,-2.98,-4.89,0.00,0.43,0.85,0.85,2.55,5.32,5.53,4.68,5.74,6.17,5.11,5.74,,,,,,,,,,,,,,
1799999994865134866,2027-01-15T07:59:54.865134866Z,-2.13,-5.53,-0.85,0.21,0.85,-1.49,3.40,6.38,4.04,5.32,4.68,6.60,8.09,8.72,,,,,,,,,,,,,,
1799999994875124876,2027-01-15T07:59:54.875124876Z,-1.70,-3.40,-1.06,-0.64,2.34,-0.43,2.77,4.04,2.98,4.47,3.83,6.38,8.09,9.79,,,,,,,,,,,,,,
1799999994885114886,2027-01-15T07:59:54.885114886Z,-2.77,-2.98,-1.06,0.21,2.55,1.06,2.77,2.98,4.26,4.04,4.26,6.17,7.87,8.51,,,,,,,,,,,,,,
1799999994895104896,2027-01-15T07:59:54.895104896Z,-2.98,-1.91,0.21,1.49,2.55,2.77,3.83,2.77,4.89,4.26,5.32,6.81,7.23,6.60,,,,,,,,,,,,,,
1799999994905094906,2027-01-15T07:59:54.905094906Z,-0.64,0.64,1.49,1.06,2.13,1.49,2.55,4.47,2.13,3.83,4.68,7.02,7.45,5.96,,,,,,,,,,,,,,
1799999994915084916,2027-01-15T07:59:54.915084916Z,0.00,1.28,1.70,1.28,2.13,1.70,2.34,3.62,1.28,5.11,5.74,5.74,6.38,7.02,,,,,,,,,,,,,,
1799999994925074926,2027-01-15T07:59:54.925074926Z,0.64,0.64,1.70,0.64,2.13,0.43,3.19,2.55,1.91,6.17,6.38,5.32,6.60,6.81,,,,,,,,,,,,,,
1799999994935064936,2027-01-15T07:59:54.935064936Z,1.70,1.28,2.98,-0.64,1.49,-1.28,4.47,2.34,2.98,5.96,6.60,5.96,5.96,5.74,,,,,,,,,,,,,,
1799999994945054946,2027-01-15T07:59:54.945054946Z,1.49,0.21,1.28,0.00,2.34,0.43,2.77,3.40,3.62,4.26,5.32,6.17,8.51,7.45,,,,,,,,,,,,,,
1799999994955044956,2027-01-15T07:59:54.955044956Z,1.70,0.64,-0.21,1.06,2.34,1.91,1.70,3.62,3.62,3.83,5.96,6.17,9.36,8.09,,,,,,,,,,,,,,
1799999994965034966,2027-01-15T07:59:54.965034966Z,3.19,3.19,-3.40,1.91,1.91,3.62,2.13,3.19,2.34,4.47,7.45,6.60,5.53,6.81,,,,,,,,,,,,,,
1799999994975024976,2027-01-15T07:59:54.975024976Z,0.85,1.06,-2.77,1.28,2.77,3.62,2.13,1.91,2.55,4.26,5.96,7.02,4.89,7.23,,,,,,,,,,,,,,
1799999994985014986,2027-01-15T07:59:54.985014986Z,-0.21,-2.98,-3.83,-0.43,2.34,4.26,2.77,2.34,3.83,4.26,4.04,5.74,7.45,9.15,,,,,,,,,,,,,,
1799999994995004996,2027-01-15T07:59:54.995004996Z,0.43,-2.34,-4.04,-1.06,1.70,4.04,3.40,2.77,4.04,4.04,4.68,5.74,7.23,8.94,,,,,,,,,,,,,,
1799999995004995005,2027-01-15T07:59:55.004995005Z,-2.77,-0.43,-1.91,-1.70,0.21,2.13,5.32,2.77,4.47,4.26,5.96,7.02,5.96,7.02,,,,,,,,,,,,,,
1799999995014985015,2027-01-15T07:59:55.014985015Z,-2.55,-0.43,-0.64,-0.21,-0.64,2.55,3.40,3.40,6.60,4.68,4.68,6.17,6.38,5.74,,,,,,,,,,,,,,
1799999995024975025,2027-01-15T07:59:55.024975025Z,0.00,-0.43,-0.21,-0.21,-0.64,3.40,2.77,3.19,6.60,4.89,4.68,6.17,8.09,6.81,,,,,,,,,,,,,,
1799999995034965035,2027-01-15T07:59:55.034965035Z,-0.85,-0.85,-0.21,-0.64,-2.13,3.62,1.91,1.49,4.04,3.62,5.11,6.38,10.21,9.15,,,,,,,,,,,,,,
1799999995044955045,2027-01-15T07:59:55.044955045Z,-1.49,-0.64,-1.06,-1.70,-0.85,4.04,3.19,0.64,3.83,4.47,5.11,5.32,8.30,8.72,,,,,,,,,,,,,,
1799999995054945055,2027-01-15T07:59:55.054945055Z,-1.06,2.13,-0.21,1.28,0.21,2.55,4.47,2.98,4.68,3.83,5.74,5.96,6.38,8.72,,,,,,,,,,,,,,
1799999995064935065,2027-01-15T07:59:55.064935065Z,2.77,2.55,-0.64,1.06,0.00,1.49,3.19,4.04,4.26,3.62,5.32,6.81,6.38,8.94,,,,,,,,,,,,,,
1799999995074925075,2027-01-15T07:59:55.074925075Z,1.49,3.40,-1.49,0.64,0.85,1.91,0.64,2.98,3.62,3.83,5.53,7.87,4.89,7.23,,,,,,,,,,,,,,
1799999995084915085,2027-01-15T07:59:55.084915085Z,0.43,0.85,-0.64,2.13,2.34,2.98,2.13,3.62,3.83,2.55,7.02,7.66,5.74,5.53,,,,,,,,,,,,,,
1799999995094905095,2027-01-15T07:59:55.094905095Z,2.34,0.00,-1.06,1.70,2.34,2.34,3.19,3.62,3.62,1.70,5.96,7.45,6.81,5.96,,,,,,,,,,,,,,
1799999995104895105,2027-01-15T07:59:55.104895105Z,5.11,2.34,-1.06,0.21,1.49,0.85,3.62,1.70,4.68,4.26,4.26,6.38,5.74,7.45,,,,,,,,,,,,,,
1799999995114885115,2027-01-15T07:59:55.114885115Z,2.55,3.62,0.43,0.64,1.28,2.98,3.83,0.64,5.53,5.74,5.96,7.02,2.77,7.02,,,,,,,,,,,,,,
1799999995124875125,2027-01-15T07:59:55.124875125Z,1.70,2.77,0.21,1.70,1.91,4.26,3.62,1.06,4.68,4.26,7.45,7.45,6.60,7.66,,,,,,,,,,,,,,
1799999995134865135,2027-01-15T07:59:55.134865135Z,-1.49,2.98,-0.43,2.13,2.34,3.19,3.19,1.28,5.11,4.04,7.45,7.45,8.94,7.23,,,,,,,,,,,,,,
1799999995144855145,2027-01-15T07:59:55.144855145Z,1.49,4.26,-2.13,2.13,1.91,1.28,3.62,2.55,5.32,5.11,6.60,6.38,5.96,5.53,,,,,,,,,,,,,,
1799999995154845155,2027-01-15T07:59:55.154845155Z,0.21,2.77,-3.62,2.55,-0.85,2.13,4.26,2.55,3.83,4.04,4.89,6.60,5.53,6.60,,,,,,,,,,,,,,
1799999995164835165,2027-01-15T07:59:55.164835165Z,-0.64,0.43,-2.77,1.70,-0.43,0.85,3.19,1.28,4.26,3.40,4.89,6.38,5.74,9.15,,,,,,,,,,,,,,
1799999995174825175,2027-01-15T07:59:55.174825175Z,-0.64,0.00,-1.28,1.28,-0.21,2.34,2.55,0.43,4.26,3.83,5.11,5.96,5.32,8.94,,,,,,,,,,,,,,
1799999995184815185,2027-01-15T07:59:55.184815185Z,0.21,1.06,1.06,1.28,-1.06,5.74,1.70,-0.64,3.19,5.32,4.04,5.32,6.60,6.38,,,,,,,,,,,,,,
1799999995194805195,2027-01-15T07:59:55.194805195Z,-1.91,0.00,1.28,0.43,1.06,3.62,1.49,1.06,2.98,4.68,4.47,5.96,8.51,4.26,,,,,,,,,,,,,,
1799999995204795205,2027-01-15T07:59:55.204795205Z,0.64,0.00,0.64,1.06,1.49,2.13,1.49,2.55,2.77,4.04,4.26,5.53,8.51,5.74,,,,,,,,,,,,,,
1799999995214785215,2027-01-15T07:59:55.214785215Z,1.06,-0.43,0.21,1.49,0.85,3.62,2.77,4.04,2.77,4.47,4.47,5.11,8.94,8.30,,,,,,,,,,,,,,
1799999995224775225,2027-01-15T07:59:55.224775225Z,0.64,-1.28,-0.21,0.21,1.06,2.55,2.77,4.89,3.19,5.96,5.32,6.38,7.23,6.38,,,,,,,,,,,,,,
1799999995234765235,2027-01-15T07:59:55.234765235Z,0.85,0.64,1.28,1.06,0.21,3.40,3.19,2.34,2.34,7.02,6.17,5.74,5.53,6.17,,,,,,,,,,,,,,
1799999995244755245,2027-01-15T07:59:55.244755245Z,0.00,1.28,1.70,0.43,0.00,4.26,3.83,1.91,2.34,5.74,5.53,5.11,5.53,6.81,,,,,,,,,,,,,,
1799999995254745255,2027-01-15T07:59:55.254745255Z,-1.06,1.06,2.13,0.43,1.06,2.55,3.62,2.98,3.19,3.40,4.89,5.96,5.53,5.96,,,,,,,,,,,,,,
1799999995264735265,2027-01-15T07:59:55.264735265Z,0.43,1.91,0.00,3.19,0.85,1.28,2.55,1.28,4.26,2.98,4.47,5.53,4.89,5.96,,,,,,,,,,,,,,
1799999995274725275,2027-01-15T07:59:55.274725275Z,-0.43,1.06,-0.43,3.40,0.00,1.28,1.91,1.49,4.47,3.62,4.26,6.38,5.74,6.60,,,,,,,,,,,,,,
1799999995284715285,2027-01-15T07:59:55.284715285Z,-0.21,-0.43,0.64,2.55,-1.28,1.49,1.49,2.98,3.62,5.11,5.53,7.02,6.38,8.09,,,,,,,,,,,,,,
1799999995294705295,2027-01-15T07:59:55.294705295Z,-0.64,0.00,1.70,2.55,0.85,2.34,2.55,2.77,3.40,6.38,8.30,5.74,5.32,9.79,,,,,,,,,,,,,,
1799999995304695305,2027-01-15T07:59:55.304695305Z,0.00,1.28,0.21,1.06,0.85,2.13,1.91,2.13,3.62,6.17,7.02,7.02,4.47,8.94,,,,,,,,,,,,,,
1799999995314685315,2027-01-15T07:59:55.314685315Z,-1.49,1.28,-0.43,1.70,0.64,1.70,1.70,2.34,3.62,5.74,6.17,7.66,5.11,7.66,,,,,,,,,,,,,,
1799999995324675325,2027-01-15T07:59:55.324675325Z,-1.28,-0.21,1.49,3.62,1.49,2.34,3.19,3.40,2.98,6.81,7.02,5.74,5.74,7.23,,,,,,,,,,,,,,
1799999995334665335,2027-01-15T07:59:55.334665335Z,-0.43,-0.64,2.55,3.19,0.43,2.77,2.13,2.77,3.83,6.17,5.74,4.26,6.38,8.72,,,,,,,,,,,,,,
1799999995344655345,2027-01-15T07:59:55.344655345Z,0.43,-0.64,2.55,2.34,0.43,2.13,1.49,2.13,4.04,5.32,6.17,4.68,8.51,8.30,,,,,,,,,,,,,,
1799999995354645355,2027-01-15T07:59:55.354645355Z,1.28,-1.49,1.70,2.13,2.13,1.49,2.77,1.06,3.62,4.89,6.81,5.32,11.06,6.81,,,,,,,,,,,,,,
1799999995364635365,2027-01-15T07:59:55.364635365Z,-1.06,-1.28,0.64,0.64,0.64,3.40,4.04,1.70,4.04,5.11,5.32,5.53,8.30,7.23,,,,,,,,,,,,,,
1799999995374625375,2027-01-15T07:59:55.374625375Z,1.91,-2.13,0.00,-0.21,-0.64,2.34,3.19,3.40,2.77,4.89,5.53,6.38,8.09,7.87,,,,,,,,,,,,,,
1799999995384615385,2027-01-15T07:59:55.384615385Z,-1.49,-1.91,-0.64,0.43,0.64,2.98,4.26,4.26,2.13,4.68,6.38,6.60,6.81,7.66,,,,,,,,,,,,,,
1799999995394605395,2027-01-15T07:59:55.394605395Z,-1.28,-1.06,-1.70,0.85,2.55,2.34,5.11,4.04,2.77,5.53,6.60,5.53,4.89,6.60,,,,,,,,,,,,,,
1799999995404595405,2027-01-15T07:59:55.404595405Z,-1.28,-0.85,-1.06,0.43,1.91,-0.21,3.83,4.89,3.19,5.53,5.74,5.32,5.53,5.74,,,,,,,,,,,,,,
1799999995414585415,2027-01-15T07:59:55.414585415Z,-3.62,-1.91,-1.70,-1.06,-0.43,0.64,5.32,4.68,4.47,4.04,7.23,4.89,3.83,7.66,,,,,,,,,,,,,,
1799999995424575425,2027-01-15T07:59:55.424575425Z,-2.55,-3.40,-1.28,-1.49,0.43,1.49,4.47,4.26,5.32,3.40,8.09,4.89,3.62,8.72,,,,,,,,,,,,,,
1799999995434565435,2027-01-15T07:59:55.434565435Z,-3.40,-6.38,-0.43,-1.91,2.13,1.49,3.19,4.68,4.26,4.26,7.87,4.89,5.74,7.66,,,,,,,,,,,,,,
1799999995444555445,2027-01-15T07:59:55.444555445Z,-3.83,-5.96,-0.64,-2.55,1.28,2.98,2.13,5.74,2.55,5.96,4.89,5.74,5.74,6.81,,,,,,,,,,,,,,
1799999995454545455,2027-01-15T07:59:55.454545455Z,-4.04,-4.89,-0.64,-2.55,1.28,2.55,0.85,5.96,2.98,5.74,2.98,5.53,5.53,5.96,,,,,,,,,,,,,,
1799999995464535465,2027-01-15T07:59:55.464535465Z,,-4.47,-1.91,-2.34,1.49,1.28,-1.91,5.32,3.19,4.68,2.13,5.32,6.38,4.26,,,,,,,,,,,,,,
1799999995474525475,2027-01-15T07:59:55.474525475Z,-7.23,-3.19,-2.34,-3.40,1.70,1.28,0.00,5.53,2.55,4.04,4.04,6.17,5.11,4.26,,,,,,,,,,,,,,
1799999995484515485,2027-01-15T07:59:55.484515485Z,-7.87,-2.34,-1.70,-1.06,0.64,0.21,1.28,3.62,4.26,4.89,5.53,4.89,6.17,6.81,,,,,,,,,,,,,,
1799999995494505495,2027-01-15T07:59:55.494505495Z,-7.45,-4.04,-2.55,1.06,0.43,0.21,1.06,2.55,5.32,5.32,5.11,4.26,6.60,8.30,,,,,,,,,,,,,,
1799999995504495505,2027-01-15T07:59:55.504495505Z,-4.89,-5.96,-4.04,1.06,1.91,1.70,1.91,3.83,4.68,5.32,4.47,5.32,5.32,7.66,,,,,,,,,,,,,,
1799999995514485515,2027-01-15T07:59:55.514485515Z,-3.83,-4.89,-1.70,0.00,1.70,2.77,2.34,3.62,5.53,4.68,5.74,4.89,5.11,7.87,,,,,,,,,,,,,,
1799999995524475525,2027-01-15T07:59:55.524475525Z,-4.89,-2.34,-0.64,-0.85,0.85,2.55,2.13,4.26,5.74,5.11,5.96,4.68,5.96,7.23,,,,,,,,,,,,,,
1799999995534465535,2027-01-15T07:59:55.534465535Z,-3.62,0.43,-0.21,-1.49,1.06,2.13,1.91,6.17,6.60,5.32,4.47,5.74,5.74,5.96,,,,,,,,,,,,,,
1799999995544455545,2027-01-15T07:59:55.544455545Z,-1.28,-0.64,-2.55,-1.70,1.70,1.49,2.34,4.47,7.23,4.68,3.83,5.53,6.60,6.17,,,,,,,,,,,,,,
1799999995554445555,2027-01-15T07:59:55.554445555Z,-1.28,-2.13,-1.49,-1.28,4.04,3.62,2.13,3.62,4.47,6.60,4.68,7.45,5.96,7.02,,,,,,,,,,,,,,
1799999995564435565,2027-01-15T07:59:55.564435565Z,-0.64,-2.55,-0.85,-0.43,4.04,5.11,2.13,3.62,3.19,5.96,4.68,8.09,8.72,6.81,,,,,,,,,,,,,,
1799999995574425575,2027-01-15T07:59:55.574425575Z,-0.21,-2.34,-1.06,0.00,1.70,3.83,3.83,1.49,1.91,3.40,5.53,7.87,11.49,7.45,,,,,,,,,,,,,,
1799999995584415585,2027-01-15T07:59:55.584415585Z,-1.91,-0.43,-1.91,0.21,1.70,4.47,3.19,3.19,2.13,4.68,4.47,7.23,9.15,8.30,,,,,,,,,,,,,,
1799999995594405595,2027-01-15T07:59:55.594405595Z,2.13,0.64,-0.85,0.64,1.91,3.83,2.55,4.47,2.13,5.74,4.04,7.45,7.66,7.87,,,,,,,,,,,,,,
1799999995604395605,2027-01-15T07:59:55.604395605Z,0.00,0.64,1.06,1.91,2.34,2.34,3.40,3.83,1.28,5.11,5.11,7.02,8.30,6.60,,,,,,,,,,,,,,
1799999995614385615,2027-01-15T07:59:55.614385615Z,-0.64,0.43,0.64,2.13,3.40,1.49,3.62,5.11,1.06,4.89,5.74,7.23,8.72,7.02,,,,,,,,,,,,,,
1799999995624375625,2027-01-15T07:59:55.624375625Z,2.34,-0.21,1.06,1.70,2.13,-0.43,1.49,3.40,3.83,5.53,5.11,6.81,7.87,7.66,,,,,,,,,,,,,,
1799999995634365635,2027-01-15T07:59:55.634365635Z,0.43,0.43,-0.43,1.49,1.49,0.64,0.43,1.70,5.11,5.11,5.11,6.81,8.09,8.72,,,,,,,,,,,,,,
1799999995644355645,2027-01-15T07:59:55.644355645Z,0.64,3.62,-1.91,0.64,1.70,3.40,-0.21,0.85,3.62,3.62,6.17,8.09,8.51,9.15,,,,,,,,,,,,,,
1799999995654345655,2027-01-15T07:59:55.654345655Z,0.43,3.62,0.43,1.06,4.47,3.83,0.00,1.28,3.19,3.40,5.96,7.23,8.30,6.38,,,,,,,,,,,,,,
1799999995664335665,2027-01-15T07:59:55.664335665Z,0.00,1.70,1.06,2.13,3.62,2.98,0.64,2.13,5.32,3.40,6.17,5.74,6.38,6.17,,,,,,,,,,,,,,
1799999995674325675,2027-01-15T07:59:55.674325675Z,-2.13,1.49,0.85,0.43,2.13,3.19,1.28,2.55,4.68,3.40,6.81,5.11,5.74,7.02,,,,,,,,,,,,,,
1799999995684315685,2027-01-15T07:59:55.684315685Z,1.70,0.64,-0.21,-0.64,1.49,3.62,3.19,1.70,2.55,4.04,7.66,4.26,4.68,7.02,,,,,,,,,,,,,,
1799999995694305695,2027-01-15T07:59:55.694305695Z,0.21,1.28,0.00,0.64,1.06,2.77,2.55,0.21,2.98,3.19,5.32,5.74,3.19,8.94,,,,,,,,,,,,,,
1799999995704295705,2027-01-15T07:59:55.704295705Z,3.19,2.13,0.21,0.43,1.28,1.91,1.49,1.06,2.98,3.83,5.11,6.60,4.26,10.64,,,,,,,,,,,,,,
1799999995714285715,2027-01-15T07:59:55.714285715Z,2.77,2.98,2.34,0.43,-0.43,1.70,2.34,2.98,4.04,3.83,6.17,6.17,7.45,11.49,,,,,,,,,,,,,,
1799999995724275725,2027-01-15T07:59:55.724275725Z,2.55,2.77,3.19,-0.21,-1.06,1.70,2.55,2.13,4.89,2.34,5.11,4.89,6.60,10.00,,,,,,,,,,,,,,
1799999995734265735,2027-01-15T07:59:55.734265735Z,0.64,1.28,1.91,0.64,1.06,1.70,3.19,1.91,2.98,3.19,5.53,6.81,8.09,7.02,,,,,,,,,,,,,,
1799999995744255745,2027-01-15T07:59:55.744255745Z,-0.43,0.64,1.06,0.64,1.49,1.28,3.40,2.55,3.40,2.98,4.89,8.30,7.87,5.74,,,,,,,,,,,,,,
1799999995754245755,2027-01-15T07:59:55.754245755Z,-0.43,0.43,0.00,0.43,0.64,1.70,3.40,3.19,5.53,2.77,4.04,7.45,5.53,7.23,,,,,,,,,,,,,,
1799999995764235765,2027-01-15T07:59:55.764235765Z,0.64,-0.43,-0.64,2.34,1.91,2.98,5.53,4.89,5.11,4.04,6.17,6.81,6.81,7.87,,,,,,,,,,,,,,
1799999995774225775,2027-01-15T07:59:55.774225775Z,-1.06,-0.64,-0.43,1.91,2.77,2.98,6.17,4.47,4.47,4.89,7.45,6.38,7.45,8.30,,,,,,,,,,,,,,
1799999995784215785,2027-01-15T07:59:55.784215785Z,-4.68,0.64,-0.85,0.00,2.77,3.62,3.83,3.62,5.53,6.60,7.02,5.32,4.26,8.72,,,,,,,,,,,,,,
1799999995794205795,2027-01-15T07:59:55.794205795Z,-4.26,1.06,-1.06,0.64,2.13,2.77,2.55,4.47,6.17,6.17,5.96,4.68,4.47,6.81,,,,,,,,,,,,,,
1799999995804195805,2027-01-15T07:59:55.804195805Z,-3.40,-1.28,-0.21,-0.21,1.06,3.19,3.40,3.40,3.19,4.26,5.32,5.53,7.23,4.89,,,,,,,,,,,,,,
1799999995814185815,2027-01-15T07:59:55.814185815Z,-4.47,-1.91,0.85,-0.43,1.28,2.55,2.98,2.77,1.91,4.47,5.96,6.17,8.09,5.11,,,,,,,,,,,,,,
1799999995824175825,2027-01-15T07:59:55.824175825Z,-0.43,-2.34,2.55,-0.43,0.64,1.70,1.49,3.83,3.83,4.26,7.02,6.17,8.51,6.60,,,,,,,,,,,,,,
1799999995834165835,2027-01-15T07:59:55.834165835Z,-0.43,-2.98,2.13,-0.43,-1.49,2.98,2.13,4.47,6.17,3.40,6.17,6.17,9.57,7.23,,,,,,,,,,,,,,
1799999995844155845,2027-01-15T07:59:55.844155845Z,-4.04,-1.06,0.43,0.85,-0.43,2.55,2.34,3.19,5.32,4.26,5.53,5.53,5.96,8.51,,,,,,,,,,,,,,
1799999995854145855,2027-01-15T07:59:55.854145855Z,-3.83,0.00,0.00,1.49,0.85,2.77,3.62,4.26,4.26,5.32,4.68,5.32,4.47,8.09,,,,,,,,,,,,,,
1799999995864135865,2027-01-15T07:59:55.864135865Z,-1.28,-1.70,0.64,2.34,2.55,4.04,5.53,5.74,4.89,5.32,3.40,6.81,8.30,5.96,,,,,,,,,,,,,,
1799999995874125875,2027-01-15T07:59:55.874125875Z,-0.85,-3.19,0.00,0.43,2.34,1.06,4.89,4.04,4.47,4.26,2.77,7.23,8.94,6.60,,,,,,,,,,,,,,
1799999995884115885,2027-01-15T07:59:55.884115885Z,-1.70,-3.83,0.00,-0.43,2.13,-0.21,5.11,2.98,4.68,4.47,2.55,7.02,8.09,7.02,,,,,,,,,,,,,,
1799999995894105895,2027-01-15T07:59:55.894105895Z,-2.55,-2.98,-0.64,-0.43,2.13,2.13,5.96,3.19,5.74,4.47,5.32,6.81,8.72,5.96,,,,,,,,,,,,,,
1799999995904095905,2027-01-15T07:59:55.904095905Z,-4.89,0.43,0.21,-0.64,1.49,1.91,4.68,3.19,7.02,2.98,5.96,6.38,5.32,6.81,,,,,,,,,,,,,,
1799999995914085915,2027-01-15T07:59:55.914085915Z,-3.19,-0.43,0.85,-1.49,1.06,0.21,2.98,2.77,4.89,3.40,4.47,6.38,3.83,8.30,,,,,,,,,,,,,,
1799999995924075925,2027-01-15T07:59:55.924075925Z,-0.21,-1.91,0.00,-1.06,0.85,0.21,2.55,2.77,3.62,4.26,4.68,6.17,4.26,8.09,,,,,,,,,,,,,,
1799999995934065935,2027-01-15T07:59:55.934065935Z,-0.64,-3.19,-1.49,-0.43,-0.43,1.28,2.34,2.55,3.40,4.68,5.32,6.17,3.83,8.09,,,,,,,,,,,,,,
1799999995944055945,2027-01-15T07:59:55.944055945Z,-2.77,-0.64,-0.85,0.64,-0.21,0.64,1.91,2.55,4.26,4.04,5.32,5.96,5.96,8.30,,,,,,,,,,,,,,
1799999995954045955,2027-01-15T07:59:55.954045955Z,-2.13,-1.49,-1.06,1.28,0.21,1.28,1.91,3.19,3.62,4.47,5.11,6.17,6.17,7.66,,,,,,,,,,,,,,
1799999995964035965,2027-01-15T07:59:55.964035965Z,-0.43,-2.98,-1.49,1.06,0.00,2.55,2.34,4.26,2.34,5.74,5.11,6.38,5.74,5.53,,,,,,,,,,,,,,
1799999995974025975,2027-01-15T07:59:55.974025975Z,-0.85,-1.49,-0.64,0.21,1.28,1.91,3.83,3.83,3.62,6.38,6.38,5.53,7.45,5.74,,,,,,,,,,,,,,
1799999995984015985,2027-01-15T07:59:55.984015985Z,0.21,-1.28,0.00,-0.43,1.70,3.62,4.04,2.77,4.04,4.68,5.96,6.38,6.81,7.45,,,,,,,,,,,,,,
1799999995994005995,2027-01-15T07:59:55.994005995Z,0.00,-0.85,0.21,-0.43,1.28,1.28,3.19,2.77,3.83,3.40,5.11,7.02,7.45,8.30,,,,,,,,,,,,,,
1799999996003996004,2027-01-15T07:59:56.003996004Z,0.43,-0.43,1.28,0.21,0.43,-1.70,2.34,2.77,3.83,1.28,4.26,7.23,8.94,7.45,,,,,,,,,,,,,,
1799999996013986014,2027-01-15T07:59:56.013986014Z,0.43,0.21,1.28,1.70,0.21,0.43,3.83,3.19,5.32,2.77,4.47,6.17,6.60,7.02,,,,,,,,,,,,,,
1799999996023976024,2027-01-15T07:59:56.023976024Z,-0.43,0.21,0.85,2.13,0.43,1.70,4.68,3.19,5.53,3.19,4.26,5.53,6.38,6.60,,,,,,,,,,,,,,
1799999996033966034,2027-01-15T07:59:56.033966034Z,-1.70,-0.64,1.49,1.91,0.85,0.85,6.38,2.77,3.83,2.34,3.40,5.53,9.15,7.02,,,,,,,,,,,,,,
1799999996043956044,2027-01-15T07:59:56.043956044Z,-0.64,0.00,0.64,1.49,0.85,2.13,5.11,4.04,3.40,2.77,4.04,7.02,8.30,7.66,,,,,,,,,,,,,,
1799999996053946054,2027-01-15T07:59:56.053946054Z,-0.64,-1.28,-0.21,-0.64,1.70,1.91,3.62,3.19,5.32,3.19,5.74,7.66,6.60,8.30,,,,,,,,,,,,,,
1799999996063936064,2027-01-15T07:59:56.063936064Z,-0.43,-0.43,-0.43,-0.64,1.28,1.28,3.83,2.77,4.26,2.98,5.32,7.45,4.89,7.87,,,,,,,,,,,,,,
1799999996073926074,2027-01-15T07:59:56.073926074Z,-2.55,2.13,-1.49,1.28,-0.85,0.85,4.04,3.62,2.13,3.83,4.26,6.81,2.98,5.53,,,,,,,,,,,,,,
1799999996083916084,2027-01-15T07:59:56.083916084Z,1.06,1.06,0.00,0.43,-1.91,1.70,1.91,5.32,2.98,5.11,5.74,6.81,4.47,4.26,,,,,,,,,,,,,,
1799999996093906094,2027-01-15T07:59:56.093906094Z,-1.49,-0.21,-0.85,-1.06,-0.64,2.77,1.70,2.98,3.83,6.38,5.96,5.53,6.81,6.60,,,,,,,,,,,,,,
1799999996103896104,2027-01-15T07:59:56.103896104Z,-0.43,-0.21,-1.91,0.00,-0.43,2.34,2.34,2.34,4.04,6.17,5.32,5.74,4.89,7.87,,,,,,,,,,,,,,
1799999996113886114,2027-01-15T07:59:56.113886114Z,-0.43,0.00,-1.49,1.28,0.00,1.70,1.70,3.62,3.40,4.89,5.53,4.89,2.77,8.30,,,,,,,,,,,,,,
1799999996123876124,2027-01-15T07:59:56.123876124Z,0.43,-1.28,0.00,0.21,1.49,1.06,0.21,3.40,2.55,4.68,6.60,5.53,4.04,7.66,,,,,,,,,,,,,,
1799999996133866134,2027-01-15T07:59:56.133866134Z,-0.21,-1.06,-0.64,0.21,1.49,0.43,0.43,3.62,2.77,5.53,7.87,6.17,4.04,7.02,,,,,,,,,,,,,,
1799999996143856144,2027-01-15T07:59:56.143856144Z,-0.85,-0.21,-2.13,1.49,1.28,0.00,1.91,4.04,3.19,6.17,9.57,5.74,7.66,5.74,,,,,,,,,,,,,,
1799999996153846154,2027-01-15T07:59:56.153846154Z,1.49,-1.28,-2.77,2.34,0.43,1.49,1.70,3.40,2.55,5.11,8.30,5.11,9.36,5.96,,,,,,,,,,,,,,
1799999996163836164,2027-01-15T07:59:56.163836164Z,-0.85,-1.28,-1.06,1.70,-0.43,0.00,0.64,3.62,3.83,5.11,4.68,6.81,6.38,7.23,,,,,,,,,,,,,,
1799999996173826174,2027-01-15T07:59:56.173826174Z,-0.64,-0.21,-0.43,0.85,-1.06,1.28,1.28,4.04,4.04,4.26,4.47,7.02,5.32,8.30,,,,,,,,,,,,,,
1799999996183816184,2027-01-15T07:59:56.183816184Z,-2.13,1.70,-0.43,0.21,0.00,3.83,2.77,2.55,2.34,3.62,4.89,5.11,4.26,8.51,,,,,,,,,,,,,,
1799999996193806194,2027-01-15T07:59:56.193806194Z,-1.49,2.77,1.06,1.06,2.34,4.89,2.34,1.28,4.04,4.89,4.04,5.53,4.47,7.02,,,,,,,,,,,,,,
1799999996203796204,2027-01-15T07:59:56.203796204Z,-1.91,1.28,1.28,0.43,2.77,4.89,2.55,1.91,5.11,4.89,4.26,6.17,4.68,7.87,,,,,,,,,,,,,,
1799999996213786214,2027-01-15T07:59:56.213786214Z,-1.49,-1.70,0.43,-1.06,4.47,2.13,3.19,2.98,4.89,3.62,3.62,6.17,5.32,8.09,,,,,,,,,,,,,,
1799999996223776224,2027-01-15T07:59:56.223776224Z,-0.43,-1.70,0.43,-0.43,3.62,1.06,2.98,2.98,4.04,3.40,4.89,5.74,7.02,6.38,,,,,,,,,,,,,,
1799999996233766234,2027-01-15T07:59:56.233766234Z,-0.21,-1.28,-2.13,1.06,0.43,2.98,3.83,5.11,4.26,3.62,6.60,4.89,9.15,7.23,,,,,,,,,,,,,,
1799999996243756244,2027-01-15T07:59:56.243756244Z,0.21,-1.91,-2.13,1.28,0.43,3.40,2.98,4.68,4.26,3.83,6.38,5.53,8.51,7.66,,,,,,,,,,,,,,
1799999996253746254,2027-01-15T07:59:56.253746254Z,-0.43,-2.34,0.85,2.55,2.55,1.91,2.13,2.34,4.89,5.32,5.53,6.38,6.17,7.02,,,,,,,,,,,,,,
1799999996263736264,2027-01-15T07:59:56.263736264Z,-2.55,-1.91,0.00,0.85,1.49,2.34,3.62,3.40,4.26,4.26,5.11,5.96,7.87,7.02,,,,,,,,,,,,,,
1799999996273726274,2027-01-15T07:59:56.273726274Z,-2.13,-1.70,-1.49,-0.21,0.00,2.55,4.04,4.04,2.98,3.40,5.32,6.17,7.45,6.60,,,,,,,,,,,,,,
1799999996283716284,2027-01-15T07:59:56.283716284Z,-2.13,-2.55,-0.64,0.43,0.43,0.21,3.40,5.11,1.28,4.04,6.81,7.23,4.68,7.02,,,,,,,,,,,,,,
1799999996293706294,2027-01-15T07:59:56.293706294Z,-1.28,-1.49,-0.64,-1.28,4.04,0.00,3.40,4.47,1.06,4.68,7.66,7.02,2.34,8.51,,,,,,,,,,,,,,
1799999996303696304,2027-01-15T07:59:56.303696304Z,-1.70,-1.49,0.64,-0.64,4.47,2.98,4.04,4.68,2.13,5.53,4.89,6.17,7.02,7.45,,,,,,,,,,,,,,
1799999996313686314,2027-01-15T07:59:56.313686314Z,-0.64,-1.70,0.43,0.64,3.40,2.13,4.26,3.83,2.34,6.17,3.83,5.74,9.57,6.38,,,,,,,,,,,,,,
1799999996323676324,2027-01-15T07:59:56.323676324Z,-1.70,-0.85,-1.06,1.91,3.62,0.00,5.11,2.34,1.91,5.74,6.38,5.32,5.74,5.74,,,,,,,,,,,,,,
1799999996333666334,2027-01-15T07:59:56.333666334Z,-2.13,-0.64,-1.70,-0.64,2.34,1.06,5.11,4.04,3.62,6.38,6.81,4.47,5.74,5.96,,,,,,,,,,,,,,
1799999996343656344,2027-01-15T07:59:56.343656344Z,-1.91,-1.91,-1.49,-0.43,0.85,0.43,3.83,2.55,6.60,6.38,5.53,5.53,8.30,7.45,,,,,,,,,,,,,,
1799999996353646354,2027-01-15T07:59:56.353646354Z,0.21,-1.49,-0.64,0.64,1.70,0.00,3.19,1.70,7.02,5.96,5.32,6.17,8.94,8.09,,,,,,,,,,,,,,
1799999996363636364,2027-01-15T07:59:56.363636364Z,-0.43,0.21,0.64,0.85,3.19,0.43,3.83,1.91,6.38,5.96,5.11,5.74,6.17,8.30,,,,,,,,,,,,,,
1799999996373626374,2027-01-15T07:59:56.373626374Z,-0.43,0.21,-1.49,0.21,2.34,2.13,4.68,3.40,4.47,7.02,5.11,5.74,3.83,7.23,,,,,,,,,,,,,,
1799999996383616384,2027-01-15T07:59:56.383616384Z,1.06,-0.21,-2.98,0.64,2.34,3.19,4.04,3.62,3.83,6.60,4.89,6.60,4.26,6.38,,,,,,,,,,,,,,
1799999996393606394,2027-01-15T07:59:56.393606394Z,,-1.28,-1.70,1.70,2.34,3.62,2.77,4.04,5.53,5.74,5.96,8.09,6.38,7.02,,,,,,,,,,,,,,
1799999996403596404,2027-01-15T07:59:56.403596404Z,1.49,-0.43,-1.06,1.91,1.91,2.34,1.91,4.04,5.96,6.17,7.45,7.23,5.96,5.74,,,,,,,,,,,,,,
1799999996413586414,2027-01-15T07:59:56.413586414Z,-0.64,0.00,0.64,0.43,1.28,1.28,0.85,3.83,4.68,5.11,5.96,5.32,7.23,5.74,,,,,,,,,,,,,,
1799999996423576424,2027-01-15T07:59:56.423576424Z,-0.43,-1.06,0.85,-0.21,0.85,1.28,0.85,2.77,4.26,4.26,4.89,4.89,6.60,5.96,,,,,,,,,,,,,,
1799999996433566434,2027-01-15T07:59:56.433566434Z,-1.70,-2.34,-1.06,0.21,0.21,2.55,2.77,2.77,3.40,3.62,5.32,5.32,5.11,5.32,,,,,,,,,,,,,,
1799999996443556444,2027-01-15T07:59:56.443556444Z,-1.06,-0.64,-0.64,-0.43,0.00,3.83,3.62,3.83,2.13,5.74,6.38,6.38,5.96,6.17,,,,,,,,,,,,,,
1799999996453546454,2027-01-15T07:59:56.453546454Z,-1.28,0.00,0.00,0.64,0.00,3.19,2.77,2.77,2.98,6.60,5.32,5.96,7.02,7.45,,,,,,,,,,,,,,
1799999996463536464,2027-01-15T07:59:56.463536464Z,-0.85,-1.49,-1.06,1.91,-0.43,1.28,2.13,0.43,4.68,6.60,3.19,6.17,9.79,8.51,,,,,,,,,,,,,,
1799999996473526474,2027-01-15T07:59:56.473526474Z,-1.28,-0.85,1.06,0.21,0.00,0.21,3.19,1.49,3.40,5.96,4.04,8.09,10.43,7.87,,,,,,,,,,,,,,
1799999996483516484,2027-01-15T07:59:56.483516484Z,0.00,0.43,2.13,0.43,-0.43,0.21,1.49,1.06,2.13,7.45,6.38,7.02,8.72,7.87,,,,,,,,,,,,,,
1799999996493506494,2027-01-15T07:59:56.493506494Z,0.00,0.64,1.49,0.00,-1.28,1.28,0.00,1.70,1.70,7.66,7.45,5.96,7.87,8.30,,,,,,,,,,,,,,
1799999996503496504,2027-01-15T07:59:56.503496504Z,-1.91,1.70,-0.85,0.00,-2.13,2.77,0.85,2.34,0.64,4.68,6.38,6.60,5.74,7.87,,,,,,,,,,,,,,
1799999996513486514,2027-01-15T07:59:56.513486514Z,0.21,0.64,-1.06,1.28,0.43,2.98,1.28,1.06,1.91,4.26,5.53,6.17,6.38,6.81,,,,,,,,,,,,,,
1799999996523476524,2027-01-15T07:59:56.523476524Z,0.21,-0.43,-0.43,1.06,1.06,2.98,1.28,1.91,2.98,5.11,5.74,5.74,5.96,7.45,,,,,,,,,,,,,,
1799999996533466534,2027-01-15T07:59:56.533466534Z,,0.21,1.70,0.43,-0.21,1.91,2.77,4.04,2.77,4.68,5.74,6.38,4.26,8.09,,,,,,,,,,,,,,
1799999996543456544,2027-01-15T07:59:56.543456544Z,1.28,-0.21,1.91,0.85,0.00,2.13,4.68,4.47,3.62,5.74,5.32,7.23,6.81,6.38,,,,,,,,,,,,,,
1799999996553446554,2027-01-15T07:59:56.553446554Z,-0.21,0.00,0.00,0.85,1.49,4.26,2.98,4.89,4.89,4.68,5.96,5.96,8.30,5.96,,,,,,,,,,,,,,
1799999996563436564,2027-01-15T07:59:56.563436564Z,0.21,-0.21,-0.64,0.64,1.91,3.83,2.13,4.26,5.74,4.68,5.74,5.74,8.30,6.60,,,,,,,,,,,,,,
1799999996573426574,2027-01-15T07:59:56.573426574Z,-0.21,-1.49,0.43,-0.21,1.70,1.06,3.83,2.77,5.32,5.53,5.53,6.81,7.87,8.09,,,,,,,,,,,,,,
1799999996583416584,2027-01-15T07:59:56.583416584Z,-1.28,-1.28,0.21,-1.49,2.34,-0.43,4.26,3.19,2.55,3.19,6.38,6.38,8.94,7.66,,,,,,,,,,,,,,
1799999996593406594,2027-01-15T07:59:56.593406594Z,0.85,-1.06,0.00,0.43,2.55,-1.49,3.83,2.34,2.34,3.62,4.89,5.74,7.66,7.87,,,,,,,,,,,,,,
1799999996603396604,2027-01-15T07:59:56.603396604Z,-0.43,-0.85,-0.43,1.06,3.19,-0.43,3.40,2.55,3.40,4.47,4.47,5.32,5.96,8.09,,,,,,,,,,,,,,
1799999996613386614,2027-01-15T07:59:56.613386614Z,-2.77,-0.85,-1.91,1.28,3.62,1.28,3.40,5.11,5.96,6.17,5.96,4.68,3.83,7.87,,,,,,,,,,,,,,
1799999996623376624,2027-01-15T07:59:56.623376624Z,1.91,-0.64,-1.28,0.64,1.70,2.13,4.04,4.26,2.98,4.68,5.53,5.32,7.87,8.09,,,,,,,,,,,,,,
1799999996633366634,2027-01-15T07:59:56.633366634Z,0.21,-1.06,-0.43,0.00,1.06,2.77,4.68,3.19,2.98,4.04,5.32,5.32,10.21,7.45,,,,,,,,,,,,,,
1799999996643356644,2027-01-15T07:59:56.643356644Z,2.13,-1.91,-1.06,-1.28,2.34,4.04,4.47,3.19,3.83,3.62,7.02,6.17,8.72,6.38,,,,,,,,,,,,,,
1799999996653346654,2027-01-15T07:59:56.653346654Z,0.64,-1.49,-0.85,0.00,3.40,3.19,1.91,3.62,2.98,3.40,7.23,7.02,7.66,6.60,,,,,,,,,,,,,,
1799999996663336664,2027-01-15T07:59:56.663336664Z,0.43,-1.28,1.28,-0.85,2.13,1.91,2.77,3.19,4.68,4.26,5.74,6.81,6.81,7.66,,,,,,,,,,,,,,
1799999996673326674,2027-01-15T07:59:56.673326674Z,-2.34,-1.49,1.70,-1.06,1.49,1.49,3.83,4.47,5.11,4.89,5.11,6.38,7.02,7.23,,,,,,,,,,,,,,
1799999996683316684,2027-01-15T07:59:56.683316684Z,-0.21,-0.21,-0.43,-0.64,1.28,0.85,2.13,5.32,3.62,4.68,3.83,6.81,4.47,5.96,,,,,,,,,,,,,,
1799999996693306694,2027-01-15T07:59:56.693306694Z,-0.21,0.43,0.43,0.43,2.98,1.91,0.85,2.98,4.68,4.47,5.96,6.60,3.83,6.60,,,,,,,,,,,,,,
1799999996703296704,2027-01-15T07:59:56.703296704Z,-1.49,0.00,0.64,0.43,2.13,1.91,1.91,3.19,4.68,4.47,7.23,6.17,4.47,6.60,,,,,,,,,,,,,,
1799999996713286714,2027-01-15T07:59:56.713286714Z,-0.85,-1.06,-1.70,1.91,-1.91,-0.43,3.19,4.04,3.83,3.83,5.96,5.74,6.38,7.02,,,,,,,,,,,,,,
1799999996723276724,2027-01-15T07:59:56.723276724Z,-2.13,-0.85,-0.43,2.77,-1.91,0.00,2.34,3.62,4.89,3.83,6.81,4.89,3.62,8.51,,,,,,,,,,,,,,
1799999996733266734,2027-01-15T07:59:56.733266734Z,-0.43,-1.70,-0.43,1.06,2.55,2.77,1.06,4.26,4.89,3.62,6.60,6.17,4.26,8.30,,,,,,,,,,,,,,
1799999996743256744,2027-01-15T07:59:56.743256744Z,-0.85,-2.34,-0.64,0.00,3.83,3.40,1.28,3.83,4.26,4.47,6.17,7.23,3.83,7.66,,,,,,,,,,,,,,
1799999996753246754,2027-01-15T07:59:56.753246754Z,-1.28,-2.13,-0.43,0.00,1.49,4.47,1.70,2.98,4.04,5.74,3.62,6.81,2.98,8.30,,,,,,,,,,,,,,
1799999996763236764,2027-01-15T07:59:56.763236764Z,-2.13,-1.49,0.85,0.64,2.13,2.98,2.34,2.98,4.47,4.89,3.19,6.17,6.38,8.09,,,,,,,,,,,,,,
1799999996773226774,2027-01-15T07:59:56.773226774Z,-1.49,-1.06,0.21,0.85,2.55,1.49,2.77,3.19,4.68,4.04,4.68,5.96,7.23,7.87,,,,,,,,,,,,,,
1799999996783216784,2027-01-15T07:59:56.783216784Z,-2.34,-0.43,-1.28,0.21,2.34,2.98,4.47,4.04,4.89,4.89,6.81,6.38,7.45,7.87,,,,,,,,,,,,,,
1799999996793206794,2027-01-15T07:59:56.793206794Z,-2.13,1.28,-0.21,0.64,0.43,3.40,4.26,3.83,4.47,5.96,5.74,6.81,9.79,6.81,,,,,,,,,,,,,,
1799999996803196804,2027-01-15T07:59:56.803196804Z,0.21,0.43,-0.85,0.64,0.64,2.55,1.91,2.55,2.55,5.32,4.26,7.02,8.94,7.87,,,,,,,,,,,,,,
1799999996813186814,2027-01-15T07:59:56.813186814Z,-1.06,-0.43,-1.28,0.43,0.85,3.19,2.13,2.77,4.26,5.11,4.47,6.38,7.02,7.87,,,,,,,,,,,,,,
1799999996823176824,2027-01-15T07:59:56.823176824Z,0.21,-1.06,-0.43,-0.21,0.43,3.40,3.40,2.13,7.45,4.89,5.11,4.89,6.38,4.68,,,,,,,,,,,,,,
1799999996833166834,2027-01-15T07:59:56.833166834Z,0.43,-0.64,0.64,0.85,0.85,2.55,2.77,1.91,6.38,3.19,4.89,4.89,7.66,4.26,,,,,,,,,,,,,,
1799999996843156844,2027-01-15T07:59:56.843156844Z,-2.34,0.85,0.85,2.34,2.13,5.11,2.34,4.04,2.98,2.55,5.74,6.60,6.81,7.45,,,,,,,,,,,,,,
1799999996853146854,2027-01-15T07:59:56.853146854Z,-1.70,0.64,-0.21,1.06,2.55,3.83,2.34,5.53,1.91,3.40,5.32,6.17,7.23,8.51,,,,,,,,,,,,,,
1799999996863136864,2027-01-15T07:59:56.863136864Z,0.64,0.64,-1.91,-0.64,0.85,0.00,2.55,5.53,4.26,4.89,5.32,4.68,5.96,8.72,,,,,,,,,,,,,,
1799999996873126874,2027-01-15T07:59:56.873126874Z,0.85,0.43,-0.64,1.06,-1.06,0.85,1.91,2.55,4.26,4.26,6.38,6.60,4.68,6.60,,,,,,,,,,,,,,
1799999996883116884,2027-01-15T07:59:56.883116884Z,-0.85,0.00,0.00,1.49,-1.91,1.91,1.28,1.28,4.26,5.11,5.74,7.66,5.32,5.74,,,,,,,,,,,,,,
1799999996893106894,2027-01-15T07:59:56.893106894Z,-1.91,0.64,0.64,2.34,-1.06,2.34,0.64,2.34,3.83,6.60,3.62,6.81,7.45,5.53,,,,,,,,,,,,,,
1799999996903096904,2027-01-15T07:59:56.903096904Z,-2.34,0.43,2.13,4.26,-0.21,3.19,1.70,2.98,5.11,4.47,2.77,7.23,6.17,7.45,,,,,,,,,,,,,,
1799999996913086914,2027-01-15T07:59:56.913086914Z,-1.91,-1.06,0.43,1.70,2.13,2.55,1.70,3.62,2.98,4.47,3.62,5.53,7.23,7.45,,,,,,,,,,,,,,
1799999996923076924,2027-01-15T07:59:56.923076924Z,0.85,-1.28,-0.64,-0.21,2.34,2.34,2.34,3.19,1.91,5.32,4.04,4.89,7.02,7.45,,,,,,,,,,,,,,
1799999996933066934,2027-01-15T07:59:56.933066934Z,0.64,1.06,0.85,1.28,-0.43,3.62,3.62,1.49,1.91,4.04,4.04,6.38,6.38,8.72,,,,,,,,,,,,,,
1799999996943056944,2027-01-15T07:59:56.943056944Z,0.43,0.21,-0.43,-0.64,-0.43,4.04,2.98,2.13,4.26,4.47,5.32,6.17,6.60,8.09,,,,,,,,,,,,,,
1799999996953046954,2027-01-15T07:59:56.953046954Z,-0.85,0.21,-0.21,-1.28,0.43,3.83,2.34,1.70,4.68,4.47,4.89,6.17,6.38,7.66,,,,,,,,,,,,,,
1799999996963036964,2027-01-15T07:59:56.963036964Z,-1.49,0.85,-0.21,0.85,-0.64,2.77,3.19,0.00,2.77,5.11,3.83,7.66,5.96,8.72,,,,,,,,,,,,,,
1799999996973026974,2027-01-15T07:59:56.973026974Z,-1.49,-1.70,-2.13,1.49,-1.06,2.98,2.77,1.06,4.26,5.53,4.47,8.51,6.17,8.72,,,,,,,,,,,,,,
1799999996983016984,2027-01-15T07:59:56.983016984Z,1.06,-1.70,-1.06,1.70,1.06,1.91,2.98,3.19,4.47,4.26,3.19,8.09,4.89,7.45,,,,,,,,,,,,,,
1799999996993006994,2027-01-15T07:59:56.993006994Z,1.06,-0.21,-0.21,2.13,1.91,0.85,4.26,3.62,4.04,4.26,3.19,7.23,5.32,6.60,,,,,,,,,,,,,,
1799999997002997003,2027-01-15T07:59:57.002997003Z,1.06,1.91,0.85,1.70,0.85,-0.64,5.74,2.98,4.26,5.11,5.53,6.60,5.74,6.38,,,,,,,,,,,,,,
1799999997012987013,2027-01-15T07:59:57.012987013Z,-0.43,1.06,-0.43,0.64,1.70,1.91,4.26,1.49,4.47,3.62,6.17,7.66,3.62,7.45,,,,,,,,,,,,,,
1799999997022977023,2027-01-15T07:59:57.022977023Z,-0.64,0.43,-0.21,0.21,1.91,3.40,4.26,1.06,4.47,3.19,5.53,7.02,6.38,8.09,,,,,,,,,,,,,,
1799999997032967033,2027-01-15T07:59:57.032967033Z,-1.49,-0.43,0.00,1.49,2.98,3.40,3.62,2.55,4.26,4.89,5.11,5.11,10.21,8.30,,,,,,,,,,,,,,
1799999997042957043,2027-01-15T07:59:57.042957043Z,-1.06,-0.64,-1.06,2.98,2.98,4.04,4.04,3.83,3.19,6.38,5.32,5.32,8.09,7.87,,,,,,,,,,,,,,
1799999997052947053,2027-01-15T07:59:57.052947053Z,1.28,-1.06,-0.64,1.49,2.98,2.98,4.26,3.83,2.13,5.11,6.17,6.60,7.87,9.15,,,,,,,,,,,,,,
1799999997062937063,2027-01-15T07:59:57.062937063Z,0.00,0.21,0.21,0.64,2.98,2.34,3.83,3.83,2.34,3.83,5.74,6.38,8.72,9.57,,,,,,,,,,,,,,
1799999997072927073,2027-01-15T07:59:57.072927073Z,0.21,2.13,1.49,1.28,1.70,0.64,3.40,3.83,4.68,2.77,5.96,5.53,8.09,8.72,,,,,,,,,,,,,,
1799999997082917083,2027-01-15T07:59:57.082917083Z,-1.91,1.28,0.43,1.28,0.64,0.43,2.98,3.83,5.53,3.62,7.87,5.74,7.87,7.23,,,,,,,,,,,,,,
1799999997092907093,2027-01-15T07:59:57.092907093Z,-0.64,0.21,-1.28,1.28,1.28,2.55,2.77,3.62,4.04,4.89,7.45,5.32,7.87,6.38,,,,,,,,,,,,,,
1799999997102897103,2027-01-15T07:59:57.102897103Z,-0.64,-1.49,-0.64,1.06,1.49,1.70,2.77,4.04,3.62,5.74,6.38,5.32,7.02,5.96,,,,,,,,,,,,,,
1799999997112887113,2027-01-15T07:59:57.112887113Z,-0.64,-5.11,1.91,0.00,1.49,-0.21,2.77,2.98,4.89,4.89,4.26,6.38,5.74,6.38,,,,,,,,,,,,,,
1799999997122877123,2027-01-15T07:59:57.122877123Z,0.64,-2.98,1.06,-0.64,0.64,2.34,2.13,3.62,3.62,2.55,5.53,7.66,7.87,7.23,,,,,,,,,,,,,,
1799999997132867133,2027-01-15T07:59:57.132867133Z,-0.21,-0.43,0.21,-0.21,0.64,2.55,2.77,3.83,2.98,2.55,6.17,7.66,8.72,6.60,,,,,,,,,,,,,,
1799999997142857143,2027-01-15T07:59:57.142857143Z,-4.68,0.00,-0.43,0.64,1.70,3.19,3.40,3.40,3.62,4.47,5.11,6.17,6.60,5.53,,,,,,,,,,,,,,
1799999997152847153,2027-01-15T07:59:57.152847153Z,-4.26,-0.85,0.64,-0.21,2.98,4.26,2.77,0.43,3.83,4.47,5.11,6.38,5.74,6.60,,,,,,,,,,,,,,
1799999997162837163,2027-01-15T07:59:57.162837163Z,-2.34,-2.55,-0.21,0.21,1.70,1.49,1.91,1.70,3.83,4.68,5.96,6.81,7.66,8.30,,,,,,,,,,,,,,
1799999997172827173,2027-01-15T07:59:57.172827173Z,-2.98,-0.85,-0.21,0.64,0.85,0.00,1.28,3.19,4.26,5.53,5.96,6.60,6.17,8.09,,,,,,,,,,,,,,
1799999997182817183,2027-01-15T07:59:57.182817183Z,-0.21,1.91,0.85,-0.21,2.34,-0.21,0.85,2.34,4.26,5.96,6.81,6.38,4.26,7.66,,,,,,,,,,,,,,
1799999997192807193,2027-01-15T07:59:57.192807193Z,0.21,0.85,1.49,1.06,3.83,0.43,2.13,2.77,5.53,4.26,6.81,5.74,6.38,7.87,,,,,,,,,,,,,,
1799999997202797203,2027-01-15T07:59:57.202797203Z,-1.91,1.06,0.43,1.28,3.40,0.85,3.40,3.19,5.74,4.04,6.17,5.11,6.38,7.02,,,,,,,,,,,,,,
1799999997212787213,2027-01-15T07:59:57.212787213Z,-1.91,0.21,-1.28,0.00,1.91,0.85,4.47,4.04,3.19,4.04,5.96,4.68,6.17,5.32,,,,,,,,,,,,,,
1799999997222777223,2027-01-15T07:59:57.222777223Z,1.91,-2.34,-1.70,0.85,1.91,1.91,3.19,3.19,1.28,3.19,5.96,4.89,7.02,3.62,,,,,,,,,,,,,,
1799999997232767233,2027-01-15T07:59:57.232767233Z,-0.64,-1.28,-0.43,1.06,1.91,1.49,2.77,2.98,2.34,4.04,5.11,4.89,5.96,6.38,,,,,,,,,,,,,,
1799999997242757243,2027-01-15T07:59:57.242757243Z,0.43,-0.64,-0.64,0.43,1.70,0.64,3.40,2.77,2.34,4.68,4.68,4.89,5.96,8.09,,,,,,,,,,,,,,
1799999997252747253,2027-01-15T07:59:57.252747253Z,-0.21,-2.34,-1.06,0.21,1.91,-0.43,4.89,1.70,2.98,4.47,4.04,4.68,5.96,7.66,,,,,,,,,,,,,,
1799999997262737263,2027-01-15T07:59:57.262737263Z,-2.77,-1.49,0.00,1.49,1.70,-0.43,4.04,0.21,5.32,5.53,5.11,5.11,4.89,7.45,,,,,,,,,,,,,,
1799999997272727273,2027-01-15T07:59:57.272727273Z,-2.13,0.00,-1.28,0.00,2.13,1.49,3.40,0.85,4.68,5.96,6.38,5.53,5.32,7.87,,,,,,,,,,,,,,
1799999997282717283,2027-01-15T07:59:57.282717283Z,1.06,-1.06,-1.91,-0.85,1.49,1.06,3.40,1.49,3.83,5.32,6.17,5.74,5.53,7.23,,,,,,,,,,,,,,
1799999997292707293,2027-01-15T07:59:57.292707293Z,0.43,-3.83,0.21,-1.49,0.00,0.00,2.13,2.98,3.40,4.04,4.89,6.17,5.96,6.81,,,,,,,,,,,,,,
1799999997302697303,2027-01-15T07:59:57.302697303Z,-2.13,-1.70,0.43,-1.28,0.21,1.28,1.28,2.13,2.98,4.47,4.26,5.11,7.02,7.66,,,,,,,,,,,,,,
1799999997312687313,2027-01-15T07:59:57.312687313Z,-2.77,0.43,0.00,-1.06,0.21,2.13,2.34,2.55,3.83,3.40,4.04,6.17,7.23,7.02,,,,,,,,,,,,,,
1799999997322677323,2027-01-15T07:59:57.322677323Z,-2.13,-0.21,-0.21,-0.43,0.43,2.55,3.62,3.40,5.32,2.55,3.19,8.09,6.17,5.74,,,,,,,,,,,,,,
1799999997332667333,2027-01-15T07:59:57.332667333Z,-1.49,-0.43,1.06,0.43,1.49,2.34,1.28,3.40,4.89,5.32,4.89,7.45,5.11,6.81,,,,,,,,,,,,,,
1799999997342657343,2027-01-15T07:59:57.342657343Z,-1.49,-0.85,0.43,0.64,1.06,2.34,2.77,2.55,3.83,5.74,8.30,6.60,6.60,7.87,,,,,,,,,,,,,,
1799999997352647353,2027-01-15T07:59:57.352647353Z,0.85,0.43,0.00,0.43,0.64,3.83,3.40,2.34,3.62,5.11,7.45,6.81,6.81,7.23,,,,,,,,,,,,,,
1799999997362637363,2027-01-15T07:59:57.362637363Z,1.06,1.70,0.43,0.43,0.64,4.89,0.00,3.62,3.40,2.98,4.68,7.23,5.53,7.02,,,,,,,,,,,,,,
1799999997372627373,2027-01-15T07:59:57.372627373Z,-2.13,0.00,0.85,0.64,0.43,3.62,1.28,4.04,2.77,3.83,4.89,6.17,4.26,8.51,,,,,,,,,,,,,,
1799999997382617383,2027-01-15T07:59:57.382617383Z,0.00,0.64,0.21,0.21,0.64,3.62,2.77,4.68,2.77,4.26,4.89,5.11,4.47,8.30,,,,,,,,,,,,,,
1799999997392607393,2027-01-15T07:59:57.392607393Z,0.21,2.55,0.21,0.00,0.85,1.49,3.62,5.53,4.26,3.40,4.89,4.26,4.89,7.02,,,,,,,,,,,,,,
1799999997402597403,2027-01-15T07:59:57.402597403Z,,1.06,-0.21,-1.06,0.43,1.91,2.13,3.62,5.53,4.04,5.11,6.17,5.11,6.60,,,,,,,,,,,,,,
1799999997412587413,2027-01-15T07:59:57.412587413Z,-0.43,-2.13,-1.28,-0.64,0.00,1.06,1.91,2.98,3.40,5.32,4.47,6.17,6.38,7.87,,,,,,,,,,,,,,
1799999997422577423,2027-01-15T07:59:57.422577423Z,-0.85,-1.49,-0.21,-0.43,0.43,0.43,1.49,2.98,2.13,5.11,4.68,5.32,6.38,7.02,,,,,,,,,,,,,,
1799999997432567433,2027-01-15T07:59:57.432567433Z,-0.85,-0.85,1.06,-1.70,1.49,2.13,1.91,2.34,3.83,4.89,5.11,4.89,5.74,4.26,,,,,,,,,,,,,,
1799999997442557443,2027-01-15T07:59:57.442557443Z,-0.85,-1.28,0.00,-1.06,1.06,2.98,3.19,2.98,5.53,5.96,4.89,6.38,6.17,6.60,,,,,,,,,,,,,,
1799999997452547453,2027-01-15T07:59:57.452547453Z,-0.43,-0.85,-1.06,0.00,0.85,1.70,4.04,3.40,4.89,6.17,4.89,6.60,6.17,8.72,,,,,,,,,,,,,,
1799999997462537463,2027-01-15T07:59:57.462537463Z,-0.43,-2.34,-3.19,1.49,0.85,0.43,3.83,3.83,2.55,5.32,5.96,5.74,6.81,7.23,,,,,,,,,,,,,,
1799999997472527473,2027-01-15T07:59:57.472527473Z,-1.06,-1.70,-2.34,2.34,0.21,2.34,2.77,3.19,2.98,4.04,6.17,5.74,7.45,6.60,,,,,,,,,,,,,,
1799999997482517483,2027-01-15T07:59:57.482517483Z,0.85,-1.49,0.00,0.21,1.06,4.47,2.34,3.62,4.89,2.55,5.74,6.60,6.81,7.87,,,,,,,,,,,,,,
1799999997492507493,2027-01-15T07:59:57.492507493Z,-0.85,-1.28,0.00,-0.21,0.85,3.62,2.13,3.62,4.89,3.40,5.53,6.60,6.38,7.45,,,,,,,,,,,,,,
1799999997502497503,2027-01-15T07:59:57.502497503Z,-3.19,-0.64,0.21,1.70,0.00,0.85,2.77,3.83,5.74,4.89,5.53,6.60,5.96,5.74,,,,,,,,,,,,,,
1799999997512487513,2027-01-15T07:59:57.512487513Z,-2.55,-1.70,0.00,2.34,-0.21,1.06,4.47,4.68,4.68,3.83,5.53,7.66,5.74,6.38,,,,,,,,,,,,,,
1799999997522477523,2027-01-15T07:59:57.522477523Z,-0.43,1.06,-1.06,0.43,0.43,2.13,3.62,4.68,3.62,4.68,4.89,6.38,3.83,6.38,,,,,,,,,,,,,,
1799999997532467533,2027-01-15T07:59:57.532467533Z,-1.06,1.70,-0.64,0.43,0.64,1.06,2.77,4.47,3.83,4.89,5.11,6.38,2.98,5.74,,,,,,,,,,,,,,
1799999997542457543,2027-01-15T07:59:57.542457543Z,0.85,-1.28,0.21,-0.43,0.43,0.00,4.26,4.04,5.11,2.55,5.11,7.87,3.40,5.53,,,,,,,,,,,,,,
1799999997552447553,2027-01-15T07:59:57.552447553Z,-1.28,-1.28,0.85,0.00,1.49,2.13,4.26,3.83,3.62,2.98,3.62,6.38,4.04,7.23,,,,,,,,,,,,,,
1799999997562437563,2027-01-15T07:59:57.562437563Z,-1.91,-1.70,1.06,0.85,1.28,3.40,4.04,4.26,2.77,3.83,4.26,6.17,4.68,7.87,,,,,,,,,,,,,,
1799999997572427573,2027-01-15T07:59:57.572427573Z,-3.19,-3.19,-0.43,1.06,0.85,3.40,4.26,5.32,1.91,4.26,6.17,7.66,6.81,8.30,,,,,,,,,,,,,,
1799999997582417583,2027-01-15T07:59:57.582417583Z,1.06,-1.91,-2.77,2.34,2.13,3.83,5.53,5.74,3.40,2.77,6.38,7.45,7.45,9.15,,,,,,,,,,,,,,
1799999997592407593,2027-01-15T07:59:57.592407593Z,0.85,-0.64,-1.70,1.49,2.34,2.34,4.26,2.34,3.62,2.77,5.96,8.09,7.02,8.51,,,,,,,,,,,,,,
1799999997602397603,2027-01-15T07:59:57.602397603Z,0.21,-0.85,-0.43,1.28,2.13,1.70,3.83,0.85,3.19,3.19,5.96,7.66,7.23,7.66,,,,,,,,,,,,,,
1799999997612387613,2027-01-15T07:59:57.612387613Z,-1.70,-0.43,0.21,0.85,2.34,2.13,3.19,2.34,2.13,4.26,5.74,6.38,7.23,8.09,,,,,,,,,,,,,,
1799999997622377623,2027-01-15T07:59:57.622377623Z,0.21,-1.49,-1.06,1.49,1.28,1.91,2.34,2.77,3.62,5.53,6.17,5.96,8.09,8.51,,,,,,,,,,,,,,
1799999997632367633,2027-01-15T07:59:57.632367633Z,-0.43,-1.28,-1.06,0.64,0.21,1.28,2.55,2.77,4.26,6.17,7.45,6.17,8.72,8.09,,,,,,,,,,,,,,
1799999997642357643,2027-01-15T07:59:57.642357643Z,1.28,0.21,-0.43,0.00,1.49,0.85,2.98,3.83,3.83,5.11,10.00,6.38,7.87,6.81,,,,,,,,,,,,,,
1799999997652347653,2027-01-15T07:59:57.652347653Z,-0.43,0.00,0.64,1.91,3.62,1.49,2.34,2.98,3.83,4.26,10.21,6.60,8.72,6.38,,,,,,,,,,,,,,
1799999997662337663,2027-01-15T07:59:57.662337663Z,0.85,1.06,0.43,1.49,3.19,1.06,2.98,4.04,3.19,6.38,6.17,7.23,7.45,6.81,,,,,,,,,,,,,,
1799999997672327673,2027-01-15T07:59:57.672327673Z,1.06,1.70,-0.43,1.28,3.19,1.06,2.98,4.47,2.55,7.23,4.89,7.02,6.38,7.02,,,,,,,,,,,,,,
1799999997682317683,2027-01-15T07:59:57.682317683Z,-1.70,-0.85,-1.70,3.62,1.70,0.21,2.98,2.55,2.34,5.11,5.74,7.02,3.83,7.02,,,,,,,,,,,,,,
1799999997692307693,2027-01-15T07:59:57.692307693Z,-0.85,-2.55,-1.49,2.77,0.00,1.06,2.98,2.13,5.11,6.17,6.81,6.17,5.53,7.87,,,,,,,,,,,,,,
1799999997702297703,2027-01-15T07:59:57.702297703Z,-1.28,-1.91,-1.70,2.98,0.64,1.91,2.77,2.77,6.38,6.17,7.02,5.53,6.60,7.66,,,,,,,,,,,,,,
1799999997712287713,2027-01-15T07:59:57.712287713Z,-0.85,0.64,-2.34,1.70,2.77,3.62,3.62,1.91,5.53,4.26,5.96,6.38,9.57,6.17,,,,,,,,,,,,,,
1799999997722277723,2027-01-15T07:59:57.722277723Z,-1.28,1.28,-0.64,-2.13,1.28,5.96,2.98,1.49,5.11,4.89,4.26,5.53,7.66,5.11,,,,,,,,,,,,,,
1799999997732267733,2027-01-15T07:59:57.732267733Z,-0.85,0.00,0.85,-1.28,1.06,2.98,2.34,3.19,4.26,5.53,3.83,6.17,7.45,5.74,,,,,,,,,,,,,,
1799999997742257743,2027-01-15T07:59:57.742257743Z,-0.43,-1.06,0.43,0.43,0.85,1.06,2.55,3.62,3.62,4.89,3.62,6.60,7.45,6.38,,,,,,,,,,,,,,
1799999997752247753,2027-01-15T07:59:57.752247753Z,0.00,-1.28,0.64,1.28,2.13,-0.43,2.77,1.91,2.77,4.47,5.96,4.47,8.72,8.09,,,,,,,,,,,,,,
1799999997762237763,2027-01-15T07:59:57.762237763Z,0.64,-1.28,1.49,1.70,2.55,-0.64,2.34,1.70,3.19,5.11,8.09,4.47,8.72,7.87,,,,,,,,,,,,,,
1799999997772227773,2027-01-15T07:59:57.772227773Z,-1.06,0.64,-0.21,-0.21,2.34,-0.85,1.91,1.91,4.47,4.89,6.60,5.32,8.30,7.87,,,,,,,,,,,,,,
1799999997782217783,2027-01-15T07:59:57.782217783Z,0.85,1.49,1.06,0.64,1.91,0.21,1.91,2.34,4.68,5.74,5.32,5.11,8.30,8.09,,,,,,,,,,,,,,
1799999997792207793,2027-01-15T07:59:57.792207793Z,2.98,-0.85,2.55,1.70,0.64,2.55,3.19,3.83,4.26,7.02,4.26,5.32,7.66,8.30,,,,,,,,,,,,,,
1799999997802197803,2027-01-15T07:59:57.802197803Z,0.85,-2.13,0.43,1.28,-0.43,2.34,5.11,3.19,5.11,5.74,3.62,5.74,5.96,7.66,,,,,,,,,,,,,,
1799999997812187813,2027-01-15T07:59:57.812187813Z,-0.43,-1.49,-0.43,1.06,0.00,2.55,4.68,2.77,5.74,3.83,4.68,5.96,5.74,7.45,,,,,,,,,,,,,,
1799999997822177823,2027-01-15T07:59:57.822177823Z,-0.64,-0.43,-1.49,-0.43,0.85,3.83,2.34,2.55,5.53,1.91,6.60,4.89,6.60,7.45,,,,,,,,,,,,,,
1799999997832167833,2027-01-15T07:59:57.832167833Z,-0.85,-1.49,-1.28,0.43,1.06,2.77,1.70,2.13,3.83,3.40,4.89,5.11,7.87,7.23,,,,,,,,,,,,,,
1799999997842157843,2027-01-15T07:59:57.842157843Z,-0.43,-1.49,0.64,1.91,1.06,0.64,3.83,2.55,3.40,5.74,2.55,6.17,7.66,6.38,,,,,,,,,,,,,,
1799999997852147853,2027-01-15T07:59:57.852147853Z,-2.98,-0.64,0.85,0.64,1.28,1.70,4.04,2.98,3.83,7.23,3.62,5.74,7.02,6.38,,,,,,,,,,,,,,
1799999997862137863,2027-01-15T07:59:57.862137863Z,-2.77,-0.43,-0.64,-1.28,2.13,3.83,2.13,4.04,3.83,7.66,5.74,5.74,7.66,6.60,,,,,,,,,,,,,,
1799999997872127873,2027-01-15T07:59:57.872127873Z,-1.70,-1.49,0.00,0.00,1.91,1.91,1.28,4.47,5.53,6.38,4.04,6.60,8.30,5.96,,,,,,,,,,,,,,
1799999997882117883,2027-01-15T07:59:57.882117883Z,-1.49,-1.28,0.85,1.06,1.91,0.85,2.13,4.26,6.60,5.32,4.47,6.38,8.09,6.17,,,,,,,,,,,,,,
1799999997892107893,2027-01-15T07:59:57.892107893Z,-2.13,-0.85,-0.21,1.91,1.70,2.13,3.19,5.11,7.45,3.83,5.11,5.32,6.81,5.32,,,,,,,,,,,,,,
1799999997902097903,2027-01-15T07:59:57.902097903Z,1.06,-2.13,-0.64,1.06,1.91,2.55,2.13,6.38,5.74,4.04,3.83,6.17,5.96,5.11,,,,,,,,,,,,,,
1799999997912087913,2027-01-15T07:59:57.912087913Z,1.06,-0.85,0.00,0.64,1.49,1.28,1.91,3.62,4.89,4.04,6.38,6.81,4.47,6.60,,,,,,,,,,,,,,
1799999997922077923,2027-01-15T07:59:57.922077923Z,-1.06,-0.43,0.00,1.06,0.64,1.70,1.70,1.91,4.26,4.04,7.23,5.32,4.89,7.02,,,,,,,,,,,,,,
1799999997932067933,2027-01-15T07:59:57.932067933Z,,-0.64,0.00,0.43,-1.06,3.19,1.91,2.77,3.19,4.04,7.23,3.62,6.17,6.60,,,,,,,,,,,,,,
1799999997942057943,2027-01-15T07:59:57.942057943Z,-1.28,-1.28,-0.21,-1.28,0.64,2.55,2.77,2.13,2.77,4.47,6.17,5.96,5.74,6.81,,,,,,,,,,,,,,
1799999997952047953,2027-01-15T07:59:57.952047953Z,-0.21,-1.28,-0.85,-1.06,1.70,2.98,2.55,1.49,2.34,4.26,5.53,6.38,5.32,6.38,,,,,,,,,,,,,,
1799999997962037963,2027-01-15T07:59:57.962037963Z,-3.40,-1.91,-1.49,0.43,2.55,3.40,2.77,2.77,2.34,4.04,4.47,5.32,6.17,7.02,,,,,,,,,,,,,,
1799999997972027973,2027-01-15T07:59:57.972027973Z,-4.26,-0.43,-0.21,0.00,2.55,2.98,2.34,5.32,3.40,4.26,5.53,5.53,5.96,9.57,,,,,,,,,,,,,,
1799999997982017983,2027-01-15T07:59:57.982017983Z,-2.55,0.43,0.00,0.43,0.00,2.34,1.49,5.74,5.74,3.62,6.38,4.89,5.96,9.15,,,,,,,,,,,,,,
1799999997992007993,2027-01-15T07:59:57.992007993Z,-1.28,0.64,-0.21,0.85,-0.64,1.91,2.77,5.74,5.11,3.40,6.17,5.32,6.38,8.72,,,,,,,,,,,,,,
1799999998001998002,2027-01-15T07:59:58.001998002Z,0.85,1.70,-0.64,-0.64,1.28,2.55,4.68,5.96,2.34,4.26,5.32,6.60,6.60,9.36,,,,,,,,,,,,,,
1799999998011988012,2027-01-15T07:59:58.011988012Z,-1.06,-0.21,0.85,-0.85,2.55,3.40,3.83,4.47,1.28,4.26,4.04,7.45,7.02,8.09,,,,,,,,,,,,,,
1799999998021978022,2027-01-15T07:59:58.021978022Z,-1.49,0.43,1.28,0.00,1.49,1.91,2.77,2.98,4.89,4.89,3.83,6.17,6.17,7.23,,,,,,,,,,,,,,
1799999998031968032,2027-01-15T07:59:58.031968032Z,-1.49,1.28,0.00,0.85,1.70,1.28,2.34,3.62,5.74,4.04,4.68,5.96,5.74,7.45,,,,,,,,,,,,,,
1799999998041958042,2027-01-15T07:59:58.041958042Z,-4.04,0.21,-2.34,2.34,1.91,2.55,1.70,5.11,1.70,2.98,5.96,7.02,5.53,7.66,,,,,,,,,,,,,,
1799999998051948052,2027-01-15T07:59:58.051948052Z,-3.19,-1.06,-1.91,0.85,0.21,2.55,2.55,2.98,2.13,4.04,5.11,6.60,6.38,8.09,,,,,,,,,,,,,,
1799999998061938062,2027-01-15T07:59:58.061938062Z,-2.55,-1.49,-1.06,-0.43,1.28,2.13,3.19,2.34,3.62,4.89,4.26,5.96,7.02,8.30,,,,,,,,,,,,,,
1799999998071928072,2027-01-15T07:59:58.071928072Z,-1.06,-1.70,0.64,-0.64,3.19,2.77,3.19,2.77,2.55,4.68,3.62,5.53,7.23,7.23,,,,,,,,,,,,,,
1799999998081918082,2027-01-15T07:59:58.081918082Z,-2.77,0.43,0.43,1.70,1.91,3.19,3.19,4.47,1.28,3.62,6.60,7.02,7.23,6.81,,,,,,,,,,,,,,
1799999998091908092,2027-01-15T07:59:58.091908092Z,-2.13,-0.21,-1.70,2.34,1.49,1.49,1.49,3.62,2.77,5.32,6.81,7.66,7.66,6.60,,,,,,,,,,,,,,
1799999998101898102,2027-01-15T07:59:58.101898102Z,-0.43,-0.43,-2.34,1.70,1.91,0.85,1.28,3.19,3.62,6.60,6.17,7.23,6.17,7.02,,,,,,,,,,,,,,
1799999998111888112,2027-01-15T07:59:58.111888112Z,-0.21,0.21,0.43,-0.21,1.91,2.98,1.06,2.98,2.34,5.96,6.60,6.81,3.83,8.51,,,,,,,,,,,,,,
1799999998121878122,2027-01-15T07:59:58.121878122Z,-0.85,0.00,0.21,-0.64,2.77,3.62,1.28,1.28,2.98,6.17,5.11,6.38,2.34,7.87,,,,,,,,,,,,,,
1799999998131868132,2027-01-15T07:59:58.131868132Z,-0.64,0.21,-0.43,-0.64,2.98,3.40,1.70,1.28,4.04,5.96,4.26,5.96,2.13,8.09,,,,,,,,,,,,,,
1799999998141858142,2027-01-15T07:59:58.141858142Z,-0.85,-0.21,-0.85,-0.64,1.70,4.04,3.40,3.62,5.53,4.68,5.11,5.32,5.32,8.09,,,,,,,,,,,,,,
1799999998151848152,2027-01-15T07:59:58.151848152Z,-1.70,-1.70,-2.55,-1.70,1.49,3.19,3.83,2.77,5.11,4.26,5.11,6.38,7.23,5.96,,,,,,,,,,,,,,
1799999998161838162,2027-01-15T07:59:58.161838162Z,-1.91,-1.91,-1.49,-0.21,0.21,1.49,1.28,1.28,3.40,3.40,4.47,8.30,7.87,6.17,,,,,,,,,,,,,,
1799999998171828172,2027-01-15T07:59:58.171828172Z,0.00,-1.91,-0.21,-0.85,0.00,1.70,0.64,1.70,3.40,3.83,5.11,7.45,8.09,7.02,,,,,,,,,,,,,,
1799999998181818182,2027-01-15T07:59:58.181818182Z,0.64,-0.43,0.64,-1.49,0.21,1.49,2.55,2.13,3.62,5.11,5.32,4.89,6.81,8.51,,,,,,,,,,,,,,
1799999998191808192,2027-01-15T07:59:58.191808192Z,0.00,2.13,1.70,0.00,1.49,1.70,2.13,2.77,3.40,4.89,6.38,5.74,6.81,8.09,,,,,,,,,,,,,,
1799999998201798202,2027-01-15T07:59:58.201798202Z,-0.43,0.85,1.49,0.00,1.06,2.34,1.28,3.83,3.62,5.32,7.02,7.02,7.02,7.66,,,,,,,,,,,,,,
1799999998211788212,2027-01-15T07:59:58.211788212Z,-0.64,-2.55,0.21,-1.28,0.85,1.70,1.70,5.11,4.89,6.38,7.23,5.96,6.38,8.09,,,,,,,,,,,,,,
1799999998221778222,2027-01-15T07:59:58.221778222Z,0.85,-4.04,-0.64,-0.43,1.06,1.49,2.34,5.11,5.74,5.53,8.09,4.89,7.87,8.72,,,,,,,,,,,,,,
1799999998231768232,2027-01-15T07:59:58.231768232Z,-0.85,-2.34,-1.28,0.21,2.34,0.64,4.26,3.40,3.83,4.47,7.66,5.53,8.51,7.87,,,,,,,,,,,,,,
1799999998241758242,2027-01-15T07:59:58.241758242Z,-0.85,-2.13,-0.64,0.64,2.55,0.00,4.47,3.19,2.55,5.74,7.02,5.96,7.87,7.45,,,,,,,,,,,,,,
1799999998251748252,2027-01-15T07:59:58.251748252Z,-0.43,-1.91,-0.43,1.91,3.83,0.64,4.04,3.83,3.40,7.23,7.66,7.02,7.02,7.45,,,,,,,,,,,,,,
1799999998261738262,2027-01-15T07:59:58.261738262Z,-0.21,-0.85,-1.49,1.70,2.34,3.83,3.40,2.55,3.83,4.89,6.60,6.17,6.60,7.87,,,,,,,,,,,,,,
1799999998271728272,2027-01-15T07:59:58.271728272Z,0.43,0.00,-1.28,1.70,1.70,4.26,3.19,2.98,3.83,3.83,5.32,6.60,6.60,7.87,,,,,,,,,,,,,,
1799999998281718282,2027-01-15T07:59:58.281718282Z,-1.70,-0.21,-0.64,0.43,1.91,3.19,3.19,3.40,2.77,3.62,5.74,6.81,7.66,7.45,,,,,,,,,,,,,,
1799999998291708292,2027-01-15T07:59:58.291708292Z,1.06,0.00,0.21,-0.64,0.64,1.91,2.34,1.06,2.34,3.62,6.81,5.53,8.72,7.23,,,,,,,,,,,,,,
1799999998301698302,2027-01-15T07:59:58.301698302Z,-1.91,-1.06,1.06,1.06,1.28,1.70,2.55,2.77,5.11,4.68,5.74,4.89,6.81,7.87,,,,,,,,,,,,,,
1799999998311688312,2027-01-15T07:59:58.311688312Z,-2.34,-1.06,1.49,0.85,2.13,1.49,3.40,4.26,5.32,5.11,5.11,5.32,6.38,7.45,,,,,,,,,,,,,,
1799999998321678322,2027-01-15T07:59:58.321678322Z,-0.21,-0.64,1.06,-1.28,1.49,1.06,2.98,4.47,3.62,4.89,4.04,6.17,6.81,7.02,,,,,,,,,,,,,,
1799999998331668332,2027-01-15T07:59:58.331668332Z,-0.21,-0.43,0.85,-1.06,2.13,2.13,2.34,3.19,3.40,4.04,3.62,7.45,6.38,7.66,,,,,,,,,,,,,,
1799999998341658342,2027-01-15T07:59:58.341658342Z,0.21,-0.43,0.43,-0.64,2.13,2.55,3.40,2.98,4.04,5.96,4.89,6.81,6.60,8.09,,,,,,,,,,,,,,
1799999998351648352,2027-01-15T07:59:58.351648352Z,0.85,0.43,0.00,-0.85,1.91,3.19,4.04,3.83,3.62,4.47,5.11,5.96,6.38,7.45,,,,,,,,,,,,,,
1799999998361638362,2027-01-15T07:59:58.361638362Z,1.28,0.43,-0.64,-0.64,0.85,3.62,3.40,5.32,2.98,2.34,4.04,4.89,5.74,5.74,,,,,,,,,,,,,,
1799999998371628372,2027-01-15T07:59:58.371628372Z,0.43,-1.91,-1.28,0.85,0.21,2.13,3.62,3.83,4.04,4.26,4.04,6.17,6.38,6.38,,,,,,,,,,,,,,
1799999998381618382,2027-01-15T07:59:58.381618382Z,,-1.49,-0.64,1.70,0.43,1.06,4.04,2.77,4.26,4.89,4.26,6.81,7.23,7.02,,,,,,,,,,,,,,
1799999998391608392,2027-01-15T07:59:58.391608392Z,,-0.43,-0.64,1.91,1.49,-0.21,3.83,1.91,4.26,6.38,4.68,7.45,7.87,7.45,,,,,,,,,,,,,,
1799999998401598402,2027-01-15T07:59:58.401598402Z,,-1.28,-2.98,1.28,1.28,0.85,2.13,3.40,4.47,7.23,4.47,7.87,7.02,7.23,,,,,,,,,,,,,,
1799999998411588412,2027-01-15T07:59:58.411588412Z,,0.21,-2.13,0.43,0.43,2.98,2.55,2.77,3.19,5.32,3.83,7.02,5.96,7.23,,,,,,,,,,,,,,
1799999998421578422,2027-01-15T07:59:58.421578422Z,,0.64,-0.85,-0.21,0.64,3.19,1.70,2.55,2.98,4.47,4.04,6.38,5.96,7.66,,,,,,,,,,,,,,
1799999998431568432,2027-01-15T07:59:58.431568432Z,,0.00,-0.43,-0.85,1.49,2.34,1.06,5.32,4.68,4.04,4.68,5.74,6.38,7.45,,,,,,,,,,,,,,
1799999998441558442,2027-01-15T07:59:58.441558442Z,,-0.64,0.64,-0.64,-0.21,1.06,1.91,4.68,3.62,5.11,5.96,6.17,6.60,6.17,,,,,,,,,,,,,,
1799999998451548452,2027-01-15T07:59:58.451548452Z,,-0.43,1.28,0.64,-0.85,1.28,2.55,2.98,5.11,5.32,5.11,5.53,7.02,6.60,,,,,,,,,,,,,,
1799999998461538462,2027-01-15T07:59:58.461538462Z,,-1.28,0.64,2.13,-0.85,1.70,3.83,1.91,6.17,5.96,3.83,5.32,7.02,7.87,,,,,,,,,,,,,,
1799999998471528472,2027-01-15T07:59:58.471528472Z,,-1.91,0.85,2.13,-0.21,1.91,3.19,0.85,4.04,5.32,5.11,6.60,5.74,7.02,,,,,,,,,,,,,,
1799999998481518482,2027-01-15T07:59:58.481518482Z,,-0.85,0.43,0.00,0.43,3.62,3.40,0.85,3.62,5.53,3.83,6.17,6.17,6.17,,,,,,,,,,,,,,
1799999998491508492,2027-01-15T07:59:58.491508492Z,,-0.21,0.43,0.21,1.06,2.55,3.62,2.55,2.98,5.32,3.19,5.74,6.60,6.38,,,,,,,,,,,,,,
1799999998501498502,2027-01-15T07:59:58.501498502Z,,0.43,2.13,2.55,1.06,1.28,3.40,5.32,1.91,4.26,4.26,6.60,7.02,6.17,,,,,,,,,,,,,,
1799999998511488512,2027-01-15T07:59:58.511488512Z,,0.21,2.34,2.13,1.06,3.19,5.11,5.74,3.62,3.40,5.53,7.02,6.17,6.60,,,,,,,,,,,,,,
1799999998521478522,2027-01-15T07:59:58.521478522Z,,-0.85,-0.85,1.70,1.28,1.91,5.32,4.04,5.74,2.98,4.68,5.32,6.60,7.02,,,,,,,,,,,,,,
1799999998531468532,2027-01-15T07:59:58.531468532Z,,-0.85,-1.06,1.49,1.49,0.85,4.26,2.98,5.74,1.70,5.74,4.26,6.38,6.81,,,,,,,,,,,,,,
1799999998541458542,2027-01-15T07:59:58.541458542Z,,-1.06,0.21,0.43,0.85,1.49,2.98,0.21,3.62,0.43,7.66,3.40,2.98,7.23,,,,,,,,,,,,,,
1799999998551448552,2027-01-15T07:59:58.551448552Z,,0.00,-0.85,0.43,-0.64,4.47,1.91,-0.43,4.04,3.40,6.81,5.32,3.19,8.09,,,,,,,,,,,,,,
1799999998561438562,2027-01-15T07:59:58.561438562Z,,0.21,-0.64,0.43,-0.21,5.74,1.70,0.64,4.89,6.17,6.17,5.96,4.68,9.36,,,,,,,,,,,,,,
1799999998571428572,2027-01-15T07:59:58.571428572Z,,-0.64,-0.43,0.85,0.85,4.26,2.77,1.49,3.83,8.30,5.32,4.68,8.94,11.49,,,,,,,,,,,,,,
1799999998581418582,2027-01-15T07:59:58.581418582Z,,-0.21,-0.43,1.70,0.85,3.19,2.77,2.77,2.98,7.45,4.47,4.47,7.45,10.00,,,,,,,,,,,,,,
1799999998591408592,2027-01-15T07:59:58.591408592Z,,-0.21,1.28,1.49,2.55,2.13,1.91,2.55,2.34,5.32,4.04,5.96,8.30,7.66,,,,,,,,,,,,,,
1799999998601398602,2027-01-15T07:59:58.601398602Z,,-1.06,0.85,0.64,1.91,1.91,2.13,2.98,2.13,5.11,4.26,6.81,8.30,7.66,,,,,,,,,,,,,,
1799999998611388612,2027-01-15T07:59:58.611388612Z,,-0.64,-1.28,0.21,0.64,2.13,3.19,4.47,2.55,4.89,5.11,7.02,8.51,6.81,,,,,,,,,,,,,,
1799999998621378622,2027-01-15T07:59:58.621378622Z,,0.64,-1.70,1.28,1.49,2.13,4.68,3.62,3.83,4.89,5.32,5.96,4.47,6.60,,,,,,,,,,,,,,
1799999998631368632,2027-01-15T07:59:58.631368632Z,,1.06,-1.70,0.21,1.28,2.34,4.68,3.19,4.26,5.11,5.53,6.38,3.40,7.45,,,,,,,,,,,,,,
1799999998641358642,2027-01-15T07:59:58.641358642Z,,1.70,-1.06,-1.70,2.34,3.19,1.49,3.62,5.11,4.04,4.89,7.23,7.45,7.87,,,,,,,,,,,,,,
1799999998651348652,2027-01-15T07:59:58.651348652Z,,0.64,-0.21,-0.64,4.26,3.83,0.64,5.74,3.83,4.47,4.68,5.96,6.38,7.02,,,,,,,,,,,,,,
1799999998661338662,2027-01-15T07:59:58.661338662Z,,0.85,0.64,-0.85,4.04,2.34,2.77,5.32,3.19,5.53,7.02,5.74,5.96,6.60,,,,,,,,,,,,,,
1799999998671328672,2027-01-15T07:59:58.671328672Z,,1.28,0.64,0.00,3.40,1.49,2.13,4.47,3.40,5.53,7.45,6.17,6.38,6.81,,,,,,,,,,,,,,
1799999998681318682,2027-01-15T07:59:58.681318682Z,,-1.49,0.00,1.91,2.55,1.49,0.85,3.62,3.83,5.96,6.38,6.38,5.74,7.02,,,,,,,,,,,,,,
1799999998691308692,2027-01-15T07:59:58.691308692Z,,-3.62,-0.21,1.06,0.43,2.77,3.19,2.77,2.77,4.47,6.60,6.60,7.23,6.60,,,,,,,,,,,,,,
1799999998701298702,2027-01-15T07:59:58.701298702Z,,-0.43,-0.21,1.49,0.00,2.55,5.32,3.19,4.26,2.34,6.17,6.38,7.23,7.87,,,,,,,,,,,,,,
1799999998711288712,2027-01-15T07:59:58.711288712Z,,2.34,-0.64,1.70,0.85,1.49,5.74,2.55,5.53,3.19,4.68,6.60,6.60,8.51,,,,,,,,,,,,,,
1799999998721278722,2027-01-15T07:59:58.721278722Z,,1.91,-1.06,-0.64,1.91,0.85,4.26,2.55,5.53,5.11,2.98,6.17,6.38,7.66,,,,,,,,,,,,,,
