# spacing_uv=20.0
timestamp_ns,timestamp_iso,AF3,F7,F3,FC5,T7,P7,O1,O2,P8,T8,FC6,F4,F8,AF4,AF3_q,F7_q,F3_q,FC5_q,T7_q,P7_q,O1_q,O2_q,P8_q,T8_q,FC6_q,F4_q,F8_q,AF4_q
1799999990000000000,2027-01-15T07:59:50.000000000Z,,,,,,,,,,,,,,,,,,,,,,,,,,,,
1799999990009514748,2027-01-15T07:59:50.009514748Z,-1.55,2.41,,0.34,2.41,-0.34,1.03,1.90,1.38,3.45,,,,,,,,,,,,,,,,,,
1799999990019029496,2027-01-15T07:59:50.019029496Z,-0.69,-0.86,0.52,0.17,0.52,0.86,2.07,3.62,1.90,4.14,4.66,7.24,6.72,5.86,,,,,,,,,,,,,,
1799999990028544244,2027-01-15T07:59:50.028544244Z,-0.17,-2.07,0.00,0.00,-0.34,0.69,1.72,3.10,3.10,4.48,5.00,7.24,6.72,6.38,,,,,,,,,,,,,,
1799999990038058992,2027-01-15T07:59:50.038058992Z,0.00,-1.72,1.21,0.17,0.86,-0.69,1.21,1.21,5.69,4.66,5.86,5.69,6.55,6.55,,,,,,,,,,,,,,
1799999990047573740,2027-01-15T07:59:50.047573740Z,1.55,-0.69,2.41,0.86,1.90,1.21,2.07,2.07,6.72,5.00,6.03,3.97,7.24,5.34,,,,,,,,,,,,,,
1799999990057088488,2027-01-15T07:59:50.057088488Z,-0.52,-3.28,2.07,0.00,1.90,4.66,1.03,2.93,3.97,4.14,5.17,4.66,7.93,5.86,,,,,,,,,,,,,,
1799999990066603236,2027-01-15T07:59:50.066603236Z,0.34,-1.90,0.69,-0.34,0.17,1.21,0.52,2.07,3.10,4.31,5.17,6.21,6.38,7.41,,,,,,,,,,,,,,
1799999990076117983,2027-01-15T07:59:50.076117983Z,0.17,0.17,0.52,-0.17,-0.34,-1.03,0.52,2.76,3.28,3.28,5.17,6.03,5.34,7.59,,,,,,,,,,,,,,
1799999990085632731,2027-01-15T07:59:50.085632731Z,-0.17,2.93,1.55,1.55,0.34,-1.03,-0.17,4.31,3.10,3.10,5.17,5.52,4.31,7.24,,,,,,,,,,,,,,
1799999990095147479,2027-01-15T07:59:50.095147479Z,1.55,2.76,1.72,2.07,0.52,-1.72,0.86,3.45,2.41,5.00,4.14,6.55,3.45,6.38,,,,,,,,,,,,,,
1799999990104662227,2027-01-15T07:59:50.104662227Z,1.90,2.93,1.21,1.72,-0.34,0.52,3.45,2.41,1.38,4.31,5.00,5.17,5.17,7.07,,,,,,,,,,,,,,
1799999990114176975,2027-01-15T07:59:50.114176975Z,1.90,3.62,1.72,2.24,-1.21,2.41,2.24,1.72,1.21,3.97,4.31,4.48,5.69,7.41,,,,,,,,,,,,,,
1799999990123691723,2027-01-15T07:59:50.123691723Z,8.45,3.79,2.41,1.90,-1.72,5.52,0.52,0.00,3.28,3.79,3.10,3.10,5.17,6.21,,,,,,,,,,,,,,
1799999990133206471,2027-01-15T07:59:50.133206471Z,7.59,3.45,1.38,1.03,-0.52,3.28,3.62,0.00,5.86,1.72,4.83,2.24,5.00,5.34,,,,,,,,,,,,,,
1799999990142721218,2027-01-15T07:59:50.142721218Z,6.72,4.83,1.03,2.07,1.21,1.55,5.86,-0.34,5.17,1.21,6.55,3.79,5.00,6.03,,,,,,,,,,,,,,
1799999990152235966,2027-01-15T07:59:50.152235966Z,5.69,3.97,1.21,3.62,1.38,1.21,3.79,-1.38,4.14,2.76,4.48,6.90,4.83,5.69,,,,,,,,,,,,,,
1799999990161750714,2027-01-15T07:59:50.161750714Z,3.97,2.59,1.21,3.28,0.52,1.55,1.38,-0.69,2.24,3.10,3.28,7.07,4.83,5.34,,,,,,,,,,,,,,
1799999990171265462,2027-01-15T07:59:50.171265462Z,-0.34,2.59,1.21,1.03,0.69,3.62,0.00,0.86,-1.21,3.45,4.31,5.86,6.21,5.17,,,,,,,,,,,,,,
1799999990180780210,2027-01-15T07:59:50.180780210Z,-1.03,1.21,1.72,0.69,1.72,3.28,-0.34,0.52,0.17,3.97,6.03,6.38,5.69,4.14,,,,,,,,,,,,,,
1799999990190294958,2027-01-15T07:59:50.190294958Z,1.90,-0.17,0.69,2.59,2.07,1.03,1.03,2.24,4.48,3.45,5.17,5.52,3.62,3.28,,,,,,,,,,,,,,
1799999990199809706,2027-01-15T07:59:50.199809706Z,-0.17,1.72,-0.34,2.07,2.41,1.38,0.86,2.93,3.28,4.48,3.28,3.45,3.45,4.48,,,,,,,,,,,,,,
1799999990209324453,2027-01-15T07:59:50.209324453Z,0.86,1.55,-0.34,1.21,1.38,1.21,1.21,2.93,2.41,5.34,3.45,4.48,3.97,5.86,,,,,,,,,,,,,,
1799999990218839201,2027-01-15T07:59:50.218839201Z,-3.10,-1.90,-1.72,2.24,0.52,0.00,2.59,2.93,4.48,4.83,5.00,6.38,4.31,7.76,,,,,,,,,,,,,,
1799999990228353949,2027-01-15T07:59:50.228353949Z,-2.41,-1.72,-1.55,0.86,2.41,1.21,1.03,2.24,2.41,3.62,6.21,5.00,5.00,7.59,,,,,,,,,,,,,,
1799999990237868697,2027-01-15T07:59:50.237868697Z,1.03,0.52,-0.86,0.86,2.24,2.07,-0.34,0.52,3.45,3.10,6.03,5.00,4.66,6.55,,,,,,,,,,,,,,
1799999990247383445,2027-01-15T07:59:50.247383445Z,0.17,0.86,-1.55,1.03,1.55,2.07,0.34,0.86,4.83,2.93,5.00,4.48,4.31,7.07,,,,,,,,,,,,,,
1799999990256898193,2027-01-15T07:59:50.256898193Z,-3.28,0.52,-2.41,0.69,1.55,2.07,2.41,2.59,3.62,2.93,3.10,2.93,4.48,7.93,,,,,,,,,,,,,,
1799999990266412941,2027-01-15T07:59:50.266412941Z,1.03,1.90,-0.86,-0.69,0.34,0.34,2.59,2.59,2.41,3.97,3.97,4.48,6.21,6.55,,,,,,,,,,,,,,
1799999990275927688,2027-01-15T07:59:50.275927688Z,0.34,0.34,-1.55,-1.90,-0.34,-0.52,2.93,3.62,2.24,3.97,4.83,6.55,5.52,5.34,,,,,,,,,,,,,,
1799999990285442436,2027-01-15T07:59:50.285442436Z,-3.10,-2.07,-2.24,-0.34,0.86,1.03,3.79,5.86,4.14,3.10,3.28,6.03,3.97,5.69,,,,,,,,,,,,,,
1799999990294957184,2027-01-15T07:59:50.294957184Z,-0.34,-2.59,-2.07,0.34,0.00,2.24,3.79,5.34,5.34,3.28,3.62,6.21,3.45,5.00,,,,,,,,,,,,,,
1799999990304471932,2027-01-15T07:59:50.304471932Z,-6.55,-4.31,-1.21,-0.52,-1.55,5.34,3.97,4.66,5.86,3.45,4.48,6.55,3.10,3.79,,,,,,,,,,,,,,
1799999990313986680,2027-01-15T07:59:50.313986680Z,-7.07,-2.76,0.69,0.17,-0.17,6.03,3.28,6.21,4.66,2.59,3.10,5.86,3.79,4.83,,,,,,,,,,,,,,
1799999990323501428,2027-01-15T07:59:50.323501428Z,-2.76,-1.03,0.34,-1.38,1.90,3.28,1.55,5.52,2.59,2.07,3.45,4.83,5.17,6.38,,,,,,,,,,,,,,
1799999990333016176,2027-01-15T07:59:50.333016176Z,-3.45,-1.03,-0.17,-2.07,2.41,0.69,1.03,4.31,1.90,2.41,3.62,5.17,6.03,7.07,,,,,,,,,,,,,,
1799999990342530923,2027-01-15T07:59:50.342530923Z,-6.03,-2.59,0.34,-2.07,1.90,-1.21,2.07,2.76,1.55,3.79,2.93,6.21,6.21,6.21,,,,,,,,,,,,,,
1799999990352045671,2027-01-15T07:59:50.352045671Z,-6.21,-4.14,-1.03,-0.86,-0.86,-0.17,2.59,2.93,2.24,4.83,3.28,5.69,5.86,4.83,,,,,,,,,,,,,,
1799999990361560419,2027-01-15T07:59:50.361560419Z,-0.69,-2.93,-1.03,0.34,-0.52,2.07,2.59,2.93,3.62,5.69,4.14,4.83,5.69,5.17,,,,,,,,,,,,,,
1799999990371075167,2027-01-15T07:59:50.371075167Z,0.34,-0.17,-1.21,-0.86,0.69,2.76,3.28,4.48,2.76,5.52,5.17,4.31,5.69,5.17,,,,,,,,,,,,,,
1799999990380589915,2027-01-15T07:59:50.380589915Z,-2.41,-0.52,-1.38,-0.69,0.69,1.55,2.93,4.66,3.62,5.34,4.66,4.83,5.00,6.03,,,,,,,,,,,,,,
1799999990390104663,2027-01-15T07:59:50.390104663Z,-2.24,-3.62,-1.21,1.21,0.52,0.86,1.55,2.59,4.48,4.31,3.28,4.66,3.97,7.93,,,,,,,,,,,,,,
1799999990399619411,2027-01-15T07:59:50.399619411Z,-6.21,-4.31,-1.21,0.52,1.03,3.10,1.55,3.97,1.21,2.93,3.62,2.76,4.31,7.24,,,,,,,,,,,,,,
1799999990409134158,2027-01-15T07:59:50.409134158Z,-3.45,-2.41,-1.21,-0.34,0.52,1.90,2.41,4.83,0.00,3.97,3.97,3.97,5.69,6.72,,,,,,,,,,,,,,
1799999990418648906,2027-01-15T07:59:50.418648906Z,-5.00,-2.41,0.00,-0.17,0.69,0.52,2.76,4.31,0.34,4.48,3.62,4.66,5.69,6.90,,,,,,,,,,,,,,
1799999990428163654,2027-01-15T07:59:50.428163654Z,-6.72,-2.07,0.52,0.52,0.86,1.38,2.93,2.76,-0.52,3.97,3.62,5.69,4.66,6.90,,,,,,,,,,,,,,
1799999990437678402,2027-01-15T07:59:50.437678402Z,-7.07,-3.79,-1.21,0.00,0.00,-0.86,3.10,2.59,1.03,3.45,4.48,7.07,4.83,6.55,,,,,,,,,,,,,,
1799999990447193150,2027-01-15T07:59:50.447193150Z,-7.93,-5.17,-1.55,-0.86,1.21,-0.34,3.97,2.76,4.48,4.31,3.45,5.69,4.83,6.90,,,,,,,,,,,,,,
1799999990456707898,2027-01-15T07:59:50.456707898Z,-6.72,-2.93,-0.52,-0.17,3.62,1.55,2.76,4.48,4.48,5.00,2.76,3.97,4.14,6.21,,,,,,,,,,,,,,
1799999990466222646,2027-01-15T07:59:50.466222646Z,-6.55,-2.93,-0.52,-0.52,2.93,1.55,2.41,5.17,3.97,3.79,2.76,4.14,3.97,6.03,,,,,,,,,,,,,,
1799999990475737393,2027-01-15T07:59:50.475737393Z,-6.72,-4.66,0.17,-1.21,1.03,2.59,3.28,3.62,5.69,2.59,2.76,5.00,4.66,6.03,,,,,,,,,,,,,,
1799999990485252141,2027-01-15T07:59:50.485252141Z,-5.17,-3.79,1.55,-1.55,1.90,4.14,4.83,2.24,4.83,3.45,3.28,5.86,6.03,6.03,,,,,,,,,,,,,,
1799999990494766889,2027-01-15T07:59:50.494766889Z,-4.14,-3.10,1.21,-3.28,2.59,3.10,3.79,1.72,2.41,3.28,4.66,6.21,6.90,5.34,,,,,,,,,,,,,,
1799999990504281637,2027-01-15T07:59:50.504281637Z,-2.59,-2.76,-1.38,-1.03,3.10,1.72,5.34,2.59,2.93,3.28,5.00,5.17,5.86,6.90,,,,,,,,,,,,,,
1799999990513796385,2027-01-15T07:59:50.513796385Z,-2.41,-1.38,-1.72,0.00,3.28,2.07,6.21,2.76,3.62,3.10,4.48,4.83,6.21,7.59,,,,,,,,,,,,,,
1799999990523311133,2027-01-15T07:59:50.523311133Z,0.69,0.69,0.00,1.38,2.41,4.31,3.79,3.10,2.93,2.59,3.28,5.52,6.72,7.24,,,,,,,,,,,,,,
1799999990532825881,2027-01-15T07:59:50.532825881Z,0.69,0.69,-0.17,-0.17,-0.34,5.69,2.07,3.28,3.28,3.79,4.14,5.69,5.34,6.03,,,,,,,,,,,,,,
1799999990542340628,2027-01-15T07:59:50.542340628Z,-2.41,0.52,0.86,0.00,1.21,3.45,2.24,2.59,2.93,4.66,5.17,5.52,6.21,7.41,,,,,,,,,,,,,,
1799999990551855376,2027-01-15T07:59:50.551855376Z,1.90,1.21,1.90,1.03,1.90,1.72,1.55,2.07,2.59,3.97,5.00,4.66,6.72,7.93,,,,,,,,,,,,,,
1799999990561370124,2027-01-15T07:59:50.561370124Z,2.24,1.90,1.90,2.41,1.55,0.17,0.00,1.38,2.24,2.93,4.48,3.45,5.34,6.72,,,,,,,,,,,,,,
1799999990570884872,2027-01-15T07:59:50.570884872Z,2.41,3.10,2.93,3.28,-0.69,-0.52,-0.69,1.03,1.90,4.48,4.14,3.28,4.31,3.97,,,,,,,,,,,,,,
1799999990580399620,2027-01-15T07:59:50.580399620Z,4.83,3.45,3.28,3.79,0.86,-1.72,0.17,1.03,2.59,5.34,2.93,4.14,5.34,3.97,,,,,,,,,,,,,,
1799999990589914368,2027-01-15T07:59:50.589914368Z,5.00,2.93,1.90,2.76,0.69,0.34,0.34,2.59,1.38,3.62,3.97,4.31,7.07,6.55,,,,,,,,,,,,,,
1799999990599429116,2027-01-15T07:59:50.599429116Z,6.21,3.97,1.21,2.93,0.52,1.55,-0.86,1.90,0.69,3.45,4.66,3.79,6.21,6.90,,,,,,,,,,,,,,
1799999990608943863,2027-01-15T07:59:50.608943863Z,8.97,5.00,0.86,3.45,3.28,1.72,-1.72,-0.69,1.38,4.83,3.10,4.14,3.97,5.52,,,,,,,,,,,,,,
1799999990618458611,2027-01-15T07:59:50.618458611Z,7.24,5.52,1.90,2.76,3.45,3.10,0.17,-1.03,1.03,4.31,2.41,5.34,4.14,6.03,,,,,,,,,,,,,,
1799999990627973359,2027-01-15T07:59:50.627973359Z,7.41,6.03,0.86,4.48,1.03,2.93,1.38,-1.21,2.93,3.62,2.59,5.17,5.86,6.38,,,,,,,,,,,,,,
1799999990637488107,2027-01-15T07:59:50.637488107Z,4.48,6.03,1.03,5.17,0.52,2.59,1.38,-0.17,3.79,3.79,2.76,5.00,6.38,6.38,,,,,,,,,,,,,,
1799999990647002855,2027-01-15T07:59:50.647002855Z,4.14,3.97,1.72,2.93,1.38,3.10,2.24,1.03,1.90,3.79,3.45,6.21,5.86,6.21,,,,,,,,,,,,,,
1799999990656517603,2027-01-15T07:59:50.656517603Z,1.55,0.52,-1.38,0.52,0.34,3.28,3.62,0.52,3.62,3.45,3.10,6.38,6.38,4.66,,,,,,,,,,,,,,
1799999990666032351,2027-01-15T07:59:50.666032351Z,1.90,0.00,-3.62,0.34,0.86,2.59,2.59,0.86,6.55,3.62,3.62,5.00,6.90,4.48,,,,,,,,,,,,,,
1799999990675547099,2027-01-15T07:59:50.675547099Z,3.97,1.03,-1.90,1.90,1.90,2.24,1.21,1.03,5.69,3.10,5.00,4.48,6.03,6.55,,,,,,,,,,,,,,
1799999990685061846,2027-01-15T07:59:50.685061846Z,1.03,0.86,-0.52,1.90,1.72,2.41,1.38,1.55,4.31,2.24,5.86,4.83,5.34,7.41,,,,,,,,,,,,,,
1799999990694576594,2027-01-15T07:59:50.694576594Z,0.52,-0.17,-1.03,1.55,1.03,2.59,1.38,2.59,3.62,0.86,5.52,5.17,4.66,6.90,,,,,,,,,,,,,,
1799999990704091342,2027-01-15T07:59:50.704091342Z,-4.66,-2.07,-1.38,1.03,0.17,3.10,1.55,1.38,3.97,1.72,6.03,5.69,5.69,5.86,,,,,,,,,,,,,,
1799999990713606090,2027-01-15T07:59:50.713606090Z,-3.10,-2.07,-0.17,1.90,-1.03,2.93,2.24,0.34,2.24,4.14,5.86,5.00,6.21,4.83,,,,,,,,,,,,,,
1799999990723120838,2027-01-15T07:59:50.723120838Z,-2.93,-1.72,0.17,2.24,-1.03,3.28,3.10,0.69,1.90,5.00,4.66,4.66,5.69,4.83,,,,,,,,,,,,,,
1799999990732635586,2027-01-15T07:59:50.732635586Z,-3.10,-0.69,0.00,0.69,-1.21,3.10,3.62,0.69,3.45,4.14,2.59,4.31,3.97,5.69,,,,,,,,,,,,,,
1799999990742150334,2027-01-15T07:59:50.742150334Z,-0.52,-1.03,-0.86,-2.07,-1.38,0.69,1.90,-0.17,3.79,6.03,3.79,3.97,5.00,5.52,,,,,,,,,,,,,,
1799999990751665081,2027-01-15T07:59:50.751665081Z,0.34,-3.10,-0.17,-1.03,-0.86,-0.69,2.41,1.72,3.45,6.72,4.66,3.45,7.07,5.17,,,,,,,,,,,,,,
1799999990761179829,2027-01-15T07:59:50.761179829Z,-1.03,-1.55,-0.52,0.52,-1.03,1.38,1.38,5.00,2.76,4.31,2.93,4.48,6.38,5.34,,,,,,,,,,,,,,
1799999990770694577,2027-01-15T07:59:50.770694577Z,-1.90,-0.34,-0.69,0.52,-0.52,1.72,0.86,5.52,2.59,4.14,3.79,4.66,5.86,6.03,,,,,,,,,,,,,,
1799999990780209325,2027-01-15T07:59:50.780209325Z,,-1.55,-0.17,1.21,0.86,0.52,1.55,3.10,3.62,3.97,5.86,3.97,4.14,6.55,,,,,,,,,,,,,,
1799999990789724073,2027-01-15T07:59:50.789724073Z,-3.62,-2.07,-1.38,0.69,0.52,1.03,3.45,1.72,3.97,3.28,5.17,3.45,3.97,4.66,,,,,,,,,,,,,,
1799999990799238821,2027-01-15T07:59:50.799238821Z,-4.83,-1.90,-1.90,0.34,-0.86,1.21,3.97,2.93,3.62,5.34,4.66,4.31,3.97,2.59,,,,,,,,,,,,,,
1799999990808753569,2027-01-15T07:59:50.808753569Z,-3.45,-2.41,-0.86,1.55,-2.07,1.03,3.45,5.86,3.79,3.79,4.66,4.31,3.28,4.14,,,,,,,,,,,,,,
1799999990818268316,2027-01-15T07:59:50.818268316Z,-3.97,-1.72,-0.52,0.34,-1.03,1.72,3.79,6.90,3.45,2.93,4.66,3.97,3.62,5.69,,,,,,,,,,,,,,
1799999990827783064,2027-01-15T07:59:50.827783064Z,-5.00,-1.21,-0.52,-1.72,1.03,2.41,3.79,6.21,3.28,5.00,4.83,4.31,4.31,7.24,,,,,,,,,,,,,,
1799999990837297812,2027-01-15T07:59:50.837297812Z,-6.21,-3.28,-0.52,-0.69,0.34,0.52,2.07,5.86,3.62,5.86,4.83,5.17,4.31,7.07,,,,,,,,,,,,,,
1799999990846812560,2027-01-15T07:59:50.846812560Z,-3.79,-3.28,0.34,0.00,0.52,1.03,2.24,4.31,1.90,5.17,5.00,5.52,4.48,5.17,,,,,,,,,,,,,,
1799999990856327308,2027-01-15T07:59:50.856327308Z,-5.17,-3.10,0.52,-0.52,0.52,1.21,2.59,4.48,2.59,4.83,5.17,5.34,4.31,5.52,,,,,,,,,,,,,,
1799999990865842056,2027-01-15T07:59:50.865842056Z,-5.52,-3.97,0.86,-1.55,0.34,-1.72,1.38,6.03,3.97,5.17,4.31,6.03,5.00,6.90,,,,,,,,,,,,,,
1799999990875356804,2027-01-15T07:59:50.875356804Z,-5.00,-2.59,0.52,-2.24,0.69,-0.86,2.93,5.69,2.76,5.69,3.28,5.52,5.34,5.86,,,,,,,,,,,,,,
1799999990884871551,2027-01-15T07:59:50.884871551Z,-4.48,-1.21,-2.07,-2.76,1.21,3.45,5.00,5.17,2.24,5.69,3.97,4.48,4.66,6.03,,,,,,,,,,,,,,
1799999990894386299,2027-01-15T07:59:50.894386299Z,-2.76,-1.90,-1.38,-1.90,1.90,3.10,3.45,3.97,2.59,5.86,4.48,3.97,5.17,4.66,,,,,,,,,,,,,,
1799999990903901047,2027-01-15T07:59:50.903901047Z,-0.34,-2.59,-0.69,-1.55,1.90,1.90,1.90,3.62,2.76,6.03,4.83,4.14,5.00,4.31,,,,,,,,,,,,,,
1799999990913415795,2027-01-15T07:59:50.913415795Z,-3.62,-1.90,-0.34,-1.55,2.59,0.34,0.86,3.45,5.17,4.83,5.00,4.83,3.97,6.03,,,,,,,,,,,,,,
1799999990922930543,2027-01-15T07:59:50.922930543Z,-0.69,-1.38,-0.69,-1.38,1.90,0.86,1.38,3.28,6.21,3.45,4.31,5.34,4.66,7.76,,,,,,,,,,,,,,
1799999990932445291,2027-01-15T07:59:50.932445291Z,0.52,-1.90,-0.69,0.17,0.69,0.52,3.10,3.79,3.79,3.10,4.14,4.66,5.69,6.21,,,,,,,,,,,,,,
1799999990941960039,2027-01-15T07:59:50.941960039Z,0.00,-2.24,0.34,0.34,0.34,1.03,2.24,3.45,2.24,3.10,5.17,4.66,5.17,6.03,,,,,,,,,,,,,,
1799999990951474786,2027-01-15T07:59:50.951474786Z,0.17,-1.38,1.90,-0.17,0.34,2.41,0.86,2.41,2.41,2.59,6.21,5.17,3.97,5.52,,,,,,,,,,,,,,
1799999990960989534,2027-01-15T07:59:50.960989534Z,-2.07,-0.17,1.38,1.03,1.38,3.45,1.38,2.24,1.72,3.10,5.17,5.52,4.31,3.28,,,,,,,,,,,,,,
1799999990970504282,2027-01-15T07:59:50.970504282Z,0.69,0.52,1.21,2.24,1.72,3.28,0.17,1.72,3.10,4.31,4.14,5.17,4.66,4.48,,,,,,,,,,,,,,
1799999990980019030,2027-01-15T07:59:50.980019030Z,0.86,1.38,0.52,1.72,2.76,1.21,0.69,2.93,5.52,5.86,3.62,4.14,6.21,5.34,,,,,,,,,,,,,,
1799999990989533778,2027-01-15T07:59:50.989533778Z,2.24,1.72,0.69,1.55,3.62,0.86,2.07,1.55,5.00,5.17,2.93,4.83,6.72,5.17,,,,,,,,,,,,,,
1799999990999048526,2027-01-15T07:59:50.999048526Z,4.66,2.07,1.21,3.10,5.00,2.59,3.10,-0.69,3.45,3.10,1.72,6.21,6.55,5.17,,,,,,,,,,,,,,
1799999991008563274,2027-01-15T07:59:51.008563274Z,5.00,1.90,1.03,4.83,3.10,2.93,1.03,0.86,3.45,3.62,3.28,5.34,6.90,7.07,,,,,,,,,,,,,,
1799999991018078021,2027-01-15T07:59:51.018078021Z,2.93,4.14,0.69,2.76,2.76,2.59,-0.17,1.38,2.07,4.66,3.79,5.00,6.55,8.45,,,,,,,,,,,,,,
1799999991027592769,2027-01-15T07:59:51.027592769Z,3.28,4.48,-0.17,1.03,2.59,2.07,-0.17,1.90,2.76,3.62,3.79,5.69,6.03,8.97,,,,,,,,,,,,,,
1799999991037107517,2027-01-15T07:59:51.037107517Z,1.90,2.93,-1.38,1.55,1.72,0.69,-1.38,3.45,4.14,2.24,6.03,6.55,5.34,10.69,,,,,,,,,,,,,,
1799999991046622265,2027-01-15T07:59:51.046622265Z,,1.03,-0.34,1.55,1.03,0.17,-0.86,3.62,3.10,3.62,5.86,5.00,5.86,10.34,,,,,,,,,,,,,,
1799999991056137013,2027-01-15T07:59:51.056137013Z,0.34,1.38,0.34,1.90,0.00,0.34,0.86,3.62,2.93,5.00,3.97,3.97,6.38,8.45,,,,,,,,,,,,,,
1799999991065651761,2027-01-15T07:59:51.065651761Z,0.86,2.76,1.03,3.28,0.34,2.24,2.07,2.24,4.14,4.14,4.83,4.66,4.48,5.69,,,,,,,,,,,,,,
1799999991075166509,2027-01-15T07:59:51.075166509Z,0.00,2.07,0.17,1.03,1.38,3.28,2.93,1.21,3.62,3.79,4.31,5.69,4.66,4.66,,,,,,,,,,,,,,
1799999991084681256,2027-01-15T07:59:51.084681256Z,-0.17,0.69,-1.38,-1.90,2.76,2.93,5.17,0.52,1.72,2.59,4.66,5.86,6.21,5.17,,,,,,,,,,,,,,
1799999991094196004,2027-01-15T07:59:51.094196004Z,0.86,0.52,-1.21,0.86,2.07,0.17,5.00,2.41,2.24,2.93,6.03,4.48,5.17,6.21,,,,,,,,,,,,,,
1799999991103710752,2027-01-15T07:59:51.103710752Z,-1.72,-0.17,-1.03,1.38,0.69,-1.72,3.79,3.79,3.62,2.59,4.66,3.28,7.59,6.38,,,,,,,,,,,,,,
1799999991113225500,2027-01-15T07:59:51.113225500Z,-0.17,0.69,-0.52,1.38,1.55,0.17,1.55,3.97,3.62,2.76,4.31,3.62,9.48,6.38,,,,,,,,,,,,,,
1799999991122740248,2027-01-15T07:59:51.122740248Z,-0.69,0.86,-0.34,1.72,0.69,1.55,1.21,3.45,2.41,2.76,3.79,3.45,9.48,6.38,,,,,,,,,,,,,,
1799999991132254996,2027-01-15T07:59:51.132254996Z,-0.69,-0.69,-0.34,1.38,-0.69,2.24,2.76,2.59,2.76,4.31,3.28,3.79,9.66,6.21,,,,,,,,,,,,,,
1799999991141769744,2027-01-15T07:59:51.141769744Z,-2.93,-1.55,-1.03,-0.69,1.55,2.07,3.28,3.97,5.69,6.21,4.48,5.00,7.07,6.38,,,,,,,,,,,,,,
1799999991151284491,2027-01-15T07:59:51.151284491Z,-4.31,-0.52,-0.86,0.00,0.69,3.10,3.62,4.66,5.52,5.52,4.14,5.69,2.24,6.90,,,,,,,,,,,,,,
1799999991160799239,2027-01-15T07:59:51.160799239Z,-2.07,-1.03,-1.38,0.00,-0.69,1.38,3.62,3.62,4.83,5.00,4.48,5.86,2.59,6.03,,,,,,,,,,,,,,
1799999991170313987,2027-01-15T07:59:51.170313987Z,-1.90,-2.76,-3.28,1.72,-0.86,-2.41,2.76,1.21,5.34,5.34,5.17,5.34,5.00,4.14,,,,,,,,,,,,,,
1799999991179828735,2027-01-15T07:59:51.179828735Z,-3.10,-2.24,-1.55,2.24,0.00,-2.41,1.38,1.55,3.79,4.14,3.10,5.00,4.66,4.31,,,,,,,,,,,,,,
1799999991189343483,2027-01-15T07:59:51.189343483Z,-2.07,-1.90,-0.17,1.03,1.03,1.21,1.72,2.41,2.93,3.79,2.41,4.83,5.52,6.38,,,,,,,,,,,,,,
1799999991198858231,2027-01-15T07:59:51.198858231Z,-2.07,-1.38,0.69,0.17,0.69,2.24,2.59,2.76,2.59,3.10,4.83,6.03,4.83,7.07,,,,,,,,,,,,,,
1799999991208372979,2027-01-15T07:59:51.208372979Z,-2.59,-2.59,0.34,0.00,1.21,1.55,3.10,4.31,3.28,2.59,4.83,6.03,4.83,5.86,,,,,,,,,,,,,,
1799999991217887726,2027-01-15T07:59:51.217887726Z,-3.28,-1.90,0.34,-0.17,2.59,0.86,2.41,5.00,1.90,1.72,3.79,4.48,5.17,3.62,,,,,,,,,,,,,,
1799999991227402474,2027-01-15T07:59:51.227402474Z,-2.41,0.86,1.38,0.34,2.93,2.41,1.03,2.76,-1.21,2.59,4.48,3.62,4.31,3.45,,,,,,,,,,,,,,
1799999991236917222,2027-01-15T07:59:51.236917222Z,-2.41,-0.17,-0.34,1.03,2.41,2.41,1.55,2.59,0.69,2.93,3.45,3.10,3.79,5.00,,,,,,,,,,,,,,
1799999991246431970,2027-01-15T07:59:51.246431970Z,-1.38,-0.17,-1.72,0.52,1.38,2.41,2.07,3.10,2.76,3.45,3.79,3.97,4.14,5.52,,,,,,,,,,,,,,
1799999991255946718,2027-01-15T07:59:51.255946718Z,-0.34,0.52,-1.03,-0.69,0.17,2.76,1.90,1.90,2.24,3.79,5.86,5.34,5.00,5.86,,,,,,,,,,,,,,
1799999991265461466,2027-01-15T07:59:51.265461466Z,-0.17,-1.38,-1.21,-0.52,1.21,1.21,1.72,2.07,3.79,2.24,7.41,4.66,4.83,6.90,,,,,,,,,,,,,,
1799999991274976214,2027-01-15T07:59:51.274976214Z,-0.86,-1.90,-1.21,0.86,0.34,1.90,3.28,3.10,3.97,2.24,5.69,5.00,4.83,6.90,,,,,,,,,,,,,,
1799999991284490961,2027-01-15T07:59:51.284490961Z,-1.21,-1.38,2.07,0.17,-1.21,3.45,4.14,3.10,1.90,3.28,4.66,3.97,3.62,5.17,,,,,,,,,,,,,,
1799999991294005709,2027-01-15T07:59:51.294005709Z,-2.41,-1.21,3.45,-0.17,-0.52,3.10,3.28,3.10,3.45,4.14,4.31,3.79,3.45,5.69,,,,,,,,,,,,,,
1799999991303520457,2027-01-15T07:59:51.303520457Z,-0.86,-1.90,1.03,0.69,1.03,2.59,1.21,1.90,5.69,5.69,3.10,3.62,5.34,6.72,,,,,,,,,,,,,,
1799999991313035205,2027-01-15T07:59:51.313035205Z,-1.21,-2.76,0.34,0.52,0.69,3.79,1.03,2.24,3.62,5.34,3.97,4.66,5.86,5.34,,,,,,,,,,,,,,
1799999991322549953,2027-01-15T07:59:51.322549953Z,-1.55,-2.41,-0.52,0.17,1.03,0.86,1.38,3.28,4.14,3.97,4.83,5.86,5.34,6.72,,,,,,,,,,,,,,
1799999991332064701,2027-01-15T07:59:51.332064701Z,-1.38,-2.24,-0.52,0.34,0.17,0.86,1.72,3.28,4.14,3.28,4.83,6.03,4.83,7.59,,,,,,,,,,,,,,
1799999991341579449,2027-01-15T07:59:51.341579449Z,-0.86,-2.59,1.38,-0.17,-0.86,1.90,1.90,4.14,2.07,3.28,4.31,5.34,4.14,6.38,,,,,,,,,,,,,,
1799999991351094197,2027-01-15T07:59:51.351094197Z,-0.34,-1.38,2.41,0.17,0.86,0.17,1.72,3.97,2.24,3.79,3.45,5.00,5.17,6.55,,,,,,,,,,,,,,
1799999991360608944,2027-01-15T07:59:51.360608944Z,-0.69,-0.34,1.90,-0.52,1.90,0.52,1.03,1.55,2.93,5.00,4.83,5.52,5.69,5.52,,,,,,,,,,,,,,
1799999991370123692,2027-01-15T07:59:51.370123692Z,-0.34,-0.86,0.69,0.34,0.17,0.00,0.52,3.28,5.00,3.79,6.03,6.03,3.97,5.17,,,,,,,,,,,,,,
1799999991379638440,2027-01-15T07:59:51.379638440Z,-0.69,-1.21,0.34,0.52,0.17,-0.34,0.34,5.17,5.69,3.28,5.52,6.03,4.83,5.52,,,,,,,,,,,,,,
1799999991389153188,2027-01-15T07:59:51.389153188Z,2.24,-0.17,-0.86,-0.52,0.17,1.55,1.55,5.52,3.45,3.45,3.97,6.72,6.38,5.86,,,,,,,,,,,,,,
1799999991398667936,2027-01-15T07:59:51.398667936Z,-1.72,1.38,-0.52,-0.34,-1.38,3.62,2.76,5.17,1.21,4.48,5.00,5.69,5.00,4.14,,,,,,,,,,,,,,
1799999991408182684,2027-01-15T07:59:51.408182684Z,-1.55,3.28,-0.69,1.90,0.00,3.28,1.55,2.07,1.38,3.79,4.83,4.48,5.34,3.28,,,,,,,,,,,,,,
1799999991417697432,2027-01-15T07:59:51.417697432Z,1.21,2.59,0.17,1.03,2.76,0.69,1.90,1.55,0.34,2.41,3.28,5.34,6.03,4.48,,,,,,,,,,,,,,
1799999991427212179,2027-01-15T07:59:51.427212179Z,0.00,1.21,0.86,-0.52,2.41,0.00,2.76,2.24,0.17,2.07,2.93,5.34,6.03,5.00,,,,,,,,,,,,,,
1799999991436726927,2027-01-15T07:59:51.436726927Z,0.00,1.03,1.72,-0.86,0.52,1.55,2.41,1.55,2.93,3.10,3.62,4.66,5.52,6.03,,,,,,,,,,,,,,
1799999991446241675,2027-01-15T07:59:51.446241675Z,-0.17,1.55,0.86,0.52,0.00,0.69,3.28,3.10,3.45,3.10,3.10,5.52,5.34,6.90,,,,,,,,,,,,,,
1799999991455756423,2027-01-15T07:59:51.455756423Z,-0.52,0.69,0.52,1.38,1.03,1.90,3.97,2.24,2.41,4.14,2.59,5.69,5.34,6.90,,,,,,,,,,,,,,
1799999991465271171,2027-01-15T07:59:51.465271171Z,-2.07,0.69,0.00,1.03,1.55,2.76,3.62,2.59,2.93,3.62,2.24,5.52,5.69,6.55,,,,,,,,,,,,,,
1799999991474785919,2027-01-15T07:59:51.474785919Z,-2.93,-0.52,-1.72,0.69,3.28,0.69,2.41,4.48,5.00,2.59,3.28,6.90,6.90,7.07,,,,,,,,,,,,,,
1799999991484300667,2027-01-15T07:59:51.484300667Z,-2.41,-1.21,-2.24,0.00,3.10,0.34,2.41,2.59,5.52,5.34,4.48,6.72,6.90,7.07,,,,,,,,,,,,,,
1799999991493815414,2027-01-15T07:59:51.493815414Z,-2.59,-1.90,-1.03,-1.21,3.97,1.21,1.55,1.21,3.79,6.55,4.14,4.14,5.86,6.72,,,,,,,,,,,,,,
1799999991503330162,2027-01-15T07:59:51.503330162Z,-0.34,-2.24,0.17,-1.03,2.07,0.86,1.03,1.90,3.97,3.62,2.76,3.79,5.86,7.76,,,,,,,,,,,,,,
1799999991512844910,2027-01-15T07:59:51.512844910Z,0.34,-2.93,-1.03,0.34,0.69,1.38,0.86,1.90,4.31,3.97,3.10,4.66,5.86,7.59,,,,,,,,,,,,,,
1799999991522359658,2027-01-15T07:59:51.522359658Z,-0.86,-2.41,-2.24,2.07,0.00,1.21,2.24,3.10,3.10,4.66,3.45,4.83,6.03,5.86,,,,,,,,,,,,,,
1799999991531874406,2027-01-15T07:59:51.531874406Z,-0.69,-0.34,-1.21,2.76,-0.86,-1.21,5.34,5.86,3.79,3.45,3.10,5.52,6.55,5.69,,,,,,,,,,,,,,
1799999991541389154,2027-01-15T07:59:51.541389154Z,0.00,0.34,-2.59,0.69,-0.17,-0.69,3.45,3.79,2.76,4.66,5.00,5.34,5.69,5.69,,,,,,,,,,,,,,
1799999991550903902,2027-01-15T07:59:51.550903902Z,-0.52,0.86,-0.86,0.00,0.52,0.00,1.90,2.24,1.72,3.62,5.34,5.00,5.00,5.17,,,,,,,,,,,,,,
1799999991560418649,2027-01-15T07:59:51.560418649Z,-2.41,0.34,1.90,0.52,0.34,0.69,1.21,2.07,2.59,0.86,4.31,4.83,3.28,4.66,,,,,,,,,,,,,,
1799999991569933397,2027-01-15T07:59:51.569933397Z,-2.93,-2.24,0.34,1.03,-0.17,0.17,0.69,3.97,2.76,1.38,5.00,4.14,2.93,5.69,,,,,,,,,,,,,,
1799999991579448145,2027-01-15T07:59:51.579448145Z,-3.10,-1.90,-2.07,-0.34,0.52,1.21,1.38,4.66,2.93,3.10,5.00,4.66,4.31,5.34,,,,,,,,,,,,,,
1799999991588962893,2027-01-15T07:59:51.588962893Z,-0.86,0.52,-2.93,0.52,0.17,3.45,1.90,1.55,3.10,3.28,3.79,5.86,4.14,5.17,,,,,,,,,,,,,,
1799999991598477641,2027-01-15T07:59:51.598477641Z,0.00,0.17,-3.10,1.55,0.34,3.10,1.38,0.00,3.62,2.59,3.28,5.69,5.17,5.69,,,,,,,,,,,,,,
1799999991607992389,2027-01-15T07:59:51.607992389Z,0.34,-2.07,-2.76,1.03,3.79,0.00,1.21,1.90,3.79,2.41,3.79,4.14,7.24,6.21,,,,,,,,,,,,,,
1799999991617507137,2027-01-15T07:59:51.617507137Z,-0.34,-1.03,0.00,1.72,4.14,-0.52,2.76,2.93,1.90,3.10,3.62,3.97,6.90,5.86,,,,,,,,,,,,,,
1799999991627021884,2027-01-15T07:59:51.627021884Z,-0.69,0.34,0.00,2.59,0.52,1.72,1.03,2.76,0.69,2.93,3.97,5.69,5.86,6.03,,,,,,,,,,,,,,
1799999991636536632,2027-01-15T07:59:51.636536632Z,0.34,0.34,0.00,2.41,-0.52,1.55,1.03,2.24,1.38,2.59,4.48,6.72,7.41,6.38,,,,,,,,,,,,,,
1799999991646051380,2027-01-15T07:59:51.646051380Z,-1.72,0.69,0.52,1.21,0.34,2.24,2.93,2.59,2.76,2.76,4.83,6.55,10.52,5.69,,,,,,,,,,,,,,
1799999991655566128,2027-01-15T07:59:51.655566128Z,0.17,0.00,2.41,1.21,-0.17,4.83,1.55,3.10,2.07,3.62,3.79,6.72,10.00,4.48,,,,,,,,,,,,,,
1799999991665080876,2027-01-15T07:59:51.665080876Z,-0.34,-0.69,1.21,1.21,0.69,4.66,0.69,1.55,3.28,3.62,3.45,6.03,6.03,3.45,,,,,,,,,,,,,,
1799999991674595624,2027-01-15T07:59:51.674595624Z,-0.34,0.17,-0.17,1.90,2.07,2.41,0.52,1.03,3.79,3.28,2.93,3.97,4.83,5.34,,,,,,,,,,,,,,
1799999991684110372,2027-01-15T07:59:51.684110372Z,-2.41,-1.38,0.00,2.07,2.24,0.69,0.52,2.24,3.79,3.10,3.79,3.10,5.34,6.72,,,,,,,,,,,,,,
1799999991693625119,2027-01-15T07:59:51.693625119Z,-1.21,-2.76,0.52,1.38,1.03,-0.69,0.69,3.62,4.48,3.79,5.52,3.62,5.52,6.72,,,,,,,,,,,,,,
1799999991703139867,2027-01-15T07:59:51.703139867Z,0.52,-0.52,0.00,0.52,1.21,2.07,1.03,3.28,3.10,5.00,5.69,4.83,6.21,7.59,,,,,,,,,,,,,,
1799999991712654615,2027-01-15T07:59:51.712654615Z,0.69,-0.86,1.03,1.38,2.07,3.28,1.72,3.28,3.10,4.48,4.83,4.31,5.86,7.07,,,,,,,,,,,,,,
1799999991722169363,2027-01-15T07:59:51.722169363Z,-0.69,-2.07,1.21,2.07,1.03,3.10,2.41,3.79,3.28,4.14,4.14,4.48,5.34,6.21,,,,,,,,,,,,,,
1799999991731684111,2027-01-15T07:59:51.731684111Z,-1.21,-0.86,1.55,3.10,-0.86,4.31,3.10,4.14,1.72,4.48,3.28,4.66,4.66,5.34,,,,,,,,,,,,,,
1799999991741198859,2027-01-15T07:59:51.741198859Z,0.69,0.69,2.59,1.90,0.52,3.79,3.10,1.72,2.07,4.66,3.97,4.31,4.48,5.17,,,,,,,,,,,,,,
1799999991750713607,2027-01-15T07:59:51.750713607Z,-0.52,0.52,2.76,0.52,1.55,1.72,3.10,1.55,4.31,3.79,4.14,5.52,4.14,5.86,,,,,,,,,,,,,,
1799999991760228354,2027-01-15T07:59:51.760228354Z,-0.52,-0.69,0.52,0.52,1.21,0.00,3.45,3.28,2.76,3.28,4.48,4.48,4.83,6.72,,,,,,,,,,,,,,
1799999991769743102,2027-01-15T07:59:51.769743102Z,-0.52,-0.69,0.52,0.69,1.72,1.03,3.45,3.10,1.72,3.10,3.62,3.62,4.48,6.72,,,,,,,,,,,,,,
1799999991779257850,2027-01-15T07:59:51.779257850Z,-1.38,-2.07,1.38,0.34,1.72,3.28,3.10,1.55,3.10,2.93,2.41,4.66,4.48,6.38,,,,,,,,,,,,,,
1799999991788772598,2027-01-15T07:59:51.788772598Z,-2.24,-3.97,0.34,0.34,0.34,2.93,2.59,1.21,2.41,2.93,2.93,5.00,6.38,6.55,,,,,,,,,,,,,,
1799999991798287346,2027-01-15T07:59:51.798287346Z,-1.72,-2.76,0.34,0.00,0.52,0.52,3.28,2.24,1.55,3.10,3.79,6.03,5.69,6.38,,,,,,,,,,,,,,
1799999991807802094,2027-01-15T07:59:51.807802094Z,1.03,0.17,0.86,-0.17,1.21,1.55,3.10,3.28,2.07,3.97,3.97,5.34,3.62,6.21,,,,,,,,,,,,,,
1799999991817316842,2027-01-15T07:59:51.817316842Z,-1.03,0.17,0.00,-0.69,1.55,2.24,3.10,2.76,3.45,4.66,5.00,4.48,3.79,6.55,,,,,,,,,,,,,,
1799999991826831589,2027-01-15T07:59:51.826831589Z,-1.72,-0.34,-1.55,-0.34,3.10,3.45,3.79,1.55,6.38,5.69,5.52,3.45,4.31,6.72,,,,,,,,,,,,,,
1799999991836346337,2027-01-15T07:59:51.836346337Z,-1.55,-0.69,-0.34,2.07,3.10,3.10,2.24,1.90,5.52,5.69,3.45,4.31,3.45,5.69,,,,,,,,,,,,,,
1799999991845861085,2027-01-15T07:59:51.845861085Z,-1.90,-2.24,0.69,1.38,0.86,2.59,2.07,2.93,3.28,5.17,4.48,3.62,5.17,5.69,,,,,,,,,,,,,,
1799999991855375833,2027-01-15T07:59:51.855375833Z,-1.90,-1.21,0.17,1.03,0.17,1.90,2.24,3.62,2.59,5.00,5.52,3.97,5.86,6.03,,,,,,,,,,,,,,
1799999991864890581,2027-01-15T07:59:51.864890581Z,0.34,0.69,-0.52,2.41,0.00,1.90,2.76,3.45,2.41,4.66,4.83,5.34,4.14,5.86,,,,,,,,,,,,,,
1799999991874405329,2027-01-15T07:59:51.874405329Z,-0.86,-0.17,0.52,0.34,-0.86,3.10,1.55,2.41,3.79,4.14,5.69,4.83,4.48,6.03,,,,,,,,,,,,,,
1799999991883920077,2027-01-15T07:59:51.883920077Z,-2.76,-1.55,1.21,-1.21,1.03,2.41,1.72,2.24,2.59,3.79,5.34,5.52,3.62,5.34,,,,,,,,,,,,,,
1799999991893434824,2027-01-15T07:59:51.893434824Z,-2.07,-1.03,0.52,1.21,0.69,1.38,1.55,2.76,3.10,5.17,4.31,4.83,2.59,6.72,,,,,,,,,,,,,,
1799999991902949572,2027-01-15T07:59:51.902949572Z,-0.34,0.00,-0.17,0.86,-0.17,0.52,1.21,3.28,3.45,5.69,4.66,4.31,2.59,7.07,,,,,,,,,,,,,,
1799999991912464320,2027-01-15T07:59:51.912464320Z,-0.69,1.03,-1.38,-0.69,0.17,0.17,0.52,3.28,1.72,4.48,5.17,4.83,3.79,7.41,,,,,,,,,,,,,,
1799999991921979068,2027-01-15T07:59:51.921979068Z,0.00,0.17,-0.34,0.00,-0.69,1.21,1.21,2.07,2.24,3.62,4.66,4.66,3.97,7.07,,,,,,,,,,,,,,
1799999991931493816,2027-01-15T07:59:51.931493816Z,0.52,-1.03,-2.07,1.38,0.69,2.76,1.72,1.72,3.79,3.45,3.79,4.48,3.62,5.52,,,,,,,,,,,,,,
1799999991941008564,2027-01-15T07:59:51.941008564Z,-0.17,-0.34,-3.10,1.55,1.38,3.28,1.90,1.55,5.00,4.14,3.62,4.48,4.31,4.66,,,,,,,,,,,,,,
1799999991950523312,2027-01-15T07:59:51.950523312Z,-2.07,-0.52,-0.86,0.00,0.17,2.24,1.38,3.28,5.34,4.31,4.31,3.45,6.03,5.52,,,,,,,,,,,,,,
1799999991960038059,2027-01-15T07:59:51.960038059Z,-2.93,-2.41,-0.69,-1.38,-0.86,-1.55,0.86,3.79,3.45,3.28,4.48,4.14,5.86,4.48,,,,,,,,,,,,,,
1799999991969552807,2027-01-15T07:59:51.969552807Z,-2.93,-1.21,-1.72,-2.24,-0.69,-1.38,1.21,0.69,2.59,2.93,3.28,5.00,5.17,5.00,,,,,,,,,,,,,,
1799999991979067555,2027-01-15T07:59:51.979067555Z,-3.79,-0.17,-0.34,-0.52,1.38,0.86,1.03,1.72,3.97,4.48,4.14,3.10,6.21,6.72,,,,,,,,,,,,,,
1799999991988582303,2027-01-15T07:59:51.988582303Z,-4.31,-1.38,0.34,0.17,2.76,2.76,0.86,3.79,3.45,5.00,3.10,3.45,5.00,6.55,,,,,,,,,,,,,,
1799999991998097051,2027-01-15T07:59:51.998097051Z,-0.17,-2.59,-1.38,-1.21,4.14,3.62,1.90,2.76,3.10,5.17,1.55,4.66,5.69,5.52,,,,,,,,,,,,,,
1799999992007611799,2027-01-15T07:59:52.007611799Z,0.86,-1.72,-2.24,-0.17,2.41,2.07,3.10,2.93,5.00,5.86,4.31,4.83,10.00,5.34,,,,,,,,,,,,,,
1799999992017126547,2027-01-15T07:59:52.017126547Z,0.69,-0.34,-1.55,0.34,0.34,0.86,3.10,1.72,3.45,6.21,5.69,6.55,8.10,5.00,,,,,,,,,,,,,,
1799999992026641295,2027-01-15T07:59:52.026641295Z,-2.24,-0.34,-1.03,-0.34,-0.52,0.52,2.41,2.76,2.07,5.69,5.17,6.21,5.34,4.83,,,,,,,,,,,,,,
1799999992036156042,2027-01-15T07:59:52.036156042Z,-2.93,-0.34,-0.86,-0.52,-0.17,0.00,0.69,4.14,1.38,3.97,4.14,4.83,4.83,6.55,,,,,,,,,,,,,,
1799999992045670790,2027-01-15T07:59:52.045670790Z,-2.76,0.69,-0.17,0.34,2.24,0.17,0.69,3.28,1.72,3.28,3.62,4.66,3.45,7.93,,,,,,,,,,,,,,
1799999992055185538,2027-01-15T07:59:52.055185538Z,-0.52,0.52,0.34,1.90,3.28,1.03,1.03,2.24,3.10,2.93,5.69,4.48,3.79,6.72,,,,,,,,,,,,,,
1799999992064700286,2027-01-15T07:59:52.064700286Z,-1.21,-0.52,-0.69,1.55,0.69,1.90,0.52,3.62,4.83,5.17,5.69,5.52,6.38,5.69,,,,,,,,,,,,,,
1799999992074215034,2027-01-15T07:59:52.074215034Z,-0.17,-0.69,-0.86,1.38,-0.52,1.21,1.21,3.79,4.66,6.21,4.83,5.69,6.38,6.03,,,,,,,,,,,,,,
1799999992083729782,2027-01-15T07:59:52.083729782Z,-0.86,0.34,-1.90,0.69,-0.52,0.69,2.41,3.45,3.28,5.86,3.45,4.66,6.38,6.21,,,,,,,,,,,,,,
1799999992093244530,2027-01-15T07:59:52.093244530Z,1.90,2.07,-2.07,0.52,0.17,2.59,1.72,1.72,2.76,3.79,3.45,3.79,8.62,6.55,,,,,,,,,,,,,,
1799999992102759277,2027-01-15T07:59:52.102759277Z,1.38,0.52,0.00,1.55,1.03,3.79,1.90,2.24,3.10,3.10,3.79,4.83,9.31,6.72,,,,,,,,,,,,,,
1799999992112274025,2027-01-15T07:59:52.112274025Z,1.03,-0.69,0.00,0.86,0.52,2.07,2.24,2.41,2.76,4.48,3.45,6.55,7.76,5.86,,,,,,,,,,,,,,
1799999992121788773,2027-01-15T07:59:52.121788773Z,-0.69,-0.52,-0.34,0.34,1.38,2.24,3.28,2.07,2.76,3.97,3.62,6.03,5.52,6.21,,,,,,,,,,,,,,
1799999992131303521,2027-01-15T07:59:52.131303521Z,1.72,-0.17,-0.52,0.00,3.97,5.00,3.62,2.24,3.28,2.07,3.62,4.14,2.59,6.03,,,,,,,,,,,,,,
1799999992140818269,2027-01-15T07:59:52.140818269Z,-1.55,-0.69,-0.69,0.86,3.79,4.83,1.72,1.72,3.62,1.72,2.59,4.14,4.66,4.31,,,,,,,,,,,,,,
1799999992150333017,2027-01-15T07:59:52.150333017Z,0.86,0.00,0.00,0.86,2.76,2.93,2.59,2.93,4.48,3.28,2.93,5.52,7.59,5.00,,,,,,,,,,,,,,
1799999992159847765,2027-01-15T07:59:52.159847765Z,-0.52,0.00,0.52,0.17,2.24,2.76,3.79,3.45,5.00,3.79,3.97,6.03,5.86,5.86,,,,,,,,,,,,,,
1799999992169362512,2027-01-15T07:59:52.169362512Z,-4.83,-0.86,1.21,-0.17,1.72,1.55,3.10,3.10,4.14,2.76,6.21,5.52,3.10,6.38,,,,,,,,,,,,,,
1799999992178877260,2027-01-15T07:59:52.178877260Z,-0.17,-1.03,0.34,1.21,2.76,0.86,4.66,1.72,2.76,2.59,6.03,5.17,4.66,6.55,,,,,,,,,,,,,,
1799999992188392008,2027-01-15T07:59:52.188392008Z,-0.34,-1.21,1.55,1.03,3.28,1.72,4.83,3.62,2.07,3.97,5.69,5.69,4.31,6.03,,,,,,,,,,,,,,
1799999992197906756,2027-01-15T07:59:52.197906756Z,0.17,1.38,2.07,2.24,2.07,2.24,3.28,3.45,2.24,3.79,5.86,6.03,6.21,7.07,,,,,,,,,,,,,,
1799999992207421504,2027-01-15T07:59:52.207421504Z,1.72,1.90,1.55,2.59,1.55,2.24,2.93,2.76,2.24,3.28,5.34,6.21,6.90,6.03,,,,,,,,,,,,,,
1799999992216936252,2027-01-15T07:59:52.216936252Z,-4.31,-1.21,1.55,2.59,2.24,2.93,1.21,4.31,2.93,2.76,3.62,5.52,6.72,4.31,,,,,,,,,,,,,,
1799999992226451000,2027-01-15T07:59:52.226451000Z,-2.59,-1.38,1.38,0.52,0.86,2.41,1.03,3.28,3.45,2.41,3.79,5.00,1.55,5.86,,,,,,,,,,,,,,
1799999992235965747,2027-01-15T07:59:52.235965747Z,-1.38,-0.86,1.55,1.21,-2.07,0.52,2.24,1.72,2.76,2.41,5.17,4.14,2.07,5.52,,,,,,,,,,,,,,
1799999992245480495,2027-01-15T07:59:52.245480495Z,-2.24,-1.38,0.17,0.17,-1.03,0.69,2.59,2.41,3.10,2.41,5.69,5.17,3.79,4.83,,,,,,,,,,,,,,
1799999992254995243,2027-01-15T07:59:52.254995243Z,-1.72,-0.69,-1.21,-0.17,1.55,1.90,3.79,3.10,3.97,3.45,4.83,6.38,4.66,5.52,,,,,,,,,,,,,,
1799999992264509991,2027-01-15T07:59:52.264509991Z,1.21,0.69,-0.17,1.21,0.52,0.34,4.48,1.55,2.07,5.69,4.31,5.17,4.48,6.55,,,,,,,,,,,,,,
1799999992274024739,2027-01-15T07:59:52.274024739Z,0.69,0.00,0.69,0.00,0.52,-0.86,3.97,0.86,-0.69,7.24,5.00,5.00,4.48,7.59,,,,,,,,,,,,,,
1799999992283539487,2027-01-15T07:59:52.283539487Z,0.17,-0.86,-0.34,0.00,0.34,0.86,2.24,2.41,1.55,6.38,5.34,5.34,4.48,4.83,,,,,,,,,,,,,,
1799999992293054235,2027-01-15T07:59:52.293054235Z,0.34,-0.86,0.86,0.52,0.17,2.93,1.38,2.93,2.93,5.17,5.17,5.17,4.66,3.97,,,,,,,,,,,,,,
1799999992302568982,2027-01-15T07:59:52.302568982Z,0.52,0.52,1.21,0.17,0.34,4.31,2.24,2.59,2.93,3.45,4.31,5.34,4.66,5.00,,,,,,,,,,,,,,
1799999992312083730,2027-01-15T07:59:52.312083730Z,-0.86,0.69,-1.38,1.03,0.17,3.10,2.24,3.45,2.07,2.59,3.62,5.34,4.31,7.24,,,,,,,,,,,,,,
1799999992321598478,2027-01-15T07:59:52.321598478Z,-1.21,-1.72,-0.69,-0.69,1.21,1.03,1.03,4.14,3.79,3.45,4.66,4.83,3.45,6.21,,,,,,,,,,,,,,
1799999992331113226,2027-01-15T07:59:52.331113226Z,-3.28,-1.72,0.86,-1.03,1.21,1.21,1.03,2.59,4.14,3.28,3.45,4.48,3.62,7.07,,,,,,,,,,,,,,
1799999992340627974,2027-01-15T07:59:52.340627974Z,-2.41,1.21,1.72,1.38,-0.52,1.03,0.52,1.55,3.28,3.79,2.24,4.83,5.34,8.28,,,,,,,,,,,,,,
1799999992350142722,2027-01-15T07:59:52.350142722Z,0.17,1.72,0.34,4.31,-1.03,-0.86,1.03,3.10,2.07,5.34,3.62,5.52,5.69,5.34,,,,,,,,,,,,,,
1799999992359657470,2027-01-15T07:59:52.359657470Z,-0.86,-2.41,-1.55,2.93,0.34,0.34,2.93,3.79,3.62,5.69,3.28,4.83,4.14,4.31,,,,,,,,,,,,,,
1799999992369172217,2027-01-15T07:59:52.369172217Z,0.52,-1.38,-1.21,1.03,0.34,1.90,2.24,1.03,2.59,6.03,3.79,3.79,4.14,7.24,,,,,,,,,,,,,,
1799999992378686965,2027-01-15T07:59:52.378686965Z,0.69,0.86,-0.34,0.52,0.00,2.59,2.41,0.17,1.90,5.69,3.97,4.31,4.31,6.72,,,,,,,,,,,,,,
1799999992388201713,2027-01-15T07:59:52.388201713Z,-3.10,1.03,-1.21,-1.38,-0.17,3.97,3.28,0.00,3.79,3.28,5.00,6.03,3.79,5.00,,,,,,,,,,,,,,
1799999992397716461,2027-01-15T07:59:52.397716461Z,-1.72,0.00,-0.86,-3.10,1.72,3.79,1.38,-0.69,3.97,2.07,6.55,6.03,4.83,5.86,,,,,,,,,,,,,,
1799999992407231209,2027-01-15T07:59:52.407231209Z,-1.90,-0.52,0.69,-1.03,1.90,2.41,0.52,1.55,3.62,3.79,5.00,5.17,4.83,4.66,,,,,,,,,,,,,,
1799999992416745957,2027-01-15T07:59:52.416745957Z,0.00,-1.72,0.69,0.86,1.03,3.79,1.55,2.76,3.97,4.31,4.48,5.52,4.66,5.52,,,,,,,,,,,,,,
1799999992426260705,2027-01-15T07:59:52.426260705Z,1.90,-2.07,0.52,0.17,1.90,2.41,1.38,2.59,3.28,4.31,4.66,5.34,5.52,6.21,,,,,,,,,,,,,,
1799999992435775452,2027-01-15T07:59:52.435775452Z,-1.21,-1.55,0.69,-1.55,3.10,0.00,0.52,4.14,2.24,4.48,4.31,3.79,7.24,7.59,,,,,,,,,,,,,,
1799999992445290200,2027-01-15T07:59:52.445290200Z,0.00,-1.38,-0.86,-0.69,1.38,2.07,1.03,5.69,2.59,5.52,4.14,3.79,5.86,6.55,,,,,,,,,,,,,,
1799999992454804948,2027-01-15T07:59:52.454804948Z,0.52,-1.21,-1.90,-1.21,-0.34,2.07,0.52,3.79,3.97,3.62,3.28,3.45,7.24,6.72,,,,,,,,,,,,,,
1799999992464319696,2027-01-15T07:59:52.464319696Z,-2.07,-1.55,-1.90,-0.69,1.03,1.21,0.52,3.45,4.14,2.41,3.28,4.14,8.62,6.21,,,,,,,,,,,,,,
1799999992473834444,2027-01-15T07:59:52.473834444Z,-1.72,-2.24,-1.72,0.34,3.28,0.52,2.07,5.86,3.62,1.55,5.69,5.00,9.14,4.66,,,,,,,,,,,,,,
1799999992483349192,2027-01-15T07:59:52.483349192Z,-2.76,0.34,0.00,-0.17,2.24,0.17,1.72,6.21,2.59,2.24,5.69,4.14,5.52,6.03,,,,,,,,,,,,,,
1799999992492863940,2027-01-15T07:59:52.492863940Z,-1.90,2.59,0.34,0.34,2.59,0.86,1.21,4.48,2.07,2.41,4.31,4.48,4.31,8.97,,,,,,,,,,,,,,
1799999992502378687,2027-01-15T07:59:52.502378687Z,1.38,0.69,-1.72,1.03,2.24,1.21,2.07,5.00,2.93,2.07,3.62,5.69,5.17,8.97,,,,,,,,,,,,,,
1799999992511893435,2027-01-15T07:59:52.511893435Z,1.72,0.52,-2.07,1.03,1.55,0.86,1.38,4.66,2.93,2.59,3.45,5.86,5.00,7.93,,,,,,,,,,,,,,
1799999992521408183,2027-01-15T07:59:52.521408183Z,1.21,2.07,-0.17,2.24,0.69,0.86,0.34,3.10,2.41,3.28,4.14,5.52,6.72,6.90,,,,,,,,,,,,,,
1799999992530922931,2027-01-15T07:59:52.530922931Z,2.07,1.03,0.00,1.38,0.86,1.55,1.38,2.59,3.62,2.07,5.17,5.52,10.34,5.86,,,,,,,,,,,,,,
1799999992540437679,2027-01-15T07:59:52.540437679Z,1.03,1.03,0.86,-1.03,1.38,2.59,1.55,1.90,3.97,2.07,4.48,5.69,7.59,6.38,,,,,,,,,,,,,,
1799999992549952427,2027-01-15T07:59:52.549952427Z,0.52,-1.03,1.03,-1.03,1.72,2.07,1.55,2.41,3.79,2.76,5.34,5.17,5.17,6.90,,,,,,,,,,,,,,
1799999992559467175,2027-01-15T07:59:52.559467175Z,0.52,-2.76,-0.86,0.69,1.21,1.90,3.28,2.59,4.83,3.97,6.90,4.48,5.52,6.38,,,,,,,,,,,,,,
1799999992568981922,2027-01-15T07:59:52.568981922Z,0.00,-1.03,-0.17,0.86,0.17,2.59,2.93,1.90,5.69,4.14,5.00,5.00,4.83,6.72,,,,,,,,,,,,,,
1799999992578496670,2027-01-15T07:59:52.578496670Z,-2.07,0.52,1.55,0.52,0.52,0.69,1.72,2.93,5.34,3.97,2.93,5.00,4.66,5.34,,,,,,,,,,,,,,
1799999992588011418,2027-01-15T07:59:52.588011418Z,-2.93,0.52,1.72,-1.03,0.34,1.03,1.55,2.76,3.28,2.93,2.41,4.66,5.00,3.28,,,,,,,,,,,,,,
1799999992597526166,2027-01-15T07:59:52.597526166Z,-2.07,1.21,1.90,-1.38,0.69,0.69,2.41,2.24,2.59,4.14,2.41,4.66,5.86,3.28,,,,,,,,,,,,,,
1799999992607040914,2027-01-15T07:59:52.607040914Z,0.52,0.17,1.90,0.17,0.86,-0.69,3.10,2.59,4.31,5.17,3.62,4.31,7.59,5.17,,,,,,,,,,,,,,
1799999992616555662,2027-01-15T07:59:52.616555662Z,-0.52,-1.03,0.69,1.55,0.17,0.86,1.90,2.07,4.31,2.93,4.66,3.79,6.72,7.59,,,,,,,,,,,,,,
1799999992626070410,2027-01-15T07:59:52.626070410Z,-1.72,0.69,0.86,1.38,0.86,2.07,2.07,4.31,3.10,2.24,3.28,3.62,4.14,6.90,,,,,,,,,,,,,,
1799999992635585157,2027-01-15T07:59:52.635585157Z,-1.21,0.69,0.86,1.55,1.55,3.28,2.59,5.00,2.76,2.07,2.93,4.14,4.14,6.38,,,,,,,,,,,,,,
1799999992645099905,2027-01-15T07:59:52.645099905Z,-0.34,-1.55,0.52,1.72,1.72,3.97,2.24,2.41,3.62,2.24,3.97,4.83,5.34,6.03,,,,,,,,,,,,,,
1799999992654614653,2027-01-15T07:59:52.654614653Z,-0.17,-2.76,0.69,1.38,1.90,2.07,2.24,0.86,3.97,3.28,3.28,4.48,4.66,6.03,,,,,,,,,,,,,,
1799999992664129401,2027-01-15T07:59:52.664129401Z,-0.17,-2.59,-0.52,1.55,0.52,1.38,1.90,0.69,4.66,3.97,2.93,3.97,5.69,5.69,,,,,,,,,,,,,,
1799999992673644149,2027-01-15T07:59:52.673644149Z,0.17,-1.03,-0.52,0.52,0.00,1.21,1.55,2.07,3.97,5.00,3.62,5.17,6.55,6.21,,,,,,,,,,,,,,
1799999992683158897,2027-01-15T07:59:52.683158897Z,0.52,-0.86,-0.34,0.17,0.17,1.55,1.21,2.41,3.62,5.00,3.62,5.86,6.03,5.86,,,,,,,,,,,,,,
1799999992692673645,2027-01-15T07:59:52.692673645Z,-0.17,-2.07,-1.55,0.34,2.24,1.72,1.72,1.03,2.93,5.69,3.62,5.86,5.00,4.83,,,,,,,,,,,,,,
1799999992702188393,2027-01-15T07:59:52.702188393Z,-0.52,-1.55,-1.72,1.72,2.59,0.86,2.24,0.86,3.62,6.38,4.31,5.34,5.00,4.83,,,,,,,,,,,,,,
1799999992711703140,2027-01-15T07:59:52.711703140Z,-0.86,-0.34,-0.69,2.76,1.38,0.34,2.24,2.41,3.79,4.48,4.83,5.86,2.93,5.17,,,,,,,,,,,,,,
1799999992721217888,2027-01-15T07:59:52.721217888Z,-0.52,-2.07,-1.21,1.90,-0.86,1.90,1.90,3.62,2.59,4.66,3.79,5.34,3.10,4.83,,,,,,,,,,,,,,
1799999992730732636,2027-01-15T07:59:52.730732636Z,-2.07,-2.76,-1.55,1.21,-1.72,2.07,1.38,3.10,2.24,4.31,3.97,5.00,3.79,4.83,,,,,,,,,,,,,,
1799999992740247384,2027-01-15T07:59:52.740247384Z,-0.69,-0.52,-0.69,1.03,-1.21,0.86,0.34,1.90,3.28,2.24,5.00,5.17,4.14,5.69,,,,,,,,,,,,,,
1799999992749762132,2027-01-15T07:59:52.749762132Z,0.34,0.69,-0.52,0.69,-1.03,-1.03,2.24,1.21,2.93,3.62,4.14,3.28,4.83,6.03,,,,,,,,,,,,,,
1799999992759276880,2027-01-15T07:59:52.759276880Z,-0.52,-0.17,-1.21,-0.86,-1.21,0.17,2.76,1.21,3.10,4.14,3.45,5.34,4.66,6.21,,,,,,,,,,,,,,
1799999992768791628,2027-01-15T07:59:52.768791628Z,-0.52,-1.90,-2.07,0.17,-1.21,1.03,2.07,2.24,4.14,3.97,4.14,6.55,4.66,5.52,,,,,,,,,,,,,,
1799999992778306375,2027-01-15T07:59:52.778306375Z,-1.03,-2.93,-2.24,2.07,-0.34,1.21,2.24,2.41,5.52,3.62,5.17,4.14,3.10,5.34,,,,,,,,,,,,,,
1799999992787821123,2027-01-15T07:59:52.787821123Z,-0.69,-1.21,-1.72,1.21,0.34,1.03,3.97,0.52,4.66,6.38,3.97,4.31,3.28,7.41,,,,,,,,,,,,,,
1799999992797335871,2027-01-15T07:59:52.797335871Z,-1.55,0.17,-1.72,1.03,0.00,1.03,4.14,1.72,3.10,5.86,2.59,6.38,3.79,8.10,,,,,,,,,,,,,,
1799999992806850619,2027-01-15T07:59:52.806850619Z,0.69,-0.52,0.17,0.69,0.34,2.76,2.41,3.45,2.93,2.93,3.45,5.86,3.62,5.34,,,,,,,,,,,,,,
1799999992816365367,2027-01-15T07:59:52.816365367Z,0.00,-1.21,1.21,0.52,0.00,3.79,2.24,3.28,3.45,3.62,3.97,5.34,4.14,5.00,,,,,,,,,,,,,,
1799999992825880115,2027-01-15T07:59:52.825880115Z,0.34,-2.59,0.34,-0.17,0.52,4.66,3.45,2.07,4.31,4.83,3.97,5.52,5.17,6.38,,,,,,,,,,,,,,
1799999992835394863,2027-01-15T07:59:52.835394863Z,0.00,-2.76,-0.69,-0.69,1.90,2.76,4.48,1.03,4.14,1.90,4.48,4.48,4.48,5.34,,,,,,,,,,,,,,
1799999992844909610,2027-01-15T07:59:52.844909610Z,-0.52,-0.52,-2.93,0.00,0.34,2.59,4.83,2.07,4.48,1.90,4.66,3.45,6.55,4.83,,,,,,,,,,,,,,
1799999992854424358,2027-01-15T07:59:52.854424358Z,-1.38,0.86,-2.41,0.86,0.34,2.76,4.14,2.59,3.45,2.93,4.66,3.97,7.24,5.52,,,,,,,,,,,,,,
1799999992863939106,2027-01-15T07:59:52.863939106Z,-0.86,3.28,-1.03,0.86,1.72,0.52,2.93,4.31,1.38,4.83,3.45,5.00,4.31,6.72,,,,,,,,,,,,,,
1799999992873453854,2027-01-15T07:59:52.873453854Z,-1.03,3.10,-1.90,0.00,0.52,1.03,2.93,3.97,2.24,3.79,3.45,4.48,4.31,7.24,,,,,,,,,,,,,,
1799999992882968602,2027-01-15T07:59:52.882968602Z,-1.03,1.55,-1.55,-0.17,1.55,4.14,3.28,3.62,3.28,3.62,4.66,5.17,6.03,6.72,,,,,,,,,,,,,,
1799999992892483350,2027-01-15T07:59:52.892483350Z,-0.52,0.69,0.17,1.03,1.55,3.10,3.79,3.62,1.55,3.97,5.00,5.69,5.69,7.07,,,,,,,,,,,,,,
1799999992901998098,2027-01-15T07:59:52.901998098Z,-0.52,-0.34,0.52,1.38,1.38,1.72,2.93,3.10,1.55,5.17,4.31,4.48,5.69,5.86,,,,,,,,,,,,,,
1799999992911512845,2027-01-15T07:59:52.911512845Z,-0.69,-1.72,-0.34,0.86,0.69,0.86,1.38,2.76,2.93,7.59,4.83,3.10,6.21,4.14,,,,,,,,,,,,,,
1799999992921027593,2027-01-15T07:59:52.921027593Z,-0.34,-1.03,-0.52,1.38,-0.17,0.52,1.90,3.79,2.07,7.24,5.86,5.69,5.34,4.83,,,,,,,,,,,,,,
1799999992930542341,2027-01-15T07:59:52.930542341Z,0.00,-1.55,0.00,1.72,-0.17,1.21,2.76,3.97,2.07,4.31,5.00,5.17,5.86,5.69,,,,,,,,,,,,,,
1799999992940057089,2027-01-15T07:59:52.940057089Z,-1.55,-2.24,2.07,1.38,0.17,1.21,3.28,4.48,2.24,3.62,4.66,4.48,5.69,6.03,,,,,,,,,,,,,,
1799999992949571837,2027-01-15T07:59:52.949571837Z,-2.24,-1.21,4.14,1.03,0.69,0.00,3.10,5.34,1.21,3.79,5.34,6.21,5.17,6.55,,,,,,,,,,,,,,
1799999992959086585,2027-01-15T07:59:52.959086585Z,1.03,-0.52,2.24,0.86,0.17,0.86,0.17,4.48,1.21,2.93,6.21,7.41,4.83,7.59,,,,,,,,,,,,,,
1799999992968601333,2027-01-15T07:59:52.968601333Z,1.03,-0.17,0.34,0.52,0.86,2.76,-1.72,4.66,2.93,3.79,4.31,6.72,3.79,7.24,,,,,,,,,,,,,,
1799999992978116080,2027-01-15T07:59:52.978116080Z,-2.24,-0.86,-0.69,0.52,2.07,2.41,0.17,3.62,2.93,3.28,5.17,5.34,3.45,6.90,,,,,,,,,,,,,,
1799999992987630828,2027-01-15T07:59:52.987630828Z,-2.24,-0.52,-0.34,-0.17,2.07,2.93,1.38,2.93,2.24,3.79,5.52,5.17,4.31,6.21,,,,,,,,,,,,,,
1799999992997145576,2027-01-15T07:59:52.997145576Z,0.00,0.86,1.21,0.17,1.55,3.97,1.55,3.10,2.24,6.03,2.93,6.03,5.17,4.48,,,,,,,,,,,,,,
1799999993006660324,2027-01-15T07:59:53.006660324Z,0.34,-0.17,1.55,0.69,1.38,2.07,1.90,4.83,1.55,5.52,2.76,5.69,5.69,4.66,,,,,,,,,,,,,,
1799999993016175072,2027-01-15T07:59:53.016175072Z,0.00,-0.86,0.34,-1.72,1.72,1.72,1.90,4.66,2.24,3.45,3.97,4.83,4.48,6.03,,,,,,,,,,,,,,
1799999993025689820,2027-01-15T07:59:53.025689820Z,1.03,1.72,0.86,-1.55,1.03,0.17,2.41,3.45,3.10,3.79,4.31,4.31,5.34,7.41,,,,,,,,,,,,,,
1799999993035204568,2027-01-15T07:59:53.035204568Z,-0.17,1.38,1.72,-1.03,0.52,0.00,3.28,3.62,2.07,3.97,4.48,4.48,5.69,7.93,,,,,,,,,,,,,,
1799999993044719315,2027-01-15T07:59:53.044719315Z,-0.34,-1.90,1.38,-0.69,0.86,3.45,3.45,3.97,1.21,2.07,5.00,3.45,5.17,7.41,,,,,,,,,,,,,,
1799999993054234063,2027-01-15T07:59:53.054234063Z,-0.86,-2.07,-0.17,-0.34,1.38,3.79,0.69,2.24,3.97,1.03,4.14,2.76,6.72,6.38,,,,,,,,,,,,,,
1799999993063748811,2027-01-15T07:59:53.063748811Z,-2.76,-1.21,-0.69,2.07,2.93,3.28,1.72,1.21,3.10,2.24,3.79,4.66,5.34,5.69,,,,,,,,,,,,,,
1799999993073263559,2027-01-15T07:59:53.073263559Z,-0.86,0.52,-0.52,1.90,3.62,3.28,2.07,1.72,2.24,2.93,5.17,5.00,4.66,5.69,,,,,,,,,,,,,,
1799999993082778307,2027-01-15T07:59:53.082778307Z,-1.21,2.24,-1.03,1.72,2.76,1.55,-1.03,3.28,3.45,3.79,6.90,4.66,7.07,5.00,,,,,,,,,,,,,,
1799999993092293055,2027-01-15T07:59:53.092293055Z,-3.79,1.03,-1.21,2.76,-0.17,-1.55,-1.03,3.79,5.17,3.97,6.03,6.21,8.45,4.83,,,,,,,,,,,,,,
1799999993101807803,2027-01-15T07:59:53.101807803Z,-1.55,-0.69,-0.52,1.03,0.69,0.34,1.55,3.62,3.79,5.17,4.31,5.34,6.38,6.55,,,,,,,,,,,,,,
1799999993111322550,2027-01-15T07:59:53.111322550Z,-1.03,-0.52,-0.86,0.69,1.55,0.34,0.86,2.41,2.59,6.03,4.83,3.97,6.38,7.93,,,,,,,,,,,,,,
1799999993120837298,2027-01-15T07:59:53.120837298Z,-1.55,-2.41,0.34,-0.69,0.69,-0.17,1.03,2.07,2.07,5.52,4.66,4.14,6.55,7.24,,,,,,,,,,,,,,
1799999993130352046,2027-01-15T07:59:53.130352046Z,-2.41,-3.79,2.41,-2.24,-0.86,2.24,2.93,1.90,1.55,4.31,3.97,4.48,5.34,5.86,,,,,,,,,,,,,,
1799999993139866794,2027-01-15T07:59:53.139866794Z,1.72,-0.69,2.24,0.52,2.41,3.10,2.76,1.72,3.45,3.62,5.86,4.48,6.55,5.69,,,,,,,,,,,,,,
1799999993149381542,2027-01-15T07:59:53.149381542Z,1.03,0.17,1.03,2.24,2.24,1.55,2.41,2.41,6.38,3.45,4.66,5.69,6.72,6.38,,,,,,,,,,,,,,
1799999993158896290,2027-01-15T07:59:53.158896290Z,-0.86,0.34,1.03,1.72,2.24,0.52,2.07,3.10,5.34,3.62,3.79,5.69,5.69,6.21,,,,,,,,,,,,,,
1799999993168411038,2027-01-15T07:59:53.168411038Z,-0.17,0.86,0.17,0.34,4.31,-1.38,1.38,2.93,2.93,3.79,3.62,4.48,4.66,5.17,,,,,,,,,,,,,,
1799999993177925785,2027-01-15T07:59:53.177925785Z,-1.38,0.34,0.69,-0.52,4.14,-2.07,2.41,2.24,4.14,3.10,3.62,4.48,4.14,4.83,,,,,,,,,,,,,,
1799999993187440533,2027-01-15T07:59:53.187440533Z,-1.72,0.52,2.93,-0.52,2.41,0.52,3.10,1.90,5.00,3.10,2.41,5.17,3.62,5.00,,,,,,,,,,,,,,
1799999993196955281,2027-01-15T07:59:53.196955281Z,-3.10,-2.07,1.03,-0.52,2.07,2.07,2.76,3.10,3.10,3.79,1.55,5.69,5.34,4.31,,,,,,,,,,,,,,
1799999993206470029,2027-01-15T07:59:53.206470029Z,-2.07,-3.28,-1.21,0.00,2.76,1.55,3.10,4.31,3.45,4.31,1.72,5.52,6.21,5.00,,,,,,,,,,,,,,
1799999993215984777,2027-01-15T07:59:53.215984777Z,-4.14,-1.72,-2.76,0.69,3.62,0.17,3.28,3.79,6.72,4.66,1.90,5.52,4.66,5.34,,,,,,,,,,,,,,
1799999993225499525,2027-01-15T07:59:53.225499525Z,-2.59,-2.24,0.00,0.69,2.07,1.55,2.07,3.10,7.41,4.66,3.45,4.83,3.28,3.62,,,,,,,,,,,,,,
1799999993235014273,2027-01-15T07:59:53.235014273Z,-2.07,-4.83,0.00,0.17,0.69,-0.69,2.07,5.00,4.48,4.48,3.62,4.83,6.38,5.69,,,,,,,,,,,,,,
1799999993244529020,2027-01-15T07:59:53.244529020Z,-1.38,-4.66,-0.86,-0.69,1.21,-1.72,2.41,5.34,2.59,4.48,3.28,5.17,6.90,7.24,,,,,,,,,,,,,,
1799999993254043768,2027-01-15T07:59:53.254043768Z,-1.90,-2.76,-1.21,-1.03,2.41,0.17,1.72,3.10,2.24,3.28,2.41,5.00,6.55,8.28,,,,,,,,,,,,,,
1799999993263558516,2027-01-15T07:59:53.263558516Z,-2.24,-2.93,-0.86,0.52,1.90,2.24,1.90,1.38,3.97,2.41,3.45,5.00,4.83,6.90,,,,,,,,,,,,,,
1799999993273073264,2027-01-15T07:59:53.273073264Z,-2.93,-1.72,0.52,1.55,2.07,2.24,2.93,2.41,4.14,3.28,3.97,5.52,6.03,5.17,,,,,,,,,,,,,,
1799999993282588012,2027-01-15T07:59:53.282588012Z,-0.17,0.69,1.55,1.21,1.72,1.21,1.72,3.62,1.21,3.45,3.28,4.66,5.52,5.34,,,,,,,,,,,,,,
1799999993292102760,2027-01-15T07:59:53.292102760Z,-0.17,1.21,1.72,1.38,1.90,1.21,1.90,3.10,0.52,4.31,4.31,4.48,5.17,5.86,,,,,,,,,,,,,,
1799999993301617508,2027-01-15T07:59:53.301617508Z,0.69,0.69,1.90,0.52,1.90,-0.34,4.14,1.55,2.59,6.21,6.03,4.31,6.03,5.00,,,,,,,,,,,,,,
1799999993311132255,2027-01-15T07:59:53.311132255Z,2.07,1.38,3.10,-0.69,1.21,-1.55,3.79,2.07,2.24,5.34,5.52,4.83,4.66,4.66,,,,,,,,,,,,,,
1799999993320647003,2027-01-15T07:59:53.320647003Z,1.90,1.21,3.45,-0.17,1.90,-0.52,2.07,2.76,2.24,3.45,4.31,5.00,4.83,5.69,,,,,,,,,,,,,,
1799999993330161751,2027-01-15T07:59:53.330161751Z,1.38,0.86,-0.17,1.21,2.07,1.55,0.86,3.28,2.76,2.93,4.83,5.00,8.10,7.07,,,,,,,,,,,,,,
1799999993339676499,2027-01-15T07:59:53.339676499Z,2.93,2.07,-2.24,2.07,1.90,2.59,1.03,2.76,2.07,3.28,5.34,5.34,6.38,6.38,,,,,,,,,,,,,,
1799999993349191247,2027-01-15T07:59:53.349191247Z,1.03,1.03,-2.59,1.38,2.59,3.45,1.38,1.55,1.72,3.45,4.66,5.69,3.62,5.86,,,,,,,,,,,,,,
1799999993358705995,2027-01-15T07:59:53.358705995Z,0.69,-3.28,-2.59,-0.52,2.24,2.93,1.21,1.38,3.10,3.62,2.07,4.31,6.03,7.76,,,,,,,,,,,,,,
1799999993368220743,2027-01-15T07:59:53.368220743Z,-0.69,-2.07,-3.97,-1.03,1.55,3.79,2.76,2.07,3.62,3.10,3.45,4.31,6.03,7.59,,,,,,,,,,,,,,
1799999993377735491,2027-01-15T07:59:53.377735491Z,-0.86,-0.52,-2.76,-1.55,0.00,2.93,3.97,2.24,3.62,3.10,4.83,4.83,5.52,6.38,,,,,,,,,,,,,,
1799999993387250238,2027-01-15T07:59:53.387250238Z,-3.45,-1.90,-0.86,-2.59,-1.38,2.07,4.31,2.59,5.34,3.28,3.62,4.83,4.66,4.48,,,,,,,,,,,,,,
1799999993396764986,2027-01-15T07:59:53.396764986Z,-2.41,-0.34,-0.69,-0.17,-0.86,3.28,2.24,3.45,7.24,4.14,3.45,4.31,5.00,4.14,,,,,,,,,,,,,,
1799999993406279734,2027-01-15T07:59:53.406279734Z,0.34,1.38,0.52,1.90,-1.03,2.76,0.34,2.76,6.03,4.14,4.31,5.17,7.07,6.03,,,,,,,,,,,,,,
1799999993415794482,2027-01-15T07:59:53.415794482Z,-0.34,-0.34,-0.17,-0.52,-1.21,3.10,1.21,1.03,3.62,3.97,3.97,4.66,6.90,7.41,,,,,,,,,,,,,,
1799999993425309230,2027-01-15T07:59:53.425309230Z,0.86,0.34,-0.34,-0.17,-1.03,2.76,3.10,2.07,3.62,3.97,4.48,4.48,6.38,7.41,,,,,,,,,,,,,,
1799999993434823978,2027-01-15T07:59:53.434823978Z,1.21,2.41,0.17,1.55,-0.17,1.21,3.97,4.31,3.79,2.76,4.48,5.34,5.17,7.76,,,,,,,,,,,,,,
1799999993444338726,2027-01-15T07:59:53.444338726Z,4.14,2.59,-1.03,-0.17,-0.34,0.52,2.24,3.79,2.41,1.21,3.28,5.69,6.38,7.59,,,,,,,,,,,,,,
1799999993453853473,2027-01-15T07:59:53.453853473Z,1.72,2.07,-0.69,1.38,1.03,2.24,0.34,2.76,2.76,2.59,5.00,6.90,3.79,5.17,,,,,,,,,,,,,,
1799999993463368221,2027-01-15T07:59:53.463368221Z,1.21,0.86,-0.52,2.24,2.07,2.76,1.55,3.28,2.93,1.90,5.86,6.38,4.66,4.14,,,,,,,,,,,,,,
1799999993472882969,2027-01-15T07:59:53.472882969Z,3.10,-0.17,-1.21,0.52,2.07,1.03,3.62,3.28,2.76,1.03,3.45,4.48,6.90,5.17,,,,,,,,,,,,,,
1799999993482397717,2027-01-15T07:59:53.482397717Z,5.17,2.41,-1.03,0.17,1.21,0.69,2.76,1.55,3.97,3.28,2.93,5.17,4.31,6.03,,,,,,,,,,,,,,
1799999993491912465,2027-01-15T07:59:53.491912465Z,2.59,3.79,0.69,0.52,0.86,2.76,2.93,0.52,4.83,4.66,4.83,5.86,1.55,5.69,,,,,,,,,,,,,,
1799999993501427213,2027-01-15T07:59:53.501427213Z,1.90,2.93,0.52,1.72,1.72,3.97,2.76,0.69,3.79,3.45,6.21,6.03,5.34,6.38,,,,,,,,,,,,,,
1799999993510941961,2027-01-15T07:59:53.510941961Z,-1.03,3.10,-0.34,2.24,2.24,2.93,2.41,0.86,4.14,3.10,6.03,6.03,7.76,6.03,,,,,,,,,,,,,,
1799999993520456708,2027-01-15T07:59:53.520456708Z,-1.21,4.14,-2.24,2.24,1.72,0.86,2.93,2.07,4.48,4.31,5.34,5.00,4.66,4.31,,,,,,,,,,,,,,
1799999993529971456,2027-01-15T07:59:53.529971456Z,0.00,2.76,-3.79,2.59,-1.03,1.72,3.45,2.41,2.93,3.10,3.62,5.34,4.31,5.17,,,,,,,,,,,,,,
1799999993539486204,2027-01-15T07:59:53.539486204Z,0.00,0.52,-2.93,1.72,-0.69,0.34,2.41,1.03,3.45,2.59,3.62,5.17,4.31,7.76,,,,,,,,,,,,,,
1799999993549000952,2027-01-15T07:59:53.549000952Z,-0.69,0.17,-1.03,1.38,-0.34,1.90,1.55,0.00,3.45,3.10,3.97,4.66,3.97,7.59,,,,,,,,,,,,,,
1799999993558515700,2027-01-15T07:59:53.558515700Z,0.00,1.21,1.21,1.21,-1.03,5.17,0.86,-0.86,2.24,4.66,2.93,3.79,5.17,5.00,,,,,,,,,,,,,,
1799999993568030448,2027-01-15T07:59:53.568030448Z,-1.72,0.00,2.07,0.52,0.86,4.14,1.03,0.34,2.76,4.48,3.45,5.34,7.93,2.76,,,,,,,,,,,,,,
1799999993577545196,2027-01-15T07:59:53.577545196Z,-1.72,-0.34,0.86,0.52,1.90,1.38,0.34,2.24,2.24,3.79,3.10,4.83,7.41,2.59,,,,,,,,,,,,,,
1799999993587059943,2027-01-15T07:59:53.587059943Z,1.03,-0.17,0.17,1.55,0.69,1.90,1.38,3.62,1.72,3.62,3.28,3.97,7.07,5.52,,,,,,,,,,,,,,
1799999993596574691,2027-01-15T07:59:53.596574691Z,-0.86,-0.17,0.00,1.38,0.52,2.24,2.07,3.62,1.90,4.48,3.62,4.48,6.03,5.69,,,,,,,,,,,,,,
1799999993606089439,2027-01-15T07:59:53.606089439Z,-0.52,0.69,-0.34,1.03,0.00,2.07,1.90,2.24,1.55,6.38,4.83,5.17,3.97,4.14,,,,,,,,,,,,,,
1799999993615604187,2027-01-15T07:59:53.615604187Z,0.69,1.55,1.55,1.38,-0.52,4.48,2.93,0.17,1.21,6.21,5.17,3.97,4.31,5.52,,,,,,,,,,,,,,
1799999993625118935,2027-01-15T07:59:53.625118935Z,0.69,1.03,3.28,0.17,0.00,4.14,3.10,1.55,1.55,4.66,4.31,3.97,4.83,5.86,,,,,,,,,,,,,,
1799999993634633683,2027-01-15T07:59:53.634633683Z,-1.21,2.07,2.07,2.24,1.03,2.24,2.41,1.21,2.41,2.59,4.14,4.31,3.79,4.66,,,,,,,,,,,,,,
1799999993644148431,2027-01-15T07:59:53.644148431Z,-0.17,2.07,0.17,3.10,0.52,0.86,1.90,1.03,3.45,2.24,3.28,4.31,3.45,4.66,,,,,,,,,,,,,,
1799999993653663178,2027-01-15T07:59:53.653663178Z,-0.17,0.17,-0.69,2.41,-1.38,0.17,0.52,3.28,3.62,3.28,2.07,5.69,4.31,5.34,,,,,,,,,,,,,,
1799999993663177926,2027-01-15T07:59:53.663177926Z,-0.17,-0.34,0.86,2.76,-1.38,1.21,0.69,2.76,2.76,4.14,4.31,5.86,5.17,6.72,,,,,,,,,,,,,,
1799999993672692674,2027-01-15T07:59:53.672692674Z,-0.69,1.21,1.03,2.24,0.69,1.90,1.38,2.07,2.76,5.52,5.86,4.83,4.14,8.28,,,,,,,,,,,,,,
1799999993682207422,2027-01-15T07:59:53.682207422Z,0.00,1.38,0.34,1.38,0.52,1.72,1.03,1.90,2.76,5.34,5.69,5.69,3.28,7.59,,,,,,,,,,,,,,
1799999993691722170,2027-01-15T07:59:53.691722170Z,-1.90,1.21,-0.52,2.59,-0.34,1.38,1.03,2.07,2.07,4.83,5.00,6.55,3.97,5.69,,,,,,,,,,,,,,
1799999993701236918,2027-01-15T07:59:53.701236918Z,-1.21,-0.17,1.55,3.79,1.38,1.90,2.41,3.10,2.07,6.03,5.86,4.31,4.48,6.03,,,,,,,,,,,,,,
1799999993710751666,2027-01-15T07:59:53.710751666Z,0.00,-0.52,2.59,3.45,0.34,3.62,2.41,2.41,2.24,5.86,4.48,2.76,3.28,7.41,,,,,,,,,,,,,,
1799999993720266413,2027-01-15T07:59:53.720266413Z,-0.52,-0.69,2.59,2.41,0.17,1.72,0.86,1.90,3.10,4.66,4.83,3.28,7.24,6.90,,,,,,,,,,,,,,
1799999993729781161,2027-01-15T07:59:53.729781161Z,1.21,-1.03,1.90,2.07,0.17,1.03,1.55,1.72,3.28,3.97,5.34,3.97,9.48,6.21,,,,,,,,,,,,,,
1799999993739295909,2027-01-15T07:59:53.739295909Z,-0.86,-1.21,0.86,0.86,0.34,2.93,3.10,1.21,3.45,4.31,3.97,4.31,6.90,6.21,,,,,,,,,,,,,,
1799999993748810657,2027-01-15T07:59:53.748810657Z,1.90,-2.07,0.86,-0.34,-1.21,2.07,2.41,2.59,3.28,4.66,3.79,5.00,7.24,6.72,,,,,,,,,,,,,,
1799999993758325405,2027-01-15T07:59:53.758325405Z,-2.24,-1.90,-0.69,0.52,0.34,2.59,3.45,3.97,1.38,3.97,5.00,5.17,5.69,6.21,,,,,,,,,,,,,,
1799999993767840153,2027-01-15T07:59:53.767840153Z,-3.79,-1.03,-1.55,0.86,1.38,1.90,3.97,3.97,1.38,4.31,5.34,4.66,4.31,5.52,,,,,,,,,,,,,,
1799999993777354901,2027-01-15T07:59:53.777354901Z,-1.03,-0.86,-0.86,0.34,1.55,-0.69,3.10,4.48,2.41,4.66,4.66,4.14,4.31,4.48,,,,,,,,,,,,,,
1799999993786869648,2027-01-15T07:59:53.786869648Z,-3.79,-0.52,-1.55,0.69,-1.03,0.17,4.48,4.66,3.28,3.62,4.66,4.66,2.59,5.52,,,,,,,,,,,,,,
1799999993796384396,2027-01-15T07:59:53.796384396Z,-4.31,-2.24,-2.07,-1.21,-0.86,1.90,5.69,3.97,4.83,2.59,6.55,3.79,1.90,7.41,,,,,,,,,,,,,,
1799999993805899144,2027-01-15T07:59:53.805899144Z,-2.24,-5.34,-0.69,-2.24,1.55,1.21,3.28,4.31,4.14,3.62,6.55,3.45,3.97,7.07,,,,,,,,,,,,,,
1799999993815413892,2027-01-15T07:59:53.815413892Z,-2.93,-6.21,-0.52,-2.07,1.38,2.07,2.76,4.48,2.24,4.31,6.03,4.14,4.48,6.38,,,,,,,,,,,,,,
1799999993824928640,2027-01-15T07:59:53.824928640Z,-3.79,-4.66,-0.34,-2.93,0.86,2.76,1.38,5.69,1.38,5.17,2.76,5.00,4.14,5.69,,,,,,,,,,,,,,
1799999993834443388,2027-01-15T07:59:53.834443388Z,-4.31,-4.31,0.00,-2.41,1.55,1.03,-2.07,5.52,2.93,3.97,1.03,4.31,4.31,4.31,,,,,,,,,,,,,,
1799999993843958136,2027-01-15T07:59:53.843958136Z,-6.55,-3.45,-1.72,-2.76,1.38,0.86,-1.38,5.00,2.41,3.28,2.24,4.66,3.97,3.10,,,,,,,,,,,,,,
1799999993853472883,2027-01-15T07:59:53.853472883Z,-7.24,-2.07,-1.55,-1.21,1.38,0.34,-0.52,4.31,2.93,3.28,3.10,4.48,3.97,4.66,,,,,,,,,,,,,,
1799999993862987631,2027-01-15T07:59:53.862987631Z,-7.41,-2.41,-1.38,1.21,0.00,-0.52,0.34,2.07,4.66,4.31,4.14,2.93,5.34,7.24,,,,,,,,,,,,,,
1799999993872502379,2027-01-15T07:59:53.872502379Z,-7.59,-5.86,-3.62,1.03,0.00,0.34,0.34,1.72,4.31,5.52,3.45,2.93,6.21,7.07,,,,,,,,,,,,,,
1799999993882017127,2027-01-15T07:59:53.882017127Z,-4.83,-5.86,-4.14,1.03,1.72,1.38,1.21,3.28,3.79,4.48,3.28,4.14,4.14,6.55,,,,,,,,,,,,,,
1799999993891531875,2027-01-15T07:59:53.891531875Z,-3.79,-4.83,-1.72,0.17,1.55,2.41,1.72,3.10,4.83,3.97,4.66,3.62,3.97,6.55,,,,,,,,,,,,,,
1799999993901046623,2027-01-15T07:59:53.901046623Z,-4.66,-2.24,-0.34,-0.69,0.69,2.24,1.55,3.79,5.00,4.48,4.83,3.28,4.83,6.03,,,,,,,,,,,,,,
1799999993910561371,2027-01-15T07:59:53.910561371Z,-3.62,0.52,0.00,-1.55,0.69,1.72,1.21,5.69,5.69,4.66,3.28,4.48,4.66,4.83,,,,,,,,,,,,,,
1799999993920076118,2027-01-15T07:59:53.920076118Z,-1.21,-0.52,-2.41,-1.55,1.55,1.21,1.55,4.14,6.38,4.14,2.76,4.31,5.34,4.83,,,,,,,,,,,,,,
1799999993929590866,2027-01-15T07:59:53.929590866Z,-1.21,-1.21,-2.76,-1.38,3.97,2.24,1.72,2.41,5.34,5.86,3.62,4.66,4.48,6.38,,,,,,,,,,,,,,
1799999993939105614,2027-01-15T07:59:53.939105614Z,-1.72,-2.41,-0.52,-0.52,3.79,4.66,1.21,3.28,2.59,5.00,3.45,6.90,7.41,5.69,,,,,,,,,,,,,,
1799999993948620362,2027-01-15T07:59:53.948620362Z,0.17,-2.24,-0.86,0.00,2.76,4.48,2.76,2.76,0.86,4.48,3.97,6.72,8.28,6.03,,,,,,,,,,,,,,
1799999993958135110,2027-01-15T07:59:53.958135110Z,1.38,-0.34,-2.93,-0.17,0.86,4.31,3.79,2.07,0.34,3.62,4.31,5.34,7.93,7.59,,,,,,,,,,,,,,
1799999993967649858,2027-01-15T07:59:53.967649858Z,1.90,1.03,-1.72,0.69,1.55,3.97,1.72,4.14,1.38,5.00,2.76,6.21,6.38,6.90,,,,,,,,,,,,,,
1799999993977164606,2027-01-15T07:59:53.977164606Z,1.21,0.69,0.52,1.72,2.24,2.41,2.07,4.31,0.86,4.66,3.28,6.21,6.90,5.52,,,,,,,,,,,,,,
1799999993986679353,2027-01-15T07:59:53.986679353Z,0.86,0.34,1.03,2.07,2.93,1.38,2.59,4.83,0.52,4.14,3.79,6.03,6.90,5.52,,,,,,,,,,,,,,
1799999993996194101,2027-01-15T07:59:53.996194101Z,2.07,0.69,1.21,1.72,3.45,-0.69,0.69,4.14,2.59,4.66,4.14,6.21,6.90,5.69,,,,,,,,,,,,,,
1799999994005708849,2027-01-15T07:59:54.005708849Z,3.10,-0.17,1.38,1.72,1.72,-0.86,-0.17,1.38,4.48,5.17,3.62,5.34,6.55,6.38,,,,,,,,,,,,,,
1799999994015223597,2027-01-15T07:59:54.015223597Z,0.69,0.34,-0.86,1.55,-0.17,1.38,0.17,0.34,4.48,4.31,3.97,5.69,7.07,8.10,,,,,,,,,,,,,,
1799999994024738345,2027-01-15T07:59:54.024738345Z,0.00,3.62,0.00,1.03,2.07,3.10,-0.86,1.03,2.93,2.93,4.66,6.03,7.07,6.38,,,,,,,,,,,,,,
1799999994034253093,2027-01-15T07:59:54.034253093Z,-1.38,3.45,0.86,2.24,3.45,2.76,-0.69,1.21,3.97,2.76,4.48,5.86,5.34,5.17,,,,,,,,,,,,,,
1799999994043767841,2027-01-15T07:59:54.043767841Z,-1.55,1.72,1.21,2.07,1.72,1.90,-0.17,2.07,5.52,2.24,5.00,4.31,3.45,6.03,,,,,,,,,,,,,,
1799999994053282589,2027-01-15T07:59:54.053282589Z,-2.07,1.72,-1.03,-0.86,1.55,2.76,0.69,2.41,3.62,2.59,6.72,3.62,4.48,5.86,,,,,,,,,,,,,,
1799999994062797336,2027-01-15T07:59:54.062797336Z,-1.55,0.86,-0.17,-0.52,1.03,2.59,2.24,0.69,2.41,2.59,4.83,3.45,2.24,6.55,,,,,,,,,,,,,,
1799999994072312084,2027-01-15T07:59:54.072312084Z,0.69,1.21,0.00,0.69,1.03,2.07,1.90,-0.34,2.24,2.59,3.97,4.31,1.90,7.76,,,,,,,,,,,,,,
1799999994081826832,2027-01-15T07:59:54.081826832Z,5.52,2.59,0.34,0.34,1.21,1.72,0.86,0.69,1.72,3.79,4.31,6.03,6.03,10.00,,,,,,,,,,,,,,
1799999994091341580,2027-01-15T07:59:54.091341580Z,3.28,3.10,2.41,0.69,-0.69,1.38,1.72,2.59,3.28,3.28,5.17,5.00,6.03,10.34,,,,,,,,,,,,,,
1799999994100856328,2027-01-15T07:59:54.100856328Z,2.59,2.93,3.28,0.17,-1.38,1.21,1.90,1.72,4.14,1.72,3.97,3.79,5.34,8.79,,,,,,,,,,,,,,
1799999994110371076,2027-01-15T07:59:54.110371076Z,0.69,1.38,1.90,0.69,0.69,1.38,2.41,1.55,2.41,2.41,4.31,5.69,6.72,5.69,,,,,,,,,,,,,,
1799999994119885824,2027-01-15T07:59:54.119885824Z,-0.34,0.86,1.21,0.69,1.21,0.86,2.59,2.07,2.76,2.07,3.79,7.07,6.55,4.66,,,,,,,,,,,,,,
1799999994129400571,2027-01-15T07:59:54.129400571Z,-0.52,0.52,0.34,0.34,0.34,1.38,2.59,2.76,4.83,1.90,3.10,6.03,4.48,6.03,,,,,,,,,,,,,,
1799999994138915319,2027-01-15T07:59:54.138915319Z,0.69,1.03,-0.86,2.24,1.55,3.10,4.14,4.31,4.83,3.28,5.00,6.21,4.14,6.72,,,,,,,,,,,,,,
1799999994148430067,2027-01-15T07:59:54.148430067Z,0.69,-0.69,-0.34,1.72,2.59,2.76,5.34,4.14,3.62,3.97,6.38,5.34,6.21,7.07,,,,,,,,,,,,,,
1799999994157944815,2027-01-15T07:59:54.157944815Z,-2.59,0.00,-0.34,1.03,2.59,2.76,3.97,3.45,4.14,4.83,6.03,4.66,4.83,7.24,,,,,,,,,,,,,,
1799999994167459563,2027-01-15T07:59:54.167459563Z,-4.14,1.38,-0.86,0.69,2.07,2.41,1.72,4.14,5.17,5.52,4.66,3.45,3.10,5.69,,,,,,,,,,,,,,
1799999994176974311,2027-01-15T07:59:54.176974311Z,-3.28,-0.17,-0.34,1.21,1.03,2.93,2.76,3.62,3.62,3.45,3.28,3.62,6.03,3.62,,,,,,,,,,,,,,
1799999994186489059,2027-01-15T07:59:54.186489059Z,-3.45,-1.55,0.52,-0.34,0.52,3.28,3.79,2.24,1.03,3.45,4.14,5.00,7.24,2.93,,,,,,,,,,,,,,
1799999994196003806,2027-01-15T07:59:54.196003806Z,-2.24,-2.24,2.07,-0.69,0.34,1.90,2.07,2.93,2.41,3.62,5.86,5.34,7.41,4.66,,,,,,,,,,,,,,
1799999994205518554,2027-01-15T07:59:54.205518554Z,-0.17,-2.76,2.24,-0.52,-0.52,2.24,1.21,3.45,3.62,3.45,5.86,5.00,7.93,5.52,,,,,,,,,,,,,,
1799999994215033302,2027-01-15T07:59:54.215033302Z,-3.97,-2.07,0.34,-0.34,-1.72,2.41,1.72,2.76,4.83,3.45,5.69,4.83,6.55,6.72,,,,,,,,,,,,,,
1799999994224548050,2027-01-15T07:59:54.224548050Z,-3.97,0.69,-0.34,1.72,0.34,1.21,1.03,2.41,3.10,4.31,4.48,3.97,2.59,8.10,,,,,,,,,,,,,,
1799999994234062798,2027-01-15T07:59:54.234062798Z,-3.97,0.52,0.69,2.93,1.72,2.41,2.93,4.31,3.62,4.66,2.24,4.14,2.76,6.90,,,,,,,,,,,,,,
1799999994243577546,2027-01-15T07:59:54.243577546Z,-0.86,-1.90,0.52,1.55,2.07,1.72,4.31,4.66,3.97,3.62,2.41,5.34,7.07,5.17,,,,,,,,,,,,,,
1799999994253092294,2027-01-15T07:59:54.253092294Z,-2.07,-3.10,0.17,0.69,1.72,0.52,4.14,3.79,3.62,3.28,1.72,5.86,7.93,5.34,,,,,,,,,,,,,,
1799999994262607041,2027-01-15T07:59:54.262607041Z,-1.55,-4.14,0.34,-0.86,1.21,-0.52,4.48,2.59,3.97,4.14,1.38,5.52,7.07,5.69,,,,,,,,,,,,,,
1799999994272121789,2027-01-15T07:59:54.272121789Z,-2.24,-2.93,-0.34,-0.34,1.90,1.90,5.17,2.93,5.00,3.62,4.14,5.52,7.41,4.48,,,,,,,,,,,,,,
1799999994281636537,2027-01-15T07:59:54.281636537Z,-4.14,0.52,0.34,-1.38,1.21,1.03,3.79,2.76,5.34,2.41,4.14,5.17,3.97,6.21,,,,,,,,,,,,,,
1799999994291151285,2027-01-15T07:59:54.291151285Z,-1.72,-0.52,0.52,-1.38,1.03,-0.17,2.24,2.59,4.14,2.59,3.28,5.17,2.59,7.24,,,,,,,,,,,,,,
1799999994300666033,2027-01-15T07:59:54.300666033Z,0.17,-4.31,-0.69,0.34,0.69,-0.17,1.72,2.76,1.72,3.62,4.14,5.00,3.28,6.38,,,,,,,,,,,,,,
1799999994310180781,2027-01-15T07:59:54.310180781Z,-0.34,-3.10,-1.55,-0.34,-0.86,1.03,1.55,2.24,2.59,3.79,4.14,5.00,2.59,6.90,,,,,,,,,,,,,,
1799999994319695529,2027-01-15T07:59:54.319695529Z,-2.76,-0.52,-0.86,-0.34,-0.69,0.17,1.03,1.90,3.28,3.10,4.14,4.83,4.66,7.76,,,,,,,,,,,,,,
1799999994329210276,2027-01-15T07:59:54.329210276Z,-1.72,-1.38,-1.03,1.55,-0.34,0.86,0.86,2.76,2.93,3.62,4.14,4.83,4.83,6.21,,,,,,,,,,,,,,
1799999994338725024,2027-01-15T07:59:54.338725024Z,-0.34,-2.93,-1.38,1.72,-0.34,1.21,1.38,3.45,2.59,3.97,3.97,5.00,4.66,5.17,,,,,,,,,,,,,,
1799999994348239772,2027-01-15T07:59:54.348239772Z,-0.86,-1.55,-0.52,0.34,0.69,1.72,2.93,3.45,2.93,5.52,5.34,4.14,6.03,4.48,,,,,,,,,,,,,,
1799999994357754520,2027-01-15T07:59:54.357754520Z,-0.69,-1.21,0.00,-0.34,1.55,3.28,4.14,2.24,4.31,5.34,5.52,4.31,5.52,6.03,,,,,,,,,,,,,,
1799999994367269268,2027-01-15T07:59:54.367269268Z,-0.17,-0.86,0.34,-0.52,0.86,0.86,2.41,2.24,3.10,2.59,4.14,5.69,6.38,7.07,,,,,,,,,,,,,,
1799999994376784016,2027-01-15T07:59:54.376784016Z,1.55,-0.34,1.38,0.17,0.34,0.00,1.72,2.41,2.41,1.38,3.10,6.03,7.07,7.07,,,,,,,,,,,,,,
1799999994386298764,2027-01-15T07:59:54.386298764Z,0.69,-0.17,2.07,1.38,-0.17,0.17,3.10,2.76,3.28,2.07,3.28,5.17,6.03,6.38,,,,,,,,,,,,,,
1799999994395813511,2027-01-15T07:59:54.395813511Z,-0.17,0.34,1.03,2.24,0.00,2.41,2.93,3.45,4.83,3.10,3.45,4.66,3.62,5.52,,,,,,,,,,,,,,
1799999994405328259,2027-01-15T07:59:54.405328259Z,0.00,0.34,0.86,2.59,0.17,1.38,3.62,2.59,5.34,2.41,3.10,4.14,5.17,4.83,,,,,,,,,,,,,,
1799999994414843007,2027-01-15T07:59:54.414843007Z,-0.69,0.00,0.86,1.72,0.52,1.21,4.31,2.93,3.28,2.07,2.76,5.34,7.24,5.52,,,,,,,,,,,,,,
1799999994424357755,2027-01-15T07:59:54.424357755Z,-1.90,-1.21,0.69,-0.17,0.86,1.72,3.79,3.62,3.79,2.24,3.79,5.86,7.24,6.38,,,,,,,,,,,,,,
1799999994433872503,2027-01-15T07:59:54.433872503Z,0.34,-2.41,0.00,-1.90,1.72,1.03,2.93,2.41,4.48,2.24,5.17,6.38,5.69,7.07,,,,,,,,,,,,,,
1799999994443387251,2027-01-15T07:59:54.443387251Z,-1.03,0.00,-0.17,-0.69,0.86,0.52,4.66,1.03,2.07,2.07,3.97,5.34,3.79,6.55,,,,,,,,,,,,,,
1799999994452901999,2027-01-15T07:59:54.452901999Z,-0.34,1.55,0.00,0.52,-1.21,1.38,2.59,3.28,1.38,3.62,4.31,5.34,3.28,4.31,,,,,,,,,,,,,,
1799999994462416746,2027-01-15T07:59:54.462416746Z,-1.72,0.69,0.00,-0.34,-1.21,1.90,1.21,3.28,2.24,4.83,4.66,4.83,4.66,4.31,,,,,,,,,,,,,,
1799999994471931494,2027-01-15T07:59:54.471931494Z,-0.52,-0.86,-1.90,-1.21,-0.17,2.59,1.38,1.38,3.10,6.21,4.31,4.14,5.69,6.55,,,,,,,,,,,,,,
1799999994481446242,2027-01-15T07:59:54.481446242Z,-0.52,-0.17,-2.76,0.69,-1.03,1.38,1.72,2.41,3.45,5.34,3.62,4.83,2.07,7.41,,,,,,,,,,,,,,
1799999994490960990,2027-01-15T07:59:54.490960990Z,0.00,0.00,-1.21,1.38,-0.34,1.55,1.03,3.28,2.59,4.14,4.31,3.79,1.55,7.07,,,,,,,,,,,,,,
1799999994500475738,2027-01-15T07:59:54.500475738Z,0.34,-1.21,0.00,0.52,1.38,0.69,-0.52,3.10,1.72,3.97,5.34,4.48,2.76,6.38,,,,,,,,,,,,,,
1799999994509990486,2027-01-15T07:59:54.509990486Z,-0.52,-1.03,-0.52,0.17,1.38,0.00,-0.52,3.45,1.90,4.83,6.72,5.00,2.76,5.86,,,,,,,,,,,,,,
1799999994519505234,2027-01-15T07:59:54.519505234Z,-0.52,-0.34,-2.24,1.38,1.03,-0.52,0.86,3.79,2.24,5.52,8.45,4.66,6.55,4.66,,,,,,,,,,,,,,
1799999994529019981,2027-01-15T07:59:54.529019981Z,-1.38,-1.21,-2.59,2.41,0.17,0.86,0.86,3.10,1.72,4.48,6.90,3.97,8.28,4.83,,,,,,,,,,,,,,
1799999994538534729,2027-01-15T07:59:54.538534729Z,-0.86,-1.90,-0.86,2.24,-0.69,-0.34,0.00,2.93,1.90,4.48,3.28,5.34,5.17,5.86,,,,,,,,,,,,,,
1799999994548049477,2027-01-15T07:59:54.548049477Z,-1.72,0.00,-0.17,1.21,-1.21,0.86,0.69,3.28,3.10,3.45,3.10,5.69,4.14,7.07,,,,,,,,,,,,,,
1799999994557564225,2027-01-15T07:59:54.557564225Z,-1.03,1.38,-0.17,0.69,-0.34,1.90,1.38,2.24,2.07,2.93,3.62,5.34,2.93,7.24,,,,,,,,,,,,,,
1799999994567078973,2027-01-15T07:59:54.567078973Z,-1.72,2.59,1.21,0.86,1.90,3.28,1.72,0.52,1.55,3.97,2.41,4.14,0.86,5.69,,,,,,,,,,,,,,
1799999994576593721,2027-01-15T07:59:54.576593721Z,-1.21,3.45,1.72,1.21,2.24,4.83,1.21,1.03,4.48,4.83,3.28,5.00,3.45,5.34,,,,,,,,,,,,,,
1799999994586108469,2027-01-15T07:59:54.586108469Z,-2.41,0.17,0.86,-0.17,3.45,2.93,1.72,2.59,4.66,3.45,2.93,5.00,4.66,6.90,,,,,,,,,,,,,,
1799999994595623216,2027-01-15T07:59:54.595623216Z,-0.52,-1.72,0.52,-0.34,3.45,1.72,2.07,2.59,3.97,2.76,3.62,4.48,5.86,6.55,,,,,,,,,,,,,,
1799999994605137964,2027-01-15T07:59:54.605137964Z,-0.17,-0.86,-0.86,1.55,0.17,2.41,3.10,4.48,3.97,3.28,5.52,3.28,9.66,5.86,,,,,,,,,,,,,,
1799999994614652712,2027-01-15T07:59:54.614652712Z,-1.38,-2.24,-3.45,1.21,-1.03,3.45,3.62,5.00,3.45,2.76,5.17,3.79,7.93,6.72,,,,,,,,,,,,,,
1799999994624167460,2027-01-15T07:59:54.624167460Z,0.34,-2.07,-2.24,1.21,1.03,2.59,1.90,3.28,3.28,2.93,4.14,5.34,4.31,5.86,,,,,,,,,,,,,,
1799999994633682208,2027-01-15T07:59:54.633682208Z,-0.34,-1.90,0.52,2.24,2.07,1.55,2.24,2.07,3.97,4.31,4.31,4.83,5.00,6.03,,,,,,,,,,,,,,
1799999994643196956,2027-01-15T07:59:54.643196956Z,-3.10,-1.55,0.17,1.03,1.03,1.90,2.93,3.28,3.45,3.45,3.97,4.66,6.55,5.69,,,,,,,,,,,,,,
1799999994652711704,2027-01-15T07:59:54.652711704Z,-2.07,-1.55,-1.38,-0.52,-0.69,1.90,2.76,5.17,1.72,2.24,4.14,5.69,6.55,4.66,,,,,,,,,,,,,,
1799999994662226451,2027-01-15T07:59:54.662226451Z,-2.07,-2.59,-0.52,0.34,0.17,-0.17,2.41,5.00,0.69,3.45,5.34,5.86,3.62,5.69,,,,,,,,,,,,,,
1799999994671741199,2027-01-15T07:59:54.671741199Z,0.69,-1.38,0.69,-1.38,3.79,1.38,2.59,4.66,0.69,4.48,4.83,5.00,4.31,6.72,,,,,,,,,,,,,,
1799999994681255947,2027-01-15T07:59:54.681255947Z,1.90,-1.38,0.86,-0.69,4.14,2.76,3.45,4.31,1.38,4.83,3.79,4.83,5.69,6.21,,,,,,,,,,,,,,
1799999994690770695,2027-01-15T07:59:54.690770695Z,-2.59,-2.07,0.34,2.24,2.76,0.52,4.66,2.76,1.90,5.17,2.59,4.66,8.10,4.66,,,,,,,,,,,,,,
1799999994700285443,2027-01-15T07:59:54.700285443Z,-1.55,-0.69,-0.86,2.07,3.10,-0.52,4.31,2.07,1.38,4.66,5.00,4.14,4.48,4.48,,,,,,,,,,,,,,
1799999994709800191,2027-01-15T07:59:54.709800191Z,-1.90,-0.52,-1.38,-0.52,1.90,0.69,4.31,3.62,2.76,5.52,5.34,3.45,4.66,4.66,,,,,,,,,,,,,,
1799999994719314939,2027-01-15T07:59:54.719314939Z,-1.90,-1.72,-1.21,-0.34,0.52,0.00,3.10,2.24,5.52,5.52,4.31,4.31,7.07,6.21,,,,,,,,,,,,,,
1799999994728829687,2027-01-15T07:59:54.728829687Z,0.17,-1.38,-0.69,0.69,1.38,-0.52,2.59,1.38,6.21,5.17,4.14,5.00,7.59,6.72,,,,,,,,,,,,,,
1799999994738344434,2027-01-15T07:59:54.738344434Z,-0.52,0.34,0.69,0.86,2.76,0.00,2.93,1.72,5.69,5.17,3.79,4.48,4.83,7.07,,,,,,,,,,,,,,
1799999994747859182,2027-01-15T07:59:54.747859182Z,-0.52,0.34,-0.17,0.34,2.07,1.03,4.31,3.10,4.31,6.38,3.79,4.14,1.21,6.55,,,,,,,,,,,,,,
1799999994757373930,2027-01-15T07:59:54.757373930Z,0.17,0.00,-2.93,0.69,1.90,2.59,3.10,3.10,3.10,5.86,3.79,5.34,3.10,5.00,,,,,,,,,,,,,,
1799999994766888678,2027-01-15T07:59:54.766888678Z,0.00,-0.52,-2.76,1.03,2.07,3.28,1.90,3.45,3.62,5.17,4.83,5.86,5.34,5.17,,,,,,,,,,,,,,
1799999994776403426,2027-01-15T07:59:54.776403426Z,1.55,-0.17,-1.03,1.90,1.55,2.07,1.21,3.62,5.17,5.00,6.38,6.03,4.83,4.66,,,,,,,,,,,,,,
1799999994785918174,2027-01-15T07:59:54.785918174Z,0.00,0.52,-0.86,1.21,1.38,0.52,-0.86,3.79,4.14,4.31,6.03,4.14,6.21,3.79,,,,,,,,,,,,,,
1799999994795432922,2027-01-15T07:59:54.795432922Z,-0.34,-0.52,0.86,0.00,0.86,0.86,0.00,3.45,3.45,3.62,3.62,3.45,5.86,4.66,,,,,,,,,,,,,,
1799999994804947669,2027-01-15T07:59:54.804947669Z,-1.38,-2.07,-0.17,0.00,0.17,2.07,1.72,2.24,2.59,3.10,3.45,4.31,4.14,4.83,,,,,,,,,,,,,,
1799999994814462417,2027-01-15T07:59:54.814462417Z,-0.86,-0.69,-0.69,-0.17,0.17,3.10,2.93,2.76,1.90,4.14,4.48,5.34,4.31,5.00,,,,,,,,,,,,,,
1799999994823977165,2027-01-15T07:59:54.823977165Z,-0.69,1.38,1.38,-0.52,-0.34,4.14,2.93,3.45,1.55,5.86,5.52,5.34,4.66,6.03,,,,,,,,,,,,,,
1799999994833491913,2027-01-15T07:59:54.833491913Z,-1.90,0.00,0.17,1.38,-0.86,2.93,1.03,1.03,3.28,6.55,3.79,3.97,5.86,6.55,,,,,,,,,,,,,,
1799999994843006661,2027-01-15T07:59:54.843006661Z,-0.69,-1.38,-0.86,2.07,-0.69,0.86,1.21,0.00,3.79,5.69,2.07,4.66,8.62,7.07,,,,,,,,,,,,,,
1799999994852521409,2027-01-15T07:59:54.852521409Z,0.00,0.00,1.21,0.52,0.34,-0.34,0.86,0.69,2.07,5.52,3.97,5.86,8.45,6.55,,,,,,,,,,,,,,
1799999994862036157,2027-01-15T07:59:54.862036157Z,-1.55,0.52,2.07,0.52,-0.69,0.00,0.52,0.69,1.38,6.55,5.17,5.69,7.41,6.55,,,,,,,,,,,,,,
1799999994871550904,2027-01-15T07:59:54.871550904Z,0.00,0.52,0.69,-0.34,-3.28,1.38,-0.69,1.90,1.03,6.90,6.21,4.83,6.72,7.24,,,,,,,,,,,,,,
1799999994881065652,2027-01-15T07:59:54.881065652Z,-1.72,1.55,-0.52,0.17,-2.41,2.59,0.17,1.90,0.00,3.97,5.34,5.52,4.48,6.55,,,,,,,,,,,,,,
1799999994890580400,2027-01-15T07:59:54.890580400Z,0.52,0.69,-0.86,1.38,0.34,2.41,0.52,0.69,1.21,3.62,4.31,5.00,5.17,5.69,,,,,,,,,,,,,,
1799999994900095148,2027-01-15T07:59:54.900095148Z,0.69,-0.17,-0.17,1.03,0.86,2.41,0.52,1.72,2.24,4.48,4.48,4.66,4.83,6.21,,,,,,,,,,,,,,
1799999994909609896,2027-01-15T07:59:54.909609896Z,1.55,0.52,1.90,0.52,-0.52,1.55,2.07,3.79,1.90,3.79,4.48,5.00,2.93,6.72,,,,,,,,,,,,,,
1799999994919124644,2027-01-15T07:59:54.919124644Z,1.38,0.00,1.90,1.03,-0.34,1.72,3.97,4.14,2.59,4.83,4.14,5.86,5.52,5.00,,,,,,,,,,,,,,
1799999994928639392,2027-01-15T07:59:54.928639392Z,0.00,-0.34,0.00,1.03,1.03,3.97,2.93,4.31,3.97,3.97,5.34,4.66,8.62,3.79,,,,,,,,,,,,,,
1799999994938154139,2027-01-15T07:59:54.938154139Z,-0.34,-0.17,-0.69,0.86,1.55,3.62,1.21,3.97,5.00,3.97,4.66,4.48,6.90,5.17,,,,,,,,,,,,,,
1799999994947668887,2027-01-15T07:59:54.947668887Z,0.00,-0.69,-0.34,0.00,1.38,2.41,1.90,3.79,4.48,4.14,4.31,4.66,6.03,6.21,,,,,,,,,,,,,,
1799999994957183635,2027-01-15T07:59:54.957183635Z,-1.21,-1.21,0.52,-1.03,2.07,-0.69,3.45,2.93,1.72,2.24,5.17,5.17,7.76,6.21,,,,,,,,,,,,,,
1799999994966698383,2027-01-15T07:59:54.966698383Z,-0.69,-1.03,0.17,-0.17,2.07,-1.90,3.45,2.59,-0.86,1.38,4.14,5.00,7.76,6.21,,,,,,,,,,,,,,
1799999994976213131,2027-01-15T07:59:54.976213131Z,0.69,-0.69,-0.17,1.21,2.93,-0.86,2.76,1.90,2.59,3.79,3.10,4.14,4.83,6.72,,,,,,,,,,,,,,
1799999994985727879,2027-01-15T07:59:54.985727879Z,-2.07,-0.52,-1.21,1.55,3.10,0.17,2.59,3.62,4.83,5.17,3.79,3.62,3.79,6.72,,,,,,,,,,,,,,
1799999994995242627,2027-01-15T07:59:54.995242627Z,1.72,-0.34,-1.72,1.38,1.38,1.72,3.28,5.17,2.41,4.48,4.83,3.97,5.86,6.72,,,,,,,,,,,,,,
1799999995004757374,2027-01-15T07:59:55.004757374Z,-0.52,-0.17,-0.17,0.69,0.52,1.72,2.93,2.76,1.72,3.45,3.62,4.14,9.14,6.90,,,,,,,,,,,,,,
1799999995014272122,2027-01-15T07:59:55.014272122Z,-1.03,-1.55,0.00,-0.69,1.21,2.93,3.79,1.72,3.28,2.93,3.97,4.31,9.14,6.21,,,,,,,,,,,,,,
1799999995023786870,2027-01-15T07:59:55.023786870Z,2.59,-1.72,-0.69,-0.34,2.93,3.10,2.07,2.93,3.10,2.93,5.69,5.00,7.24,5.52,,,,,,,,,,,,,,
1799999995033301618,2027-01-15T07:59:55.033301618Z,1.38,-1.03,0.34,0.34,3.10,2.41,1.21,2.59,3.79,3.10,5.34,5.52,6.03,6.21,,,,,,,,,,,,,,
1799999995042816366,2027-01-15T07:59:55.042816366Z,-2.93,-0.86,2.41,-0.69,1.03,1.03,3.10,2.76,5.34,3.97,4.14,5.34,5.69,7.24,,,,,,,,,,,,,,
1799999995052331114,2027-01-15T07:59:55.052331114Z,-2.07,-1.55,2.07,-2.07,0.17,1.21,3.62,5.00,4.14,4.31,3.79,5.17,6.21,6.03,,,,,,,,,,,,,,
1799999995061845862,2027-01-15T07:59:55.061845862Z,0.17,-0.17,0.00,-0.34,1.38,0.69,1.38,3.79,3.62,3.79,3.62,5.52,2.59,5.34,,,,,,,,,,,,,,
1799999995071360609,2027-01-15T07:59:55.071360609Z,-0.34,0.52,0.52,0.69,2.59,1.55,0.34,2.59,3.79,3.79,4.66,5.17,2.59,5.52,,,,,,,,,,,,,,
1799999995080875357,2027-01-15T07:59:55.080875357Z,-0.86,-0.69,0.69,0.69,1.72,1.55,1.38,3.45,3.97,3.79,6.21,4.83,6.38,5.17,,,,,,,,,,,,,,
1799999995090390105,2027-01-15T07:59:55.090390105Z,-0.86,-0.86,-1.38,2.07,-2.24,-0.86,2.41,3.62,3.10,3.10,4.66,4.48,5.17,5.86,,,,,,,,,,,,,,
1799999995099904853,2027-01-15T07:59:55.099904853Z,-2.24,-0.69,-0.17,2.76,-2.24,-0.52,1.72,3.45,4.14,3.10,5.69,3.45,2.24,7.24,,,,,,,,,,,,,,
1799999995109419601,2027-01-15T07:59:55.109419601Z,-0.17,-1.55,-0.17,1.21,2.41,2.24,0.52,3.79,4.14,2.93,5.34,4.83,2.93,6.90,,,,,,,,,,,,,,
1799999995118934349,2027-01-15T07:59:55.118934349Z,-0.69,-2.24,-0.52,0.00,3.62,2.93,0.34,3.62,3.45,3.79,5.00,6.03,2.59,6.38,,,,,,,,,,,,,,
1799999995128449097,2027-01-15T07:59:55.128449097Z,-1.21,-2.07,-0.34,0.00,1.21,4.14,0.86,2.76,3.28,4.83,2.41,5.52,1.72,7.07,,,,,,,,,,,,,,
1799999995137963844,2027-01-15T07:59:55.137963844Z,-1.03,-1.38,1.72,0.34,0.86,3.28,1.72,2.76,3.10,4.14,1.55,5.34,5.17,6.90,,,,,,,,,,,,,,
1799999995147478592,2027-01-15T07:59:55.147478592Z,-1.90,-0.86,0.34,1.03,2.24,1.21,2.07,2.76,3.79,3.45,3.45,4.66,5.86,6.55,,,,,,,,,,,,,,
1799999995156993340,2027-01-15T07:59:55.156993340Z,-1.55,-0.34,-1.03,0.86,1.90,1.72,3.10,3.10,4.14,4.14,4.14,4.83,6.38,6.72,,,,,,,,,,,,,,
1799999995166508088,2027-01-15T07:59:55.166508088Z,-2.07,1.55,0.00,0.52,0.17,2.93,3.45,3.45,3.79,5.17,4.31,5.52,8.45,5.69,,,,,,,,,,,,,,
1799999995176022836,2027-01-15T07:59:55.176022836Z,0.17,1.21,-0.17,1.21,0.34,1.90,0.86,2.24,1.90,4.48,2.76,5.69,7.59,5.52,,,,,,,,,,,,,,
1799999995185537584,2027-01-15T07:59:55.185537584Z,0.34,-0.17,-1.21,0.69,0.86,2.41,0.52,2.24,1.03,3.45,2.76,6.03,6.90,7.24,,,,,,,,,,,,,,
1799999995195052332,2027-01-15T07:59:55.195052332Z,-0.52,-0.86,-0.52,0.00,0.52,3.10,2.24,1.90,4.14,4.14,3.79,4.48,5.86,4.83,,,,,,,,,,,,,,
1799999995204567079,2027-01-15T07:59:55.204567079Z,1.03,-0.69,0.00,0.52,0.69,3.10,2.41,1.72,5.86,3.28,3.79,3.79,6.03,3.45,,,,,,,,,,,,,,
1799999995214081827,2027-01-15T07:59:55.214081827Z,-2.41,0.86,1.38,2.76,1.55,4.66,1.55,3.28,3.28,1.38,4.83,5.17,5.86,6.03,,,,,,,,,,,,,,
1799999995223596575,2027-01-15T07:59:55.223596575Z,-1.90,1.03,1.03,2.93,2.41,6.03,1.21,4.31,0.86,1.90,4.48,5.86,5.17,7.41,,,,,,,,,,,,,,
1799999995233111323,2027-01-15T07:59:55.233111323Z,-1.72,-0.17,-0.52,0.34,2.24,2.59,1.72,5.34,0.52,2.93,3.45,4.48,6.72,6.72,,,,,,,,,,,,,,
1799999995242626071,2027-01-15T07:59:55.242626071Z,1.03,0.52,-1.38,0.34,-0.17,0.17,1.90,3.97,3.97,3.45,4.31,4.48,3.97,7.07,,,,,,,,,,,,,,
1799999995252140819,2027-01-15T07:59:55.252140819Z,0.34,0.52,-0.69,1.21,-1.38,0.52,1.03,2.24,3.62,3.28,5.00,5.34,3.45,5.52,,,,,,,,,,,,,,
1799999995261655567,2027-01-15T07:59:55.261655567Z,0.00,0.52,0.52,1.21,-2.24,1.72,0.00,0.34,0.86,4.14,3.62,6.55,6.90,2.93,,,,,,,,,,,,,,
1799999995271170314,2027-01-15T07:59:55.271170314Z,-1.72,0.86,0.86,2.41,-1.38,2.07,0.00,1.90,2.93,5.52,2.59,5.69,6.21,4.31,,,,,,,,,,,,,,
1799999995280685062,2027-01-15T07:59:55.280685062Z,-2.07,-0.34,1.90,3.10,0.52,2.76,1.03,2.59,3.10,3.79,1.90,5.00,5.86,6.21,,,,,,,,,,,,,,
1799999995290199810,2027-01-15T07:59:55.290199810Z,-0.52,-0.86,0.69,1.72,1.72,2.24,1.03,3.28,2.07,3.62,2.41,4.48,6.03,6.03,,,,,,,,,,,,,,
1799999995299714558,2027-01-15T07:59:55.299714558Z,-0.34,-1.03,-0.52,-0.34,2.07,1.72,2.07,2.93,1.03,4.31,3.10,3.79,4.48,6.21,,,,,,,,,,,,,,
1799999995309229306,2027-01-15T07:59:55.309229306Z,0.69,1.03,0.86,1.21,-0.52,3.10,2.93,1.21,1.21,3.28,2.93,5.17,5.17,7.41,,,,,,,,,,,,,,
1799999995318744054,2027-01-15T07:59:55.318744054Z,0.52,0.52,-0.34,0.00,-1.03,4.14,2.24,1.72,3.10,3.97,4.14,4.83,6.21,7.24,,,,,,,,,,,,,,
1799999995328258802,2027-01-15T07:59:55.328258802Z,0.34,0.34,-0.17,-1.38,0.00,3.45,1.55,1.38,3.79,3.62,3.79,4.83,5.34,6.38,,,,,,,,,,,,,,
1799999995337773550,2027-01-15T07:59:55.337773550Z,-1.21,0.34,0.00,-0.34,-0.17,2.41,2.07,0.69,3.45,3.97,3.62,5.69,4.66,6.72,,,,,,,,,,,,,,
1799999995347288297,2027-01-15T07:59:55.347288297Z,-1.21,-1.55,-2.07,1.55,-1.21,2.59,2.24,0.69,3.45,4.66,3.28,7.07,5.00,7.41,,,,,,,,,,,,,,
1799999995356803045,2027-01-15T07:59:55.356803045Z,0.86,-2.41,-2.41,1.21,0.34,3.10,0.86,2.76,5.00,3.62,2.76,6.72,3.62,6.38,,,,,,,,,,,,,,
1799999995366317793,2027-01-15T07:59:55.366317793Z,0.00,0.00,0.00,2.07,1.72,0.69,3.45,3.10,3.45,3.45,1.90,6.03,3.97,5.34,,,,,,,,,,,,,,
1799999995375832541,2027-01-15T07:59:55.375832541Z,1.38,1.55,0.86,2.07,1.55,-0.69,4.83,2.59,2.93,4.31,3.10,5.86,4.14,5.17,,,,,,,,,,,,,,
1799999995385347289,2027-01-15T07:59:55.385347289Z,0.69,1.21,-0.52,1.21,1.38,1.55,2.93,2.41,3.79,4.14,5.17,6.55,2.07,5.86,,,,,,,,,,,,,,
1799999995394862037,2027-01-15T07:59:55.394862037Z,0.52,0.52,-0.52,0.34,1.55,3.45,3.62,0.86,3.45,2.59,4.48,6.72,2.59,6.72,,,,,,,,,,,,,,
1799999995404376785,2027-01-15T07:59:55.404376785Z,-1.55,0.86,0.34,0.17,1.72,3.10,3.62,0.52,3.97,1.90,3.97,5.17,6.90,7.41,,,,,,,,,,,,,,
1799999995413891532,2027-01-15T07:59:55.413891532Z,0.34,-0.17,-0.34,1.90,2.76,3.10,3.10,2.24,3.10,4.14,4.31,4.31,7.93,7.24,,,,,,,,,,,,,,
1799999995423406280,2027-01-15T07:59:55.423406280Z,1.90,-1.03,-0.86,1.55,2.76,3.10,3.28,3.62,2.24,5.00,4.83,4.83,6.72,7.41,,,,,,,,,,,,,,
1799999995432921028,2027-01-15T07:59:55.432921028Z,-2.07,-1.38,-0.34,0.17,2.93,2.24,3.45,3.97,1.21,3.62,5.17,5.52,7.76,8.62,,,,,,,,,,,,,,
1799999995442435776,2027-01-15T07:59:55.442435776Z,0.17,0.86,0.86,1.03,2.59,1.38,2.93,3.62,1.72,2.76,3.97,4.48,7.59,8.79,,,,,,,,,,,,,,
1799999995451950524,2027-01-15T07:59:55.451950524Z,0.17,1.72,0.86,1.38,1.21,0.17,2.59,3.28,3.97,2.76,5.69,4.31,6.90,6.90,,,,,,,,,,,,,,
1799999995461465272,2027-01-15T07:59:55.461465272Z,-1.72,1.03,-0.17,1.55,0.69,1.90,2.24,3.28,3.97,3.10,6.90,4.14,6.90,5.69,,,,,,,,,,,,,,
1799999995470980020,2027-01-15T07:59:55.470980020Z,0.52,0.34,-1.38,1.38,1.38,3.45,1.90,3.45,2.24,4.48,5.86,3.79,6.72,4.66,,,,,,,,,,,,,,
1799999995480494767,2027-01-15T07:59:55.480494767Z,0.34,-1.21,-0.52,0.52,1.21,0.69,1.72,3.62,2.93,5.34,4.31,4.31,5.34,4.48,,,,,,,,,,,,,,
1799999995490009515,2027-01-15T07:59:55.490009515Z,-0.34,-5.00,1.90,0.17,1.21,-0.34,1.90,2.59,3.97,4.14,3.10,5.17,4.83,5.17,,,,,,,,,,,,,,
1799999995499524263,2027-01-15T07:59:55.499524263Z,0.69,-2.93,1.03,-0.52,0.52,2.07,1.38,3.28,2.76,1.72,4.31,6.38,6.72,5.86,,,,,,,,,,,,,,
1799999995509039011,2027-01-15T07:59:55.509039011Z,0.00,-0.52,0.34,0.00,0.52,2.07,1.90,3.62,2.07,1.90,5.00,6.21,7.59,5.17,,,,,,,,,,,,,,
1799999995518553759,2027-01-15T07:59:55.518553759Z,-4.31,0.17,-0.34,0.52,1.38,2.93,2.41,2.93,2.76,3.79,3.97,4.83,5.52,4.14,,,,,,,,,,,,,,
1799999995528068507,2027-01-15T07:59:55.528068507Z,-4.14,-0.69,0.52,-0.17,2.59,3.97,2.07,0.00,3.10,3.79,3.97,5.00,4.83,5.34,,,,,,,,,,,,,,
1799999995537583255,2027-01-15T07:59:55.537583255Z,-2.07,-2.59,0.00,-0.17,1.38,1.21,1.72,1.38,2.76,3.10,5.00,6.03,6.72,7.07,,,,,,,,,,,,,,
1799999995547098002,2027-01-15T07:59:55.547098002Z,-1.72,-0.86,-0.34,0.69,0.86,-0.17,0.52,2.76,3.28,4.66,5.00,5.34,5.00,6.90,,,,,,,,,,,,,,
1799999995556612750,2027-01-15T07:59:55.556612750Z,0.00,0.17,0.52,0.52,1.90,-0.34,0.17,2.07,3.45,5.17,5.52,5.17,3.62,6.55,,,,,,,,,,,,,,
1799999995566127498,2027-01-15T07:59:55.566127498Z,0.52,0.86,1.90,0.69,3.28,0.00,0.86,1.55,4.31,3.28,6.21,5.17,5.00,6.55,,,,,,,,,,,,,,
1799999995575642246,2027-01-15T07:59:55.575642246Z,,0.86,1.38,1.90,3.45,1.03,1.90,2.59,5.69,2.93,5.17,4.14,5.52,6.21,,,,,,,,,,,,,,
1799999995585156994,2027-01-15T07:59:55.585156994Z,-1.03,0.34,-0.69,1.03,2.41,0.52,3.10,3.62,3.28,3.10,4.66,3.45,5.00,4.48,,,,,,,,,,,,,,
1799999995594671742,2027-01-15T07:59:55.594671742Z,2.07,0.00,-1.38,0.86,1.55,0.69,2.59,3.28,2.24,2.93,4.66,3.62,5.00,3.79,,,,,,,,,,,,,,
1799999995604186490,2027-01-15T07:59:55.604186490Z,0.69,-1.55,-0.34,1.72,1.72,1.03,1.38,2.93,1.55,3.10,3.97,3.62,4.66,3.97,,,,,,,,,,,,,,
1799999995613701237,2027-01-15T07:59:55.613701237Z,0.34,0.00,0.17,0.69,1.55,0.34,2.24,2.59,1.72,4.31,3.79,3.62,4.48,7.07,,,,,,,,,,,,,,
1799999995623215985,2027-01-15T07:59:55.623215985Z,0.00,-0.52,-0.69,-0.17,1.38,0.17,3.62,1.55,0.86,3.97,3.45,3.62,5.34,7.76,,,,,,,,,,,,,,
1799999995632730733,2027-01-15T07:59:55.632730733Z,0.00,-1.38,-0.17,1.38,1.38,-0.86,3.45,-0.17,2.76,4.31,3.79,3.62,4.66,6.38,,,,,,,,,,,,,,
1799999995642245481,2027-01-15T07:59:55.642245481Z,-2.76,-0.86,-0.52,1.55,1.21,0.52,3.10,-0.17,4.31,4.83,4.31,3.79,4.14,6.21,,,,,,,,,,,,,,
1799999995651760229,2027-01-15T07:59:55.651760229Z,-1.90,0.00,-2.41,-0.86,1.72,1.72,2.76,0.86,3.10,5.17,5.34,4.14,4.31,6.21,,,,,,,,,,,,,,
1799999995661274977,2027-01-15T07:59:55.661274977Z,1.03,-2.24,-1.55,-2.07,1.03,-0.17,2.59,2.41,2.76,4.14,4.48,4.48,4.31,5.69,,,,,,,,,,,,,,
1799999995670789725,2027-01-15T07:59:55.670789725Z,0.52,-1.90,0.52,-1.55,-0.17,0.00,0.86,2.07,1.90,3.45,3.45,3.97,4.83,6.21,,,,,,,,,,,,,,
1799999995680304472,2027-01-15T07:59:55.680304472Z,-1.72,-1.55,0.52,-1.21,-0.17,0.86,0.52,1.72,2.07,3.45,3.28,3.79,5.86,6.38,,,,,,,,,,,,,,
1799999995689819220,2027-01-15T07:59:55.689819220Z,-2.93,0.52,-0.86,-0.86,-0.52,1.72,2.24,2.41,4.14,2.24,2.93,5.34,6.55,5.69,,,,,,,,,,,,,,
1799999995699333968,2027-01-15T07:59:55.699333968Z,-2.07,-0.17,-0.17,-0.17,0.17,2.24,2.76,2.93,4.48,1.55,2.07,6.90,5.00,4.48,,,,,,,,,,,,,,
1799999995708848716,2027-01-15T07:59:55.708848716Z,-1.38,-0.52,1.21,0.52,1.21,2.07,0.52,3.10,4.14,4.31,3.62,6.21,4.14,5.52,,,,,,,,,,,,,,
1799999995718363464,2027-01-15T07:59:55.718363464Z,-1.38,-0.86,0.34,0.52,0.69,2.07,2.24,2.24,3.28,5.00,7.24,5.52,5.52,6.38,,,,,,,,,,,,,,
1799999995727878212,2027-01-15T07:59:55.727878212Z,1.03,0.34,0.00,0.34,0.17,3.45,2.93,2.07,3.10,4.31,6.21,5.69,5.69,5.86,,,,,,,,,,,,,,
1799999995737392960,2027-01-15T07:59:55.737392960Z,1.38,1.55,0.52,0.52,0.17,4.48,-0.69,3.28,2.76,2.24,3.45,6.03,4.31,5.86,,,,,,,,,,,,,,
1799999995746907707,2027-01-15T07:59:55.746907707Z,-2.24,0.00,1.38,1.03,0.00,3.10,-1.90,3.62,2.24,2.24,4.31,5.34,3.10,8.28,,,,,,,,,,,,,,
1799999995756422455,2027-01-15T07:59:55.756422455Z,-1.38,0.69,0.52,0.34,0.34,3.28,2.07,4.14,2.07,3.62,3.62,3.79,3.28,7.07,,,,,,,,,,,,,,
1799999995765937203,2027-01-15T07:59:55.765937203Z,0.52,1.72,0.34,0.17,0.52,2.07,3.28,4.48,2.93,3.28,3.28,3.62,3.62,5.52,,,,,,,,,,,,,,
1799999995775451951,2027-01-15T07:59:55.775451951Z,-1.55,1.21,0.00,-0.69,0.00,1.55,1.55,3.28,4.66,3.28,3.79,5.00,3.97,5.17,,,,,,,,,,,,,,
1799999995784966699,2027-01-15T07:59:55.784966699Z,-1.03,-2.41,-1.38,-1.21,-0.34,2.59,1.55,1.55,3.45,5.00,3.10,6.03,5.00,5.69,,,,,,,,,,,,,,
1799999995794481447,2027-01-15T07:59:55.794481447Z,0.34,-2.41,-1.03,-0.34,-0.52,0.00,0.86,2.59,1.21,4.66,3.28,4.48,5.52,7.59,,,,,,,,,,,,,,
1799999995803996195,2027-01-15T07:59:55.803996195Z,-2.24,-0.52,1.03,-1.21,0.52,0.52,1.03,2.24,1.90,3.97,3.62,3.45,4.83,5.17,,,,,,,,,,,,,,
1799999995813510942,2027-01-15T07:59:55.813510942Z,-0.69,-0.52,0.86,-1.55,0.69,1.72,1.38,2.07,3.28,4.48,3.79,4.14,4.83,4.83,,,,,,,,,,,,,,
1799999995823025690,2027-01-15T07:59:55.823025690Z,0.86,-0.17,-0.17,-0.17,-0.17,2.07,3.10,2.93,5.17,5.69,3.28,5.52,5.17,8.10,,,,,,,,,,,,,,
1799999995832540438,2027-01-15T07:59:55.832540438Z,0.34,-0.86,-1.03,0.86,0.52,1.21,3.79,4.66,3.97,5.34,3.62,4.83,5.00,7.59,,,,,,,,,,,,,,
1799999995842055186,2027-01-15T07:59:55.842055186Z,-0.17,-2.24,-3.10,1.55,0.52,0.17,3.10,3.28,1.72,4.48,4.66,4.66,5.69,5.86,,,,,,,,,,,,,,
1799999995851569934,2027-01-15T07:59:55.851569934Z,0.34,-1.72,-1.55,2.24,0.52,2.59,1.90,2.93,2.76,2.41,5.00,5.17,5.86,6.03,,,,,,,,,,,,,,
1799999995861084682,2027-01-15T07:59:55.861084682Z,1.55,-1.55,0.00,0.34,0.69,3.97,1.55,3.28,4.14,1.72,4.66,5.52,5.52,6.55,,,,,,,,,,,,,,
1799999995870599430,2027-01-15T07:59:55.870599430Z,-1.90,-1.21,-0.52,-0.86,0.00,1.90,1.21,2.93,4.14,3.10,4.48,5.34,5.17,6.03,,,,,,,,,,,,,,
1799999995880114177,2027-01-15T07:59:55.880114177Z,-3.10,-0.52,0.17,1.72,-0.34,0.52,2.07,3.45,4.83,3.97,4.31,5.52,4.66,4.48,,,,,,,,,,,,,,
1799999995889628925,2027-01-15T07:59:55.889628925Z,-1.72,0.34,-0.34,1.72,-0.17,1.38,3.62,4.31,3.62,3.10,3.97,5.17,3.79,5.17,,,,,,,,,,,,,,
1799999995899143673,2027-01-15T07:59:55.899143673Z,-0.34,1.21,-0.86,0.34,0.17,1.90,2.93,4.31,2.76,3.97,3.62,5.00,2.59,5.17,,,,,,,,,,,,,,
1799999995908658421,2027-01-15T07:59:55.908658421Z,-1.55,1.72,0.34,0.52,0.34,0.34,2.07,4.31,3.62,3.97,3.79,4.83,1.21,4.14,,,,,,,,,,,,,,
1799999995918173169,2027-01-15T07:59:55.918173169Z,1.21,-1.21,0.34,-0.52,0.00,-0.17,3.45,3.79,4.31,1.55,3.97,6.38,2.07,4.14,,,,,,,,,,,,,,
1799999995927687917,2027-01-15T07:59:55.927687917Z,-0.52,-1.21,-0.34,-0.52,1.03,1.90,3.97,3.45,4.31,1.38,2.59,5.00,1.72,5.00,,,,,,,,,,,,,,
1799999995937202665,2027-01-15T07:59:55.937202665Z,-0.69,-1.55,1.03,0.52,0.86,3.10,3.28,3.79,2.24,3.10,3.10,5.00,3.45,6.72,,,,,,,,,,,,,,
1799999995946717412,2027-01-15T07:59:55.946717412Z,-2.76,-2.24,0.00,1.21,0.52,2.93,3.45,4.66,1.38,3.28,3.79,5.34,4.83,7.41,,,,,,,,,,,,,,
1799999995956232160,2027-01-15T07:59:55.956232160Z,1.21,-1.90,-2.76,2.41,1.55,3.28,4.48,5.34,2.59,2.07,5.17,6.38,6.21,7.93,,,,,,,,,,,,,,
1799999995965746908,2027-01-15T07:59:55.965746908Z,1.90,-0.17,-2.59,2.93,2.24,2.59,4.83,3.28,3.10,2.07,4.66,6.90,6.21,7.76,,,,,,,,,,,,,,
1799999995975261656,2027-01-15T07:59:55.975261656Z,-0.86,-0.52,-0.34,1.21,1.72,1.55,3.10,0.52,2.24,2.76,4.83,6.72,6.03,6.38,,,,,,,,,,,,,,
1799999995984776404,2027-01-15T07:59:55.984776404Z,-1.55,-0.52,0.17,0.69,1.72,1.55,2.24,1.21,1.55,3.45,4.66,5.69,6.03,6.38,,,,,,,,,,,,,,
1799999995994291152,2027-01-15T07:59:55.994291152Z,0.17,-0.86,-1.21,1.90,1.21,2.07,1.55,2.59,1.72,4.31,4.48,4.31,5.69,7.24,,,,,,,,,,,,,,
1799999996003805900,2027-01-15T07:59:56.003805900Z,0.52,-1.55,-1.03,1.38,-0.17,1.38,0.69,1.38,3.62,5.00,5.34,5.00,7.41,7.76,,,,,,,,,,,,,,
1799999996013320648,2027-01-15T07:59:56.013320648Z,-1.03,-1.21,-0.86,0.17,-0.34,0.34,1.90,2.41,4.14,5.34,6.72,5.69,7.76,6.90,,,,,,,,,,,,,,
1799999996022835395,2027-01-15T07:59:56.022835395Z,1.38,0.00,0.17,1.55,1.90,0.52,2.07,2.93,3.10,4.14,8.62,5.34,7.41,5.52,,,,,,,,,,,,,,
1799999996032350143,2027-01-15T07:59:56.032350143Z,-0.86,0.00,0.86,2.07,3.10,0.69,2.07,2.76,2.76,5.00,6.21,5.69,7.24,5.34,,,,,,,,,,,,,,
1799999996041864891,2027-01-15T07:59:56.041864891Z,0.86,2.07,0.17,1.38,2.59,0.69,2.41,3.97,1.55,7.24,2.59,6.03,5.00,5.69,,,,,,,,,,,,,,
1799999996051379639,2027-01-15T07:59:56.051379639Z,0.86,2.24,-1.03,1.21,3.45,0.86,1.90,4.66,1.38,6.55,4.14,5.34,4.14,5.69,,,,,,,,,,,,,,
1799999996060894387,2027-01-15T07:59:56.060894387Z,-1.03,-1.38,-1.72,2.76,0.34,0.69,2.24,2.07,3.28,5.00,4.66,5.69,2.41,6.38,,,,,,,,,,,,,,
1799999996070409135,2027-01-15T07:59:56.070409135Z,-0.52,-2.41,-1.38,2.76,-0.52,0.86,2.07,1.90,4.31,5.34,5.69,4.66,4.31,6.72,,,,,,,,,,,,,,
1799999996079923883,2027-01-15T07:59:56.079923883Z,-0.52,-0.34,-1.72,4.31,2.59,1.55,1.72,3.10,5.86,5.34,7.07,3.79,8.62,5.86,,,,,,,,,,,,,,
1799999996089438630,2027-01-15T07:59:56.089438630Z,-0.86,0.52,-2.24,2.07,2.41,3.28,2.76,1.55,4.48,3.45,5.00,5.00,8.28,4.83,,,,,,,,,,,,,,
1799999996098953378,2027-01-15T07:59:56.098953378Z,-0.86,1.38,-0.52,-2.07,1.03,5.52,2.07,1.21,4.31,3.79,3.28,4.31,6.21,3.62,,,,,,,,,,,,,,
1799999996108468126,2027-01-15T07:59:56.108468126Z,-0.52,0.00,0.86,-1.38,0.69,2.76,1.72,2.93,3.45,4.48,2.41,5.00,6.21,4.31,,,,,,,,,,,,,,
1799999996117982874,2027-01-15T07:59:56.117982874Z,0.00,-1.03,0.69,0.17,0.52,0.86,1.90,3.10,2.76,4.14,2.59,5.34,6.38,5.17,,,,,,,,,,,,,,
1799999996127497622,2027-01-15T07:59:56.127497622Z,0.00,-1.21,0.69,1.55,1.55,-1.03,2.07,1.38,2.07,3.62,4.66,3.28,7.59,6.90,,,,,,,,,,,,,,
1799999996137012370,2027-01-15T07:59:56.137012370Z,0.34,-1.38,1.55,1.90,2.07,-1.21,1.72,1.21,2.41,4.14,6.72,3.10,7.59,6.55,,,,,,,,,,,,,,
1799999996146527118,2027-01-15T07:59:56.146527118Z,-0.69,0.17,0.17,-0.34,2.07,-1.90,2.24,1.90,3.62,3.79,6.03,4.31,6.72,6.38,,,,,,,,,,,,,,
1799999996156041865,2027-01-15T07:59:56.156041865Z,-0.52,1.55,1.21,0.52,1.55,-0.17,1.03,1.90,3.79,4.83,4.14,3.97,7.24,6.72,,,,,,,,,,,,,,
1799999996165556613,2027-01-15T07:59:56.165556613Z,3.10,0.00,1.90,1.72,0.86,0.86,2.07,2.41,3.62,5.34,2.93,3.97,6.90,7.07,,,,,,,,,,,,,,
1799999996175071361,2027-01-15T07:59:56.175071361Z,-1.55,-2.24,0.52,0.86,-0.69,1.90,3.97,2.93,4.31,5.52,2.24,3.62,5.52,7.24,,,,,,,,,,,,,,
1799999996184586109,2027-01-15T07:59:56.184586109Z,-1.03,-1.90,0.00,2.24,-0.69,1.21,4.31,2.07,4.66,4.66,2.24,4.66,4.48,6.21,,,,,,,,,,,,,,
1799999996194100857,2027-01-15T07:59:56.194100857Z,0.86,-0.69,-0.52,1.21,0.34,2.41,2.07,2.24,4.83,2.59,4.31,4.31,5.17,6.03,,,,,,,,,,,,,,
1799999996203615605,2027-01-15T07:59:56.203615605Z,0.17,-1.55,-1.03,0.52,0.69,2.41,1.55,2.24,3.79,2.59,3.79,3.97,5.69,6.03,,,,,,,,,,,,,,
1799999996213130353,2027-01-15T07:59:56.213130353Z,-0.34,-2.41,0.17,1.90,0.86,0.17,3.10,2.07,1.90,4.48,0.69,5.17,6.72,4.83,,,,,,,,,,,,,,
1799999996222645100,2027-01-15T07:59:56.222645100Z,-1.03,-0.86,1.21,2.07,0.52,0.17,3.79,1.90,2.76,5.52,1.38,5.00,6.21,5.17,,,,,,,,,,,,,,
1799999996232159848,2027-01-15T07:59:56.232159848Z,-4.83,0.17,1.03,0.17,1.03,2.41,2.59,2.59,3.62,6.90,4.14,3.62,5.34,5.69,,,,,,,,,,,,,,
1799999996241674596,2027-01-15T07:59:56.241674596Z,-2.24,-0.86,-0.52,-0.69,1.38,2.41,1.03,3.97,3.45,6.55,3.79,4.83,6.72,5.00,,,,,,,,,,,,,,
1799999996251189344,2027-01-15T07:59:56.251189344Z,-0.69,-1.21,0.00,0.00,1.38,1.55,0.52,4.14,4.83,5.69,2.76,5.52,7.07,4.66,,,,,,,,,,,,,,
1799999996260704092,2027-01-15T07:59:56.260704092Z,-1.90,-0.52,1.03,1.03,1.72,0.52,1.72,3.28,7.24,4.48,3.62,4.31,5.52,5.00,,,,,,,,,,,,,,
1799999996270218840,2027-01-15T07:59:56.270218840Z,-1.90,-0.86,-0.17,1.90,1.38,1.72,2.07,4.48,6.55,2.93,3.97,4.14,5.52,4.14,,,,,,,,,,,,,,
1799999996279733588,2027-01-15T07:59:56.279733588Z,1.72,-1.72,-0.34,1.03,1.55,1.21,1.21,4.31,4.83,3.28,2.76,5.69,4.31,4.48,,,,,,,,,,,,,,
1799999996289248335,2027-01-15T07:59:56.289248335Z,-0.69,-0.52,0.00,0.86,0.86,0.86,1.21,3.45,4.14,3.10,5.00,5.52,3.28,5.17,,,,,,,,,,,,,,
1799999996298763083,2027-01-15T07:59:56.298763083Z,-1.03,1.03,0.00,1.21,-0.69,1.72,0.69,1.38,3.10,2.41,7.76,2.93,3.79,5.69,,,,,,,,,,,,,,
1799999996308277831,2027-01-15T07:59:56.308277831Z,,-0.69,0.00,0.17,-1.55,2.59,1.03,2.59,2.59,3.10,5.86,2.24,5.00,5.52,,,,,,,,,,,,,,
1799999996317792579,2027-01-15T07:59:56.317792579Z,-0.52,-1.90,-0.17,-1.21,-0.52,1.72,1.90,2.41,2.07,3.62,4.66,4.66,5.17,6.38,,,,,,,,,,,,,,
1799999996327307327,2027-01-15T07:59:56.327307327Z,1.55,-1.21,-0.86,-1.03,1.21,2.59,2.07,1.38,1.38,3.45,4.48,5.00,4.14,5.17,,,,,,,,,,,,,,
1799999996336822075,2027-01-15T07:59:56.336822075Z,-2.07,-1.21,-1.21,-0.69,2.07,3.28,2.07,2.24,1.55,3.28,4.48,4.48,4.31,5.69,,,,,,,,,,,,,,
1799999996346336823,2027-01-15T07:59:56.346336823Z,-4.31,-0.52,-0.17,0.00,2.24,2.76,1.55,5.00,2.59,3.45,4.31,4.31,4.66,8.28,,,,,,,,,,,,,,
1799999996355851570,2027-01-15T07:59:56.355851570Z,-3.10,0.69,1.38,0.17,1.55,2.93,0.17,5.34,5.00,2.93,5.17,3.45,4.48,7.93,,,,,,,,,,,,,,
1799999996365366318,2027-01-15T07:59:56.365366318Z,0.00,0.69,0.00,0.86,-1.21,1.72,1.90,5.17,4.48,2.59,4.83,3.79,5.34,7.59,,,,,,,,,,,,,,
1799999996374881066,2027-01-15T07:59:56.374881066Z,0.52,1.03,-0.52,0.34,0.00,2.24,2.76,5.34,2.76,2.76,3.97,4.83,5.34,7.93,,,,,,,,,,,,,,
1799999996384395814,2027-01-15T07:59:56.384395814Z,-1.03,-0.17,0.86,-0.86,2.24,3.28,3.28,3.97,0.69,3.45,2.76,6.21,5.69,6.90,,,,,,,,,,,,,,
1799999996393910562,2027-01-15T07:59:56.393910562Z,-1.38,-1.21,1.03,-0.17,0.52,1.55,2.24,2.41,2.59,4.14,2.41,5.17,5.00,5.86,,,,,,,,,,,,,,
1799999996403425310,2027-01-15T07:59:56.403425310Z,-1.21,1.38,1.72,0.00,1.21,0.17,1.55,2.24,5.86,4.48,3.10,4.14,4.31,5.69,,,,,,,,,,,,,,
1799999996412940058,2027-01-15T07:59:56.412940058Z,-1.55,1.38,-0.52,1.72,1.55,1.38,1.21,3.97,2.93,2.93,4.48,4.83,4.31,6.21,,,,,,,,,,,,,,
1799999996422454805,2027-01-15T07:59:56.422454805Z,-3.97,0.17,-2.07,2.07,1.03,2.24,1.21,4.48,0.86,2.59,4.66,5.69,4.31,6.03,,,,,,,,,,,,,,
1799999996431969553,2027-01-15T07:59:56.431969553Z,-1.55,-0.86,-1.55,0.00,-0.17,1.55,2.41,1.90,2.59,3.79,3.79,5.17,5.69,7.07,,,,,,,,,,,,,,
1799999996441484301,2027-01-15T07:59:56.441484301Z,0.00,-1.55,0.17,-1.38,1.90,1.90,2.93,0.34,3.45,4.48,1.90,4.14,6.72,7.41,,,,,,,,,,,,,,
1799999996450999049,2027-01-15T07:59:56.450999049Z,-0.69,-1.72,0.52,-0.52,2.93,2.59,2.41,2.24,1.72,3.97,2.59,4.31,6.03,5.86,,,,,,,,,,,,,,
1799999996460513797,2027-01-15T07:59:56.460513797Z,-2.41,0.00,-0.52,1.72,1.55,1.72,2.07,3.79,1.72,3.97,5.34,5.86,6.55,5.52,,,,,,,,,,,,,,
1799999996470028545,2027-01-15T07:59:56.470028545Z,-2.07,-0.17,-1.55,2.24,1.38,1.21,0.52,3.10,2.07,4.48,5.69,6.21,6.21,5.52,,,,,,,,,,,,,,
1799999996479543293,2027-01-15T07:59:56.479543293Z,-0.34,-0.34,-2.07,1.55,2.41,0.52,-1.03,2.07,2.76,5.52,4.83,5.34,3.79,6.03,,,,,,,,,,,,,,
1799999996489058040,2027-01-15T07:59:56.489058040Z,0.34,0.52,0.69,-0.17,1.72,2.59,0.17,2.59,1.72,4.83,5.52,5.52,2.59,7.24,,,,,,,,,,,,,,
1799999996498572788,2027-01-15T07:59:56.498572788Z,-0.86,0.34,0.34,-0.52,2.41,3.45,0.52,0.86,2.41,5.34,3.97,5.00,1.03,6.55,,,,,,,,,,,,,,
1799999996508087536,2027-01-15T07:59:56.508087536Z,-0.34,0.52,-0.34,-0.52,2.59,3.28,0.86,0.86,3.28,5.00,2.93,4.66,0.86,6.90,,,,,,,,,,,,,,
1799999996517602284,2027-01-15T07:59:56.517602284Z,-0.86,0.00,-0.86,-0.69,1.21,3.62,2.59,3.28,5.00,3.79,3.62,4.14,4.14,6.90,,,,,,,,,,,,,,
1799999996527117032,2027-01-15T07:59:56.527117032Z,-1.55,-1.55,-2.59,-1.55,1.21,2.76,2.93,2.41,4.48,3.45,3.79,5.00,6.21,4.66,,,,,,,,,,,,,,
1799999996536631780,2027-01-15T07:59:56.536631780Z,-2.93,-1.72,-2.24,-0.34,2.24,1.03,1.03,0.86,2.76,2.41,2.76,6.38,5.69,4.14,,,,,,,,,,,,,,
1799999996546146528,2027-01-15T07:59:56.546146528Z,0.17,-1.90,-0.17,-0.86,-0.52,1.21,-0.17,1.21,2.59,3.10,3.79,6.21,6.90,5.69,,,,,,,,,,,,,,
1799999996555661275,2027-01-15T07:59:56.555661275Z,0.69,-0.52,0.69,-1.38,-0.69,1.03,0.52,1.72,2.93,3.79,4.14,5.52,6.38,6.90,,,,,,,,,,,,,,
1799999996565176023,2027-01-15T07:59:56.565176023Z,,2.24,1.72,0.17,1.55,0.52,1.90,1.90,2.24,4.14,3.45,4.14,5.34,7.41,,,,,,,,,,,,,,
1799999996574690771,2027-01-15T07:59:56.574690771Z,0.52,2.93,2.24,1.03,0.69,2.07,0.52,2.76,2.93,3.62,5.69,5.86,6.55,6.72,,,,,,,,,,,,,,
1799999996584205519,2027-01-15T07:59:56.584205519Z,1.55,-0.69,0.86,-0.34,0.52,1.90,0.52,4.14,4.14,4.83,6.72,5.34,6.03,6.72,,,,,,,,,,,,,,
1799999996593720267,2027-01-15T07:59:56.593720267Z,1.03,-2.41,0.00,-0.52,0.86,1.38,1.38,4.66,4.48,4.66,7.07,4.14,6.55,7.07,,,,,,,,,,,,,,
1799999996603235015,2027-01-15T07:59:56.603235015Z,0.69,-3.62,-1.21,0.34,2.07,1.55,3.28,3.79,3.62,2.76,7.41,3.28,7.93,6.55,,,,,,,,,,,,,,
1799999996612749763,2027-01-15T07:59:56.612749763Z,0.69,-2.24,-1.21,-0.34,2.07,0.17,4.14,2.93,1.72,3.62,5.69,4.48,7.07,5.69,,,,,,,,,,,,,,
1799999996622264510,2027-01-15T07:59:56.622264510Z,-2.07,-1.03,-0.34,0.69,2.24,-1.55,3.10,2.76,1.72,6.55,5.17,5.86,6.38,6.03,,,,,,,,,,,,,,
1799999996631779258,2027-01-15T07:59:56.631779258Z,0.34,-0.69,-0.69,2.07,2.07,1.21,2.41,2.07,2.93,5.69,5.34,5.52,5.69,6.72,,,,,,,,,,,,,,
1799999996641294006,2027-01-15T07:59:56.641294006Z,0.86,-0.69,-1.21,1.90,2.07,3.45,2.24,2.07,3.62,4.31,4.83,5.17,5.17,6.90,,,,,,,,,,,,,,
1799999996650808754,2027-01-15T07:59:56.650808754Z,-0.69,-0.34,-0.69,1.90,1.72,3.28,2.41,3.28,3.10,3.10,4.14,5.86,5.34,6.38,,,,,,,,,,,,,,
1799999996660323502,2027-01-15T07:59:56.660323502Z,-0.34,-0.17,0.00,0.34,1.90,2.93,3.45,2.93,0.69,2.41,6.03,5.34,7.07,5.34,,,,,,,,,,,,,,
1799999996669838250,2027-01-15T07:59:56.669838250Z,1.38,-0.34,0.69,1.03,0.34,1.72,1.90,1.55,2.41,2.76,5.34,4.31,6.38,5.86,,,,,,,,,,,,,,
1799999996679352998,2027-01-15T07:59:56.679352998Z,-1.03,-1.03,1.03,1.21,0.86,1.38,1.90,2.41,4.31,3.97,4.48,3.79,5.86,6.38,,,,,,,,,,,,,,
1799999996688867746,2027-01-15T07:59:56.688867746Z,-1.38,-0.69,1.55,0.17,1.90,1.03,2.93,4.66,3.97,5.34,3.97,4.31,5.86,6.03,,,,,,,,,,,,,,
1799999996698382493,2027-01-15T07:59:56.698382493Z,0.17,-0.34,1.21,-1.21,1.38,0.69,2.07,3.97,2.93,4.31,2.93,5.17,5.69,5.69,,,,,,,,,,,,,,
1799999996707897241,2027-01-15T07:59:56.707897241Z,0.00,-0.17,0.86,-0.86,1.90,1.72,1.55,2.59,2.93,3.28,2.59,6.21,5.17,6.38,,,,,,,,,,,,,,
1799999996717411989,2027-01-15T07:59:56.717411989Z,0.34,-0.17,0.34,-0.34,1.55,2.24,2.59,2.41,3.28,5.17,3.62,5.34,5.52,6.90,,,,,,,,,,,,,,
1799999996726926737,2027-01-15T07:59:56.726926737Z,0.86,0.52,0.00,-0.69,1.38,2.93,3.28,3.28,2.93,3.62,3.62,4.48,5.17,6.38,,,,,,,,,,,,,,
1799999996736441485,2027-01-15T07:59:56.736441485Z,1.21,0.34,-0.52,-0.69,0.52,3.45,2.76,4.83,2.24,1.38,2.59,3.45,4.48,4.48,,,,,,,,,,,,,,
1799999996745956233,2027-01-15T07:59:56.745956233Z,0.52,-2.41,-1.55,0.52,-0.69,1.90,2.24,3.62,3.28,3.45,2.93,4.31,4.83,4.48,,,,,,,,,,,,,,
1799999996755470981,2027-01-15T07:59:56.755470981Z,-1.72,-1.90,-1.21,1.55,0.00,1.38,2.93,3.62,3.45,3.97,3.10,5.34,5.52,5.52,,,,,,,,,,,,,,
1799999996764985728,2027-01-15T07:59:56.764985728Z,0.52,-0.34,-0.52,1.90,1.21,0.34,2.93,2.41,3.45,5.00,3.28,6.03,6.38,6.21,,,,,,,,,,,,,,
1799999996774500476,2027-01-15T07:59:56.774500476Z,-0.34,-0.34,-1.03,1.72,0.86,0.52,2.59,2.76,3.79,5.69,3.10,6.55,5.86,6.21,,,,,,,,,,,,,,
1799999996784015224,2027-01-15T07:59:56.784015224Z,-0.17,0.17,-2.24,0.86,0.17,2.59,2.07,3.62,3.45,5.34,2.59,6.55,4.66,5.69,,,,,,,,,,,,,,
1799999996793529972,2027-01-15T07:59:56.793529972Z,0.86,0.69,-0.69,0.17,-0.17,2.76,1.72,1.72,2.07,3.45,2.76,5.52,4.66,5.86,,,,,,,,,,,,,,
1799999996803044720,2027-01-15T07:59:56.803044720Z,0.52,0.00,-0.17,-0.52,0.69,2.07,0.34,3.45,2.76,2.93,3.28,4.66,5.00,6.21,,,,,,,,,,,,,,
1799999996812559468,2027-01-15T07:59:56.812559468Z,-1.72,0.00,0.52,-0.52,0.52,1.03,0.34,4.66,2.93,3.28,4.48,4.66,5.34,5.69,,,,,,,,,,,,,,
1799999996822074216,2027-01-15T07:59:56.822074216Z,-1.72,-0.34,1.55,-0.17,-1.38,0.34,0.69,2.76,2.76,4.31,5.34,4.66,5.69,5.00,,,,,,,,,,,,,,
1799999996831588963,2027-01-15T07:59:56.831588963Z,-1.90,-0.34,1.55,0.69,-2.24,1.55,1.72,2.24,5.34,5.34,3.45,3.79,6.03,6.21,,,,,,,,,,,,,,
1799999996841103711,2027-01-15T07:59:56.841103711Z,-0.34,-1.21,0.86,1.90,-1.21,1.21,3.28,1.38,5.34,5.00,2.59,4.31,6.03,6.72,,,,,,,,,,,,,,
1799999996850618459,2027-01-15T07:59:56.850618459Z,-1.03,-0.86,1.55,0.86,-0.34,2.41,2.59,0.52,3.28,4.31,3.79,5.34,4.83,5.86,,,,,,,,,,,,,,
1799999996860133207,2027-01-15T07:59:56.860133207Z,-2.41,-0.86,0.52,0.00,0.17,3.28,2.59,0.34,2.93,4.66,2.59,5.00,5.17,5.34,,,,,,,,,,,,,,
1799999996869647955,2027-01-15T07:59:56.869647955Z,-1.21,-0.34,-0.52,0.17,0.69,1.55,2.76,2.24,1.21,4.31,0.86,4.31,6.55,5.34,,,,,,,,,,,,,,
1799999996879162703,2027-01-15T07:59:56.879162703Z,-0.69,0.52,2.07,2.41,0.69,0.86,2.59,5.00,1.03,3.45,2.93,5.17,5.86,4.83,,,,,,,,,,,,,,
1799999996888677451,2027-01-15T07:59:56.888677451Z,-0.86,-0.17,0.69,2.24,0.52,2.59,4.31,4.48,3.28,2.59,3.62,5.17,5.00,5.52,,,,,,,,,,,,,,
1799999996898192198,2027-01-15T07:59:56.898192198Z,0.17,-0.86,-0.86,1.72,1.03,1.38,4.48,3.62,5.00,2.07,3.45,4.14,5.52,5.69,,,,,,,,,,,,,,
1799999996907706946,2027-01-15T07:59:56.907706946Z,0.00,-0.34,0.00,1.55,1.72,-0.69,2.93,2.41,5.17,0.17,5.00,2.24,5.00,5.00,,,,,,,,,,,,,,
1799999996917221694,2027-01-15T07:59:56.917221694Z,-1.03,-1.21,0.34,0.52,0.69,1.03,2.41,-0.34,2.93,-0.34,6.21,2.24,1.72,5.86,,,,,,,,,,,,,,
1799999996926736442,2027-01-15T07:59:56.926736442Z,-1.21,-0.52,-0.86,0.52,-1.03,3.79,1.90,-1.03,2.41,2.07,5.52,3.97,-1.21,7.07,,,,,,,,,,,,,,
1799999996936251190,2027-01-15T07:59:56.936251190Z,-0.34,0.34,-0.52,0.52,-0.34,5.34,0.86,0.17,4.14,5.34,4.66,4.66,3.62,8.10,,,,,,,,,,,,,,
1799999996945765938,2027-01-15T07:59:56.945765938Z,-2.24,0.00,-0.34,1.03,0.34,4.83,1.55,1.21,3.79,6.55,4.14,4.14,7.76,8.79,,,,,,,,,,,,,,
1799999996955280686,2027-01-15T07:59:56.955280686Z,0.69,-0.17,-0.52,1.90,0.52,2.59,1.90,2.24,2.41,6.55,3.28,2.93,6.03,8.79,,,,,,,,,,,,,,
1799999996964795433,2027-01-15T07:59:56.964795433Z,1.55,-0.17,1.38,1.55,2.41,1.90,0.34,1.90,2.07,4.48,3.10,3.97,7.24,6.21,,,,,,,,,,,,,,
1799999996974310181,2027-01-15T07:59:56.974310181Z,-0.52,-0.86,1.03,0.69,1.72,1.38,1.21,2.59,1.38,4.31,2.93,5.69,7.07,6.38,,,,,,,,,,,,,,
1799999996983824929,2027-01-15T07:59:56.983824929Z,-0.86,-0.86,0.00,0.34,0.86,1.55,2.24,3.45,1.38,4.31,3.28,5.69,7.07,6.21,,,,,,,,,,,,,,
1799999996993339677,2027-01-15T07:59:56.993339677Z,-3.10,0.52,-1.55,1.38,1.21,1.38,2.93,4.31,1.38,3.62,3.97,3.97,4.83,5.34,,,,,,,,,,,,,,
1799999997002854425,2027-01-15T07:59:57.002854425Z,-2.76,1.03,-1.38,1.72,1.03,1.72,4.48,3.10,2.93,4.31,4.31,4.66,0.52,5.69,,,,,,,,,,,,,,
1799999997012369173,2027-01-15T07:59:57.012369173Z,-0.34,0.69,-1.55,-0.52,0.52,2.41,3.79,2.07,5.00,4.14,4.66,6.38,2.41,6.21,,,,,,,,,,,,,,
1799999997021883921,2027-01-15T07:59:57.021883921Z,0.17,0.52,-0.52,-1.21,2.59,3.10,0.86,4.14,4.31,3.62,3.62,5.34,5.34,5.69,,,,,,,,,,,,,,
1799999997031398668,2027-01-15T07:59:57.031398668Z,2.24,0.52,0.34,-0.69,3.79,2.59,1.21,5.34,2.76,4.14,5.00,4.66,5.34,5.52,,,,,,,,,,,,,,
1799999997040913416,2027-01-15T07:59:57.040913416Z,-0.34,1.72,1.03,-1.21,2.59,1.21,2.41,3.97,2.24,4.66,6.55,5.00,5.69,5.52,,,,,,,,,,,,,,
1799999997050428164,2027-01-15T07:59:57.050428164Z,-0.52,1.38,0.86,0.17,2.93,0.34,0.34,3.79,2.76,4.14,5.17,5.17,5.17,6.03,,,,,,,,,,,,,,
1799999997059942912,2027-01-15T07:59:57.059942912Z,-0.86,-1.38,0.17,1.72,2.24,1.21,0.17,3.28,3.10,5.17,5.17,5.17,4.31,5.86,,,,,,,,,,,,,,
1799999997069457660,2027-01-15T07:59:57.069457660Z,-1.90,-1.38,-0.17,0.86,0.17,2.41,2.76,2.93,2.59,2.59,5.52,5.00,5.86,5.69,,,,,,,,,,,,,,
1799999997078972408,2027-01-15T07:59:57.078972408Z,-3.28,-0.34,-0.34,1.55,-0.17,2.07,4.66,2.76,3.62,1.38,5.00,5.00,6.03,6.55,,,,,,,,,,,,,,
1799999997088487156,2027-01-15T07:59:57.088487156Z,-1.38,2.41,-0.86,1.90,1.03,0.69,4.66,1.38,5.86,4.31,3.45,5.34,4.83,7.93,,,,,,,,,,,,,,
1799999997098001903,2027-01-15T07:59:57.098001903Z,0.34,1.72,-1.21,-0.52,1.55,0.69,3.45,2.07,4.83,4.31,1.55,4.83,5.34,6.38,,,,,,,,,,,,,,
1799999997107516651,2027-01-15T07:59:57.107516651Z,-0.17,0.17,-0.34,0.00,1.21,1.03,0.69,3.97,2.76,2.41,2.07,5.17,5.69,5.69,,,,,,,,,,,,,,
1799999997117031399,2027-01-15T07:59:57.117031399Z,-0.34,-1.21,-0.69,0.86,1.21,1.38,-0.34,3.97,2.07,1.03,3.28,5.69,5.69,5.86,,,,,,,,,,,,,,
1799999997126546147,2027-01-15T07:59:57.126546147Z,-0.86,-3.10,-1.72,1.03,1.55,1.90,1.55,4.31,1.03,-0.17,4.66,6.55,7.07,4.83,,,,,,,,,,,,,,
1799999997136060895,2027-01-15T07:59:57.136060895Z,-0.52,0.00,-0.34,2.24,1.21,1.72,2.59,4.31,1.21,0.86,6.38,5.69,4.14,2.93,,,,,,,,,,,,,,
1799999997145575643,2027-01-15T07:59:57.145575643Z,0.86,0.17,0.00,1.90,0.69,1.03,1.72,3.10,3.62,3.97,6.21,5.86,0.17,3.97,,,,,,,,,,,,,,
1799999997155090391,2027-01-15T07:59:57.155090391Z,-1.72,0.69,-1.55,0.69,-0.34,0.17,1.90,1.38,3.10,5.17,4.66,6.38,2.93,4.66,,,,,,,,,,,,,,
1799999997164605138,2027-01-15T07:59:57.164605138Z,0.00,1.03,-1.38,1.21,-0.17,0.86,2.41,0.69,2.76,5.86,3.97,6.21,5.00,4.83,,,,,,,,,,,,,,
1799999997174119886,2027-01-15T07:59:57.174119886Z,-0.69,0.34,0.00,2.59,0.86,2.07,1.90,1.72,5.34,6.55,4.31,5.17,3.79,6.21,,,,,,,,,,,,,,
1799999997183634634,2027-01-15T07:59:57.183634634Z,-0.86,-0.69,0.00,2.07,1.55,0.86,1.72,3.45,5.34,3.79,4.66,5.34,6.03,7.41,,,,,,,,,,,,,,
1799999997193149382,2027-01-15T07:59:57.193149382Z,1.03,-3.62,-0.52,1.21,1.72,-0.69,2.59,2.07,3.45,3.62,4.66,4.83,6.72,8.10,,,,,,,,,,,,,,
1799999997202664130,2027-01-15T07:59:57.202664130Z,-0.52,-2.76,-0.17,-0.34,1.38,-0.34,3.45,2.76,3.62,4.31,4.83,4.66,5.86,7.93,,,,,,,,,,,,,,
1799999997212178878,2027-01-15T07:59:57.212178878Z,-0.69,-0.34,1.21,-1.55,0.86,0.00,3.45,5.00,2.59,2.07,5.34,5.17,6.21,7.59,,,,,,,,,,,,,,
1799999997221693626,2027-01-15T07:59:57.221693626Z,-4.31,-1.90,1.38,0.17,1.21,-0.17,0.86,4.14,0.86,3.28,4.66,4.31,7.24,6.55,,,,,,,,,,,,,,
1799999997231208373,2027-01-15T07:59:57.231208373Z,-2.93,-2.24,1.90,0.69,2.07,2.41,-0.17,2.76,3.45,4.66,4.31,3.62,7.41,4.48,,,,,,,,,,,,,,
1799999997240723121,2027-01-15T07:59:57.240723121Z,-0.17,-1.38,2.07,1.55,2.24,3.97,1.03,2.07,2.76,5.00,4.48,5.34,5.69,5.17,,,,,,,,,,,,,,
1799999997250237869,2027-01-15T07:59:57.250237869Z,0.34,-1.21,1.55,2.07,1.38,3.45,1.38,2.41,1.21,5.17,4.48,5.34,5.00,6.38,,,,,,,,,,,,,,
1799999997259752617,2027-01-15T07:59:57.259752617Z,0.52,-1.03,0.86,2.59,0.00,1.90,1.72,3.62,2.24,6.21,3.97,5.17,5.69,5.69,,,,,,,,,,,,,,
1799999997269267365,2027-01-15T07:59:57.269267365Z,-0.17,-1.55,0.86,0.52,-0.34,3.28,2.93,3.28,1.55,6.03,4.31,6.38,5.69,5.00,,,,,,,,,,,,,,
1799999997278782113,2027-01-15T07:59:57.278782113Z,-2.07,-1.03,-1.38,1.38,0.86,1.72,3.62,1.72,3.45,5.86,5.17,4.66,5.86,4.48,,,,,,,,,,,,,,
1799999997288296861,2027-01-15T07:59:57.288296861Z,-3.10,-0.86,-0.17,1.72,1.72,0.86,3.97,1.90,4.31,5.00,4.48,4.83,5.86,5.00,,,,,,,,,,,,,,
1799999997297811608,2027-01-15T07:59:57.297811608Z,-1.38,-0.52,0.17,0.52,3.28,0.34,3.45,3.10,4.31,3.10,3.28,6.55,5.34,6.03,,,,,,,,,,,,,,
1799999997307326356,2027-01-15T07:59:57.307326356Z,0.52,-1.72,-2.59,0.17,3.10,2.07,1.72,3.28,2.76,2.93,3.62,5.86,6.21,5.86,,,,,,,,,,,,,,
1799999997316841104,2027-01-15T07:59:57.316841104Z,-0.34,-2.07,-0.34,-0.86,2.07,2.59,2.24,1.38,2.24,4.31,3.97,4.66,7.41,5.17,,,,,,,,,,,,,,
1799999997326355852,2027-01-15T07:59:57.326355852Z,-0.52,-1.03,0.86,-0.69,2.07,2.24,2.93,2.59,3.79,3.62,5.00,2.93,6.21,5.00,,,,,,,,,,,,,,
1799999997335870600,2027-01-15T07:59:57.335870600Z,-1.55,-0.52,0.34,-0.52,1.03,2.07,2.76,3.10,3.79,3.79,5.34,3.45,5.69,5.00,,,,,,,,,,,,,,
1799999997345385348,2027-01-15T07:59:57.345385348Z,1.21,-0.52,0.52,-1.03,-0.69,2.24,1.38,3.28,2.76,4.83,4.48,5.86,7.24,5.52,,,,,,,,,,,,,,
1799999997354900096,2027-01-15T07:59:57.354900096Z,-2.41,-1.72,0.00,0.00,-0.52,2.07,1.38,1.03,2.76,3.28,4.83,6.03,5.86,7.07,,,,,,,,,,,,,,
1799999997364414844,2027-01-15T07:59:57.364414844Z,-1.03,-1.21,-1.03,1.03,-0.17,2.41,1.55,0.34,1.38,2.24,4.83,4.66,4.66,8.45,,,,,,,,,,,,,,
1799999997373929591,2027-01-15T07:59:57.373929591Z,0.86,-1.03,-0.17,-0.17,-0.17,2.41,2.07,2.76,2.59,3.28,3.62,4.83,4.14,7.24,,,,,,,,,,,,,,
1799999997383444339,2027-01-15T07:59:57.383444339Z,-0.69,-1.55,0.34,-0.86,0.00,2.07,1.90,4.14,3.45,4.31,4.31,5.34,2.76,6.72,,,,,,,,,,,,,,
1799999997392959087,2027-01-15T07:59:57.392959087Z,0.00,-1.72,-1.21,-0.69,-0.52,1.21,2.07,3.97,4.31,3.79,5.00,5.86,2.07,7.07,,,,,,,,,,,,,,
1799999997402473835,2027-01-15T07:59:57.402473835Z,-3.10,-2.07,-3.45,-0.17,0.17,-0.17,3.62,2.59,3.62,2.59,3.45,6.55,7.93,6.21,,,,,,,,,,,,,,
1799999997411988583,2027-01-15T07:59:57.411988583Z,-1.03,-0.86,-1.55,0.86,1.38,0.00,1.21,3.10,4.14,2.93,5.86,5.34,5.17,5.86,,,,,,,,,,,,,,
1799999997421503331,2027-01-15T07:59:57.421503331Z,1.90,-2.59,-0.69,0.17,1.03,0.52,0.86,3.10,3.45,2.59,6.55,6.38,2.76,5.86,,,,,,,,,,,,,,
1799999997431018079,2027-01-15T07:59:57.431018079Z,-0.17,-2.59,-0.52,-0.52,0.00,1.55,3.97,3.28,3.28,2.07,3.28,7.41,4.31,5.00,,,,,,,,,,,,,,
1799999997440532826,2027-01-15T07:59:57.440532826Z,2.93,1.03,-1.03,0.52,0.86,2.76,3.10,3.79,5.34,5.00,2.93,3.97,6.55,5.17,,,,,,,,,,,,,,
1799999997450047574,2027-01-15T07:59:57.450047574Z,-1.38,0.17,-0.17,0.00,1.38,2.59,1.03,4.14,4.48,7.07,5.52,2.07,5.34,7.24,,,,,,,,,,,,,,
1799999997459562322,2027-01-15T07:59:57.459562322Z,-1.38,0.86,0.86,0.00,-0.69,0.69,1.72,2.76,2.93,5.52,4.14,3.97,6.03,5.34,,,,,,,,,,,,,,
1799999997469077070,2027-01-15T07:59:57.469077070Z,-1.38,1.90,1.03,0.34,-1.55,-0.17,2.24,1.90,2.93,4.83,3.10,5.52,6.21,4.31,,,,,,,,,,,,,,
1799999997478591818,2027-01-15T07:59:57.478591818Z,-1.03,-1.21,-0.34,-0.34,0.52,0.17,1.38,1.72,1.90,3.97,5.17,6.03,4.48,6.90,,,,,,,,,,,,,,
1799999997488106566,2027-01-15T07:59:57.488106566Z,-0.86,-2.59,-1.38,-1.38,1.72,-0.17,1.38,0.86,0.86,4.14,4.83,5.69,4.83,6.72,,,,,,,,,,,,,,
1799999997497621314,2027-01-15T07:59:57.497621314Z,-1.38,-0.86,-0.86,0.34,1.03,0.69,2.24,2.07,3.28,3.28,2.93,4.66,5.00,6.03,,,,,,,,,,,,,,
1799999997507136061,2027-01-15T07:59:57.507136061Z,0.17,-0.52,-0.86,2.07,1.03,1.38,2.07,2.76,4.66,3.10,3.10,4.31,4.83,5.34,,,,,,,,,,,,,,
1799999997516650809,2027-01-15T07:59:57.516650809Z,1.38,0.52,-1.90,3.45,2.59,2.76,2.59,2.24,5.69,4.66,5.34,4.31,3.45,5.17,,,,,,,,,,,,,,
1799999997526165557,2027-01-15T07:59:57.526165557Z,-1.21,1.90,-1.21,2.93,2.93,2.41,3.97,3.79,5.00,6.21,5.00,4.66,1.55,6.21,,,,,,,,,,,,,,
1799999997535680305,2027-01-15T07:59:57.535680305Z,-1.21,1.21,1.21,1.03,1.38,2.41,3.45,3.97,5.69,3.97,1.90,5.17,4.14,6.03,,,,,,,,,,,,,,
1799999997545195053,2027-01-15T07:59:57.545195053Z,-2.07,0.00,1.38,-1.21,2.24,1.90,3.10,2.76,3.97,2.41,3.45,5.52,6.38,6.55,,,,,,,,,,,,,,
1799999997554709801,2027-01-15T07:59:57.554709801Z,0.52,0.52,0.86,0.17,2.76,1.21,3.10,2.76,2.76,2.93,5.00,5.52,6.38,7.07,,,,,,,,,,,,,,
1799999997564224549,2027-01-15T07:59:57.564224549Z,0.69,1.38,-1.03,2.76,1.55,0.17,2.41,2.24,3.79,5.00,2.76,5.52,6.72,6.55,,,,,,,,,,,,,,
1799999997573739296,2027-01-15T07:59:57.573739296Z,-1.72,0.34,-1.03,1.90,2.07,0.00,1.90,1.38,4.66,4.83,2.93,5.17,6.72,5.52,,,,,,,,,,,,,,
1799999997583254044,2027-01-15T07:59:57.583254044Z,-0.69,-0.86,-0.34,0.86,1.21,1.38,2.76,2.07,3.97,3.97,4.31,3.62,4.31,6.55,,,,,,,,,,,,,,
1799999997592768792,2027-01-15T07:59:57.592768792Z,-0.69,-0.69,0.52,0.34,1.03,2.59,3.10,2.59,3.79,3.28,4.66,2.76,3.62,7.07,,,,,,,,,,,,,,
1799999997602283540,2027-01-15T07:59:57.602283540Z,2.41,-0.69,0.17,-0.69,2.07,2.59,3.10,2.76,4.83,2.24,4.14,3.62,1.55,6.90,,,,,,,,,,,,,,
1799999997611798288,2027-01-15T07:59:57.611798288Z,-1.21,-2.07,-0.52,0.52,2.24,1.72,1.55,3.28,5.34,2.76,3.97,4.48,3.62,5.17,,,,,,,,,,,,,,
1799999997621313036,2027-01-15T07:59:57.621313036Z,-0.86,-2.24,0.00,1.38,1.90,1.03,1.38,2.76,4.83,2.76,3.10,5.34,7.76,4.31,,,,,,,,,,,,,,
1799999997630827784,2027-01-15T07:59:57.630827784Z,-1.72,-0.69,1.90,0.00,0.17,0.17,2.24,2.24,3.45,2.59,4.31,4.66,7.93,5.52,,,,,,,,,,,,,,
1799999997640342531,2027-01-15T07:59:57.640342531Z,-0.17,0.17,2.07,-0.34,1.03,0.17,2.59,2.76,2.76,2.76,4.48,3.62,6.38,5.86,,,,,,,,,,,,,,
1799999997649857279,2027-01-15T07:59:57.649857279Z,0.00,1.21,0.00,0.52,2.41,2.24,1.90,3.45,3.62,2.76,2.24,2.59,5.86,4.31,,,,,,,,,,,,,,
1799999997659372027,2027-01-15T07:59:57.659372027Z,-1.21,0.52,0.17,0.52,1.03,3.10,1.38,1.90,3.97,3.62,2.76,2.41,5.34,4.48,,,,,,,,,,,,,,
1799999997668886775,2027-01-15T07:59:57.668886775Z,-0.86,-0.17,2.07,1.21,1.90,1.90,1.21,2.24,4.14,3.45,5.69,4.31,6.38,6.03,,,,,,,,,,,,,,
1799999997678401523,2027-01-15T07:59:57.678401523Z,-1.03,0.34,-0.34,1.38,-0.52,1.55,1.72,5.00,4.83,2.24,5.52,6.38,5.00,5.86,,,,,,,,,,,,,,
1799999997687916271,2027-01-15T07:59:57.687916271Z,0.17,0.34,-1.72,1.21,-1.21,1.55,2.24,5.69,4.14,0.69,4.31,6.38,4.66,5.69,,,,,,,,,,,,,,
1799999997697431019,2027-01-15T07:59:57.697431019Z,0.86,1.21,0.17,2.07,-0.69,0.86,2.76,5.00,2.07,0.00,2.93,4.83,3.45,6.90,,,,,,,,,,,,,,
1799999997706945766,2027-01-15T07:59:57.706945766Z,1.21,1.55,0.17,2.41,2.07,1.55,1.72,4.31,1.03,2.93,1.90,5.17,1.03,5.86,,,,,,,,,,,,,,
1799999997716460514,2027-01-15T07:59:57.716460514Z,-0.86,0.17,-1.90,0.69,1.03,2.93,1.72,2.59,1.38,6.21,3.28,6.21,5.00,5.69,,,,,,,,,,,,,,
1799999997725975262,2027-01-15T07:59:57.725975262Z,0.00,0.34,-2.24,-0.52,1.72,3.62,1.90,2.76,1.03,6.90,4.14,5.86,7.93,6.03,,,,,,,,,,,,,,
1799999997735490010,2027-01-15T07:59:57.735490010Z,1.72,1.21,0.00,-1.90,2.41,2.76,1.38,4.48,0.69,5.86,3.28,5.00,5.69,5.17,,,,,,,,,,,,,,
1799999997745004758,2027-01-15T07:59:57.745004758Z,-1.90,0.52,-0.69,-1.03,1.21,0.34,0.17,4.48,2.24,4.83,4.66,5.86,6.03,5.69,,,,,,,,,,,,,,
1799999997754519506,2027-01-15T07:59:57.754519506Z,-2.41,0.34,-2.07,0.17,2.07,0.69,-0.34,2.76,2.59,3.28,6.38,6.21,6.21,6.21,,,,,,,,,,,,,,
1799999997764034254,2027-01-15T07:59:57.764034254Z,-1.03,-1.03,0.34,0.86,1.21,2.59,0.34,2.07,0.86,1.90,5.34,5.34,7.24,6.55,,,,,,,,,,,,,,
1799999997773549001,2027-01-15T07:59:57.773549001Z,0.34,-1.55,-0.34,1.90,1.03,2.93,0.00,2.24,2.41,2.41,4.48,5.17,6.55,7.24,,,,,,,,,,,,,,
1799999997783063749,2027-01-15T07:59:57.783063749Z,-0.17,-0.34,-3.10,1.55,2.59,2.59,-1.03,2.41,4.66,3.97,4.66,6.03,5.86,8.97,,,,,,,,,,,,,,
1799999997792578497,2027-01-15T07:59:57.792578497Z,-1.03,0.00,-0.86,-1.21,1.90,2.41,-0.34,3.45,2.93,3.28,3.79,6.72,5.52,8.10,,,,,,,,,,,,,,
1799999997802093245,2027-01-15T07:59:57.802093245Z,-3.62,-1.38,-1.03,-1.21,0.34,2.59,0.34,3.62,4.48,3.28,4.31,7.24,2.24,8.28,,,,,,,,,,,,,,
1799999997811607993,2027-01-15T07:59:57.811607993Z,-2.07,-1.72,-1.21,0.17,0.17,1.55,1.03,3.79,5.69,3.45,4.48,6.38,3.62,7.76,,,,,,,,,,,,,,
1799999997821122741,2027-01-15T07:59:57.821122741Z,-2.41,-1.55,0.86,1.21,0.34,0.52,2.24,4.66,4.48,3.45,4.14,5.00,7.41,6.55,,,,,,,,,,,,,,
1799999997830637489,2027-01-15T07:59:57.830637489Z,-1.90,-2.59,-1.21,0.86,-0.86,2.07,1.21,4.66,2.76,2.93,5.00,5.34,5.86,5.69,,,,,,,,,,,,,,
1799999997840152236,2027-01-15T07:59:57.840152236Z,-1.72,-2.76,-1.90,1.03,-1.38,2.76,-0.52,3.62,2.07,3.79,5.52,4.83,2.93,5.86,,,,,,,,,,,,,,
1799999997849666984,2027-01-15T07:59:57.849666984Z,-1.38,-0.17,0.69,3.10,-0.17,2.41,0.86,1.55,1.55,4.48,5.86,3.28,4.83,7.41,,,,,,,,,,,,,,
1799999997859181732,2027-01-15T07:59:57.859181732Z,-2.24,0.00,0.52,3.28,0.86,3.10,1.55,1.55,1.38,4.31,5.17,3.10,5.52,7.41,,,,,,,,,,,,,,
1799999997868696480,2027-01-15T07:59:57.868696480Z,-3.28,-2.07,-1.03,1.38,1.72,3.10,0.34,3.62,1.21,4.48,4.66,4.83,7.07,5.34,,,,,,,,,,,,,,
1799999997878211228,2027-01-15T07:59:57.878211228Z,-3.62,0.00,-0.17,1.03,1.03,1.38,1.21,3.28,1.21,5.52,5.17,5.52,5.69,4.83,,,,,,,,,,,,,,
1799999997887725976,2027-01-15T07:59:57.887725976Z,-1.38,1.03,-0.86,0.52,1.55,1.38,3.45,2.41,3.45,2.59,3.79,5.17,5.00,5.34,,,,,,,,,,,,,,
1799999997897240724,2027-01-15T07:59:57.897240724Z,-2.07,-0.17,-1.03,0.69,0.34,1.90,3.62,3.10,4.14,1.21,3.28,5.17,6.03,5.69,,,,,,,,,,,,,,
1799999997906755471,2027-01-15T07:59:57.906755471Z,-1.38,-2.41,0.86,1.72,-1.21,1.72,2.07,4.66,1.90,4.14,4.31,4.48,7.24,7.41,,,,,,,,,,,,,,
1799999997916270219,2027-01-15T07:59:57.916270219Z,0.52,-1.03,0.86,1.55,-0.34,1.90,2.41,3.62,1.03,5.17,3.79,3.97,6.55,6.72,,,,,,,,,,,,,,
1799999997925784967,2027-01-15T07:59:57.925784967Z,-0.52,-0.17,-0.17,0.34,0.34,2.76,2.41,2.93,2.76,3.79,4.14,4.14,6.03,4.66,,,,,,,,,,,,,,
1799999997935299715,2027-01-15T07:59:57.935299715Z,0.69,0.17,0.52,0.52,0.17,2.41,2.24,1.55,2.41,3.97,3.45,3.45,5.52,4.31,,,,,,,,,,,,,,
1799999997944814463,2027-01-15T07:59:57.944814463Z,-1.21,-0.86,1.21,0.86,-0.17,1.72,2.41,1.21,1.90,4.14,2.93,4.66,6.21,5.34,,,,,,,,,,,,,,
1799999997954329211,2027-01-15T07:59:57.954329211Z,-1.03,-1.72,1.38,0.34,0.69,0.69,2.93,2.76,2.24,3.10,3.62,6.55,5.86,6.21,,,,,,,,,,,,,,
1799999997963843959,2027-01-15T07:59:57.963843959Z,-1.55,-0.86,0.34,1.55,1.21,1.38,2.59,2.93,1.55,2.93,4.14,5.00,3.45,5.52,,,,,,,,,,,,,,
1799999997973358706,2027-01-15T07:59:57.973358706Z,-1.03,-0.17,0.52,3.28,0.52,2.41,3.45,1.03,1.55,3.28,4.31,5.52,4.14,5.52,,,,,,,,,,,,,,
1799999997982873454,2027-01-15T07:59:57.982873454Z,-0.69,1.38,0.69,1.72,1.90,1.03,3.10,0.34,3.10,3.10,5.00,5.17,8.28,7.59,,,,,,,,,,,,,,
1799999997992388202,2027-01-15T07:59:57.992388202Z,-1.21,2.41,0.34,0.86,2.76,2.41,2.59,-0.34,2.76,3.45,5.34,4.83,7.93,7.24,,,,,,,,,,,,,,
1799999998001902950,2027-01-15T07:59:58.001902950Z,-1.55,1.21,0.00,0.69,1.55,3.97,2.59,-0.34,1.55,3.97,5.52,6.21,5.52,5.86,,,,,,,,,,,,,,
1799999998011417698,2027-01-15T07:59:58.011417698Z,-3.28,-1.55,0.34,0.86,1.03,1.72,2.41,2.41,2.93,4.31,4.31,6.55,6.72,6.21,,,,,,,,,,,,,,
1799999998020932446,2027-01-15T07:59:58.020932446Z,2.41,-2.24,0.86,-0.86,0.52,-0.34,2.41,2.59,3.28,5.17,4.31,4.83,6.55,3.97,,,,,,,,,,,,,,
1799999998030447194,2027-01-15T07:59:58.030447194Z,-1.03,-0.86,0.86,-1.38,0.52,0.69,3.10,1.72,3.10,5.00,4.48,4.14,6.72,3.10,,,,,,,,,,,,,,
1799999998039961942,2027-01-15T07:59:58.039961942Z,-1.38,0.34,1.38,-1.21,1.03,2.76,3.97,2.59,4.66,5.69,3.62,5.00,7.76,4.66,,,,,,,,,,,,,,
1799999998049476689,2027-01-15T07:59:58.049476689Z,-2.24,-0.52,-0.52,0.00,0.52,2.24,2.41,3.28,5.69,6.38,4.14,4.66,7.07,5.69,,,,,,,,,,,,,,
1799999998058991437,2027-01-15T07:59:58.058991437Z,-0.52,-1.38,-2.07,0.17,0.34,0.69,2.59,4.66,4.31,4.48,5.52,3.28,6.03,5.69,,,,,,,,,,,,,,
1799999998068506185,2027-01-15T07:59:58.068506185Z,0.00,-1.21,-1.55,-0.52,0.17,1.03,1.90,4.31,4.31,3.62,5.52,4.48,5.69,6.55,,,,,,,,,,,,,,
1799999998078020933,2027-01-15T07:59:58.078020933Z,-1.38,-2.07,-1.03,0.00,1.72,1.55,1.90,3.97,4.48,3.79,4.83,5.17,5.00,6.03,,,,,,,,,,,,,,
1799999998087535681,2027-01-15T07:59:58.087535681Z,-0.52,-1.38,-1.21,0.69,3.10,1.21,2.59,2.76,2.41,3.62,3.79,5.17,4.83,3.97,,,,,,,,,,,,,,
1799999998097050429,2027-01-15T07:59:58.097050429Z,-1.90,1.90,-0.52,-0.52,1.38,1.03,1.72,2.24,0.69,3.97,3.10,3.79,5.86,3.10,,,,,,,,,,,,,,
1799999998106565177,2027-01-15T07:59:58.106565177Z,-1.55,0.52,0.17,0.34,1.03,-1.03,1.90,2.76,2.41,2.93,5.52,4.48,5.34,5.00,,,,,,,,,,,,,,
1799999998116079924,2027-01-15T07:59:58.116079924Z,-2.93,-1.55,-0.69,1.03,1.38,-1.55,2.59,3.28,3.79,2.41,6.55,4.31,4.31,6.21,,,,,,,,,,,,,,
1799999998125594672,2027-01-15T07:59:58.125594672Z,-1.21,0.17,-1.03,1.72,1.21,1.21,3.28,3.62,3.97,3.10,5.86,3.62,2.93,6.72,,,,,,,,,,,,,,
1799999998135109420,2027-01-15T07:59:58.135109420Z,-0.86,0.52,1.38,1.03,1.72,2.93,3.10,3.45,3.97,3.97,6.38,4.48,3.62,6.72,,,,,,,,,,,,,,
1799999998144624168,2027-01-15T07:59:58.144624168Z,-0.69,-0.34,1.21,-0.17,1.38,1.90,2.07,2.24,5.00,3.62,6.55,3.97,4.66,5.34,,,,,,,,,,,,,,
1799999998154138916,2027-01-15T07:59:58.154138916Z,-0.86,0.00,1.38,0.17,0.86,1.55,1.21,1.72,4.14,3.97,5.00,4.83,5.69,5.17,,,,,,,,,,,,,,
1799999998163653664,2027-01-15T07:59:58.163653664Z,1.21,-1.55,1.55,0.69,0.17,1.03,1.21,2.41,3.45,4.31,4.31,5.00,5.69,5.86,,,,,,,,,,,,,,
1799999998173168412,2027-01-15T07:59:58.173168412Z,-1.38,-2.59,0.17,1.72,-0.69,0.69,1.55,2.93,1.55,3.97,4.48,3.10,4.83,7.41,,,,,,,,,,,,,,
1799999998182683159,2027-01-15T07:59:58.182683159Z,0.52,-0.69,-0.69,2.41,1.21,2.07,1.90,3.28,0.86,3.45,3.62,3.79,4.48,7.76,,,,,,,,,,,,,,
1799999998192197907,2027-01-15T07:59:58.192197907Z,0.00,-0.17,0.52,0.86,0.17,1.72,3.10,3.45,3.10,4.48,4.31,3.97,4.14,5.86,,,,,,,,,,,,,,
1799999998201712655,2027-01-15T07:59:58.201712655Z,-0.86,0.00,0.52,0.17,-0.69,1.55,4.14,3.28,4.14,5.00,4.66,4.14,4.14,4.83,,,,,,,,,,,,,,
1799999998211227403,2027-01-15T07:59:58.211227403Z,-0.52,-0.52,0.17,-1.21,0.00,1.03,2.76,2.24,2.59,5.69,4.48,5.52,5.17,4.66,,,,,,,,,,,,,,
1799999998220742151,2027-01-15T07:59:58.220742151Z,1.21,-2.24,-1.38,-1.21,-1.55,0.69,-1.72,2.76,3.10,4.83,2.93,4.66,6.38,5.34,,,,,,,,,,,,,,
1799999998230256899,2027-01-15T07:59:58.230256899Z,-3.45,-2.76,-3.10,-0.52,-1.90,1.90,0.52,3.62,3.79,3.79,2.93,3.62,6.72,6.21,,,,,,,,,,,,,,
1799999998239771647,2027-01-15T07:59:58.239771647Z,-0.17,-0.69,-0.86,0.00,0.34,3.28,2.93,5.00,3.79,4.66,4.31,5.52,5.69,6.72,,,,,,,,,,,,,,
1799999998249286394,2027-01-15T07:59:58.249286394Z,0.34,0.34,0.34,1.03,0.17,2.93,2.41,4.83,3.79,4.14,3.79,6.21,4.83,6.72,,,,,,,,,,,,,,
1799999998258801142,2027-01-15T07:59:58.258801142Z,-1.03,-0.69,-1.55,1.38,0.86,1.72,1.03,3.28,3.28,1.55,2.93,4.66,1.90,6.72,,,,,,,,,,,,,,
1799999998268315890,2027-01-15T07:59:58.268315890Z,-0.52,-0.69,-1.03,-0.52,2.93,2.07,3.28,1.90,3.62,1.90,3.28,3.62,1.03,6.03,,,,,,,,,,,,,,
1799999998277830638,2027-01-15T07:59:58.277830638Z,0.00,0.69,0.69,0.34,1.72,3.45,5.17,1.55,3.10,4.14,3.28,5.00,5.86,5.34,,,,,,,,,,,,,,
1799999998287345386,2027-01-15T07:59:58.287345386Z,0.00,0.86,-1.03,-0.52,1.90,2.07,3.62,3.28,2.76,4.48,4.14,5.52,6.38,5.86,,,,,,,,,,,,,,
