# spacing_uv=20.0
timestamp_ns,timestamp_iso,AF3,F7,F3,FC5,T7,P7,O1,O2,P8,T8,FC6,F4,F8,AF4,AF3_q,F7_q,F3_q,FC5_q,T7_q,P7_q,O1_q,O2_q,P8_q,T8_q,FC6_q,F4_q,F8_q,AF4_q
1799999990000000000,2027-01-15T07:59:50.000000000Z,,,,,,,,,,,,,,,,,,,,,,,,,,,,
1799999990009082653,2027-01-15T07:59:50.009082653Z,-3.80,-1.60,,-1.60,2.40,,,,,,7.60,3.60,,,,,,,,,,,,,,,,
1799999990018165305,2027-01-15T07:59:50.018165305Z,-1.60,-0.60,-1.80,-0.20,3.40,3.40,4.60,1.40,7.20,6.20,6.20,4.20,5.40,7.60,,,,,,,,,,,,,,
1799999990027247957,2027-01-15T07:59:50.027247957Z,-1.40,-1.40,0.00,2.20,1.80,3.20,2.60,2.40,5.80,6.20,4.80,4.60,5.60,6.60,,,,,,,,,,,,,,
1799999990036330609,2027-01-15T07:59:50.036330609Z,-1.20,-2.20,0.60,1.40,1.00,2.60,2.60,3.40,4.00,5.40,5.20,4.40,6.20,6.60,,,,,,,,,,,,,,
1799999990045413261,2027-01-15T07:59:50.045413261Z,-0.60,-0.80,-0.60,0.80,1.00,1.40,4.40,3.80,2.00,4.60,6.20,4.80,7.00,6.60,,,,,,,,,,,,,,
1799999990054495913,2027-01-15T07:59:50.054495913Z,0.20,0.40,-0.60,2.40,0.20,2.00,3.40,3.60,3.00,5.40,5.40,6.20,5.20,6.60,,,,,,,,,,,,,,
1799999990063578565,2027-01-15T07:59:50.063578565Z,-0.80,-0.40,0.40,0.40,-0.60,3.20,2.20,2.60,4.40,4.80,6.20,5.60,5.40,6.80,,,,,,,,,,,,,,
1799999990072661218,2027-01-15T07:59:50.072661218Z,-3.00,-1.80,1.20,-1.20,1.40,2.40,2.40,2.60,3.40,4.20,6.00,6.20,4.60,6.00,,,,,,,,,,,,,,
1799999990081743870,2027-01-15T07:59:50.081743870Z,-1.20,-1.20,0.60,1.40,1.00,1.20,2.20,3.20,4.00,5.60,5.00,5.60,3.40,7.60,,,,,,,,,,,,,,
1799999990090826522,2027-01-15T07:59:50.090826522Z,-0.40,-0.20,-0.40,1.20,0.00,0.40,1.60,3.60,4.40,6.20,5.20,5.00,3.60,8.00,,,,,,,,,,,,,,
1799999990099909174,2027-01-15T07:59:50.099909174Z,-0.60,1.00,-1.40,-0.60,0.40,0.00,0.80,3.60,2.60,5.00,5.60,5.80,4.80,8.20,,,,,,,,,,,,,,
1799999990108991826,2027-01-15T07:59:50.108991826Z,0.00,0.00,-0.40,0.20,-0.40,1.00,1.60,2.40,3.20,4.20,5.20,5.60,4.80,7.60,,,,,,,,,,,,,,
1799999990118074478,2027-01-15T07:59:50.118074478Z,0.20,-1.60,-0.80,1.00,0.20,1.40,1.80,2.20,4.20,3.80,5.40,4.60,4.60,7.20,,,,,,,,,,,,,,
1799999990127157130,2027-01-15T07:59:50.127157130Z,0.20,-1.20,-3.60,1.80,1.80,2.60,2.20,2.00,5.20,4.20,4.40,5.40,4.20,5.60,,,,,,,,,,,,,,
1799999990136239783,2027-01-15T07:59:50.136239783Z,-1.20,-0.60,-2.60,0.80,1.20,2.20,1.80,3.40,6.20,4.80,4.60,5.00,5.80,5.40,,,,,,,,,,,,,,
1799999990145322435,2027-01-15T07:59:50.145322435Z,0.20,-0.60,-1.00,-0.20,0.20,0.80,1.60,3.40,4.80,4.20,4.80,5.00,6.80,5.40,,,,,,,,,,,,,,
1799999990154405087,2027-01-15T07:59:50.154405087Z,-3.00,-1.20,-1.80,-2.20,-0.60,-1.60,1.80,0.80,3.40,3.40,3.80,5.80,6.20,5.80,,,,,,,,,,,,,,
1799999990163487739,2027-01-15T07:59:50.163487739Z,-3.20,0.00,-1.20,-1.80,0.60,0.80,1.80,1.40,5.20,4.40,4.80,4.00,7.00,7.60,,,,,,,,,,,,,,
1799999990172570391,2027-01-15T07:59:50.172570391Z,-3.40,0.00,0.60,0.20,2.20,1.60,1.20,4.40,4.80,5.60,6.00,3.60,7.60,7.60,,,,,,,,,,,,,,
1799999990181653043,2027-01-15T07:59:50.181653043Z,-5.00,-1.80,0.40,0.20,4.00,2.80,1.40,4.00,2.80,6.00,3.60,5.40,5.60,6.60,,,,,,,,,,,,,,
1799999990190735695,2027-01-15T07:59:50.190735695Z,0.40,-2.40,-1.40,0.00,3.20,2.40,3.20,3.00,4.20,6.20,4.00,5.80,8.60,6.20,,,,,,,,,,,,,,
1799999990199818347,2027-01-15T07:59:50.199818347Z,0.40,-1.40,-2.00,0.00,2.40,2.20,3.80,2.20,4.80,6.60,5.00,6.80,10.20,5.80,,,,,,,,,,,,,,
1799999990208901000,2027-01-15T07:59:50.208901000Z,1.20,-0.20,-1.20,0.00,0.20,1.00,3.60,1.60,2.60,7.00,5.40,7.60,6.40,5.60,,,,,,,,,,,,,,
1799999990217983652,2027-01-15T07:59:50.217983652Z,-2.40,-0.60,-1.20,-0.80,-0.80,0.40,2.20,3.60,2.20,5.80,5.80,5.80,5.40,5.40,,,,,,,,,,,,,,
1799999990227066304,2027-01-15T07:59:50.227066304Z,-3.20,-0.60,-1.00,-0.60,0.00,0.00,1.20,4.60,2.20,4.60,4.60,5.60,5.80,7.20,,,,,,,,,,,,,,
1799999990236148956,2027-01-15T07:59:50.236148956Z,-2.80,0.40,-0.40,0.60,2.40,0.20,1.20,3.60,2.60,3.60,4.00,5.60,4.40,8.80,,,,,,,,,,,,,,
1799999990245231608,2027-01-15T07:59:50.245231608Z,-0.60,0.40,0.20,2.20,3.40,1.00,1.40,2.60,4.00,3.40,6.20,5.40,4.80,7.60,,,,,,,,,,,,,,
1799999990254314260,2027-01-15T07:59:50.254314260Z,-1.20,-0.80,-0.80,1.80,0.80,1.80,1.20,4.00,5.60,5.60,6.20,6.20,7.40,6.60,,,,,,,,,,,,,,
1799999990263396912,2027-01-15T07:59:50.263396912Z,-0.20,-1.00,-1.20,1.60,-0.40,1.20,1.80,4.00,5.60,6.60,5.40,6.40,7.40,7.00,,,,,,,,,,,,,,
1799999990272479565,2027-01-15T07:59:50.272479565Z,-0.80,0.20,-1.80,0.80,-0.20,0.60,3.00,3.60,4.20,6.20,4.00,5.60,7.40,7.00,,,,,,,,,,,,,,
1799999990281562217,2027-01-15T07:59:50.281562217Z,1.80,2.00,-2.00,0.60,0.20,2.60,2.20,2.00,3.60,4.20,4.00,4.60,9.80,7.20,,,,,,,,,,,,,,
1799999990290644869,2027-01-15T07:59:50.290644869Z,1.20,0.40,0.00,1.60,1.00,3.60,2.20,2.60,4.00,3.60,4.40,5.60,10.40,7.40,,,,,,,,,,,,,,
1799999990299727521,2027-01-15T07:59:50.299727521Z,0.80,-1.20,1.40,2.40,1.20,2.40,2.60,3.20,4.00,5.00,4.20,8.00,10.00,6.60,,,,,,,,,,,,,,
1799999990308810173,2027-01-15T07:59:50.308810173Z,1.00,-0.60,-0.40,0.60,1.60,2.00,3.80,2.60,3.40,4.60,4.20,7.00,6.40,7.00,,,,,,,,,,,,,,
1799999990317892825,2027-01-15T07:59:50.317892825Z,2.20,-0.20,-1.00,-0.20,2.60,3.20,4.00,2.40,3.60,4.00,4.40,5.40,5.40,6.80,,,,,,,,,,,,,,
1799999990326975477,2027-01-15T07:59:50.326975477Z,-1.60,-0.80,-0.60,1.00,4.20,4.80,2.20,1.80,4.20,2.40,3.20,5.20,5.60,5.00,,,,,,,,,,,,,,
1799999990336058129,2027-01-15T07:59:50.336058129Z,0.80,-1.00,-1.60,1.00,2.80,2.60,2.20,1.60,5.00,3.20,2.60,5.40,9.00,5.00,,,,,,,,,,,,,,
1799999990345140782,2027-01-15T07:59:50.345140782Z,-0.60,-0.20,-0.20,0.60,3.20,2.60,4.20,3.60,5.80,4.20,3.80,7.20,9.00,6.60,,,,,,,,,,,,,,
1799999990354223434,2027-01-15T07:59:50.354223434Z,-1.00,0.40,1.80,0.20,2.40,2.60,4.20,5.00,6.00,4.60,5.60,7.80,6.00,7.20,,,,,,,,,,,,,,
1799999990363306086,2027-01-15T07:59:50.363306086Z,-2.00,-1.00,1.00,1.00,2.40,1.40,4.80,3.40,4.20,3.40,6.80,6.60,5.20,7.20,,,,,,,,,,,,,,
1799999990372388738,2027-01-15T07:59:50.372388738Z,1.20,-1.40,1.00,1.20,3.00,1.60,5.20,4.00,3.60,4.00,6.80,6.20,5.20,6.80,,,,,,,,,,,,,,
1799999990381471390,2027-01-15T07:59:50.381471390Z,0.00,-0.40,2.20,0.20,2.80,2.40,4.00,5.40,3.60,5.00,7.00,6.60,4.20,7.80,,,,,,,,,,,,,,
1799999990390554042,2027-01-15T07:59:50.390554042Z,2.60,2.80,1.60,2.40,1.60,2.00,3.80,3.20,3.00,3.80,6.60,7.00,7.40,8.80,,,,,,,,,,,,,,
1799999990399636694,2027-01-15T07:59:50.399636694Z,2.00,1.80,1.60,4.40,1.40,2.20,3.40,3.20,2.80,3.20,5.40,7.00,10.60,6.60,,,,,,,,,,,,,,
1799999990408719347,2027-01-15T07:59:50.408719347Z,-4.20,-1.60,1.60,2.60,2.40,2.80,1.60,4.80,3.80,3.20,4.20,6.40,7.60,5.00,,,,,,,,,,,,,,
1799999990417801999,2027-01-15T07:59:50.417801999Z,-2.00,-1.80,1.60,1.40,-0.40,0.80,1.80,3.40,4.00,2.80,5.20,5.00,2.20,6.60,,,,,,,,,,,,,,
1799999990426884651,2027-01-15T07:59:50.426884651Z,-1.80,-1.20,1.60,1.40,-1.80,0.00,2.60,2.20,3.60,3.00,5.80,5.00,2.80,6.40,,,,,,,,,,,,,,
1799999990435967303,2027-01-15T07:59:50.435967303Z,-2.20,-2.00,-0.20,-0.60,0.60,0.60,3.00,3.20,3.80,3.20,6.60,6.80,6.00,5.00,,,,,,,,,,,,,,
1799999990445049955,2027-01-15T07:59:50.445049955Z,-1.60,-1.00,-1.60,-0.20,1.60,1.80,4.40,3.40,4.80,4.20,5.60,7.20,5.80,6.20,,,,,,,,,,,,,,
1799999990454132607,2027-01-15T07:59:50.454132607Z,-0.80,0.40,-0.40,1.20,0.80,0.20,5.20,1.80,2.80,6.40,5.00,6.00,5.60,7.40,,,,,,,,,,,,,,
1799999990463215259,2027-01-15T07:59:50.463215259Z,0.80,-0.20,0.60,0.00,0.80,-1.00,4.40,1.20,0.20,7.80,5.80,5.80,5.60,8.20,,,,,,,,,,,,,,
1799999990472297911,2027-01-15T07:59:50.472297911Z,0.20,-1.00,-0.20,0.00,0.60,1.00,2.60,2.80,2.40,7.00,6.20,6.20,5.60,5.40,,,,,,,,,,,,,,
1799999990481380564,2027-01-15T07:59:50.481380564Z,0.40,-1.00,0.80,0.80,0.40,2.80,1.80,3.40,3.60,5.80,5.80,6.00,5.60,4.60,,,,,,,,,,,,,,
1799999990490463216,2027-01-15T07:59:50.490463216Z,0.60,0.60,1.00,0.20,0.40,4.40,2.80,3.00,3.60,3.80,4.80,6.20,5.40,5.80,,,,,,,,,,,,,,
1799999990499545868,2027-01-15T07:59:50.499545868Z,-0.60,0.60,-1.60,1.00,0.40,3.00,2.60,3.80,2.80,3.00,4.20,6.20,5.20,8.20,,,,,,,,,,,,,,
1799999990508628520,2027-01-15T07:59:50.508628520Z,-1.00,-1.20,-1.20,1.00,1.00,0.40,1.40,4.60,3.80,4.20,5.20,6.00,5.00,7.00,,,,,,,,,,,,,,
1799999990517711172,2027-01-15T07:59:50.517711172Z,-2.60,-2.40,0.80,-1.20,2.00,1.00,1.40,4.20,4.80,4.20,5.40,5.40,4.00,6.00,,,,,,,,,,,,,,
1799999990526793824,2027-01-15T07:59:50.526793824Z,1.00,0.60,1.60,1.00,0.60,1.20,1.20,2.60,4.00,4.20,3.40,5.40,5.60,8.20,,,,,,,,,,,,,,
1799999990535876476,2027-01-15T07:59:50.535876476Z,-1.60,1.00,0.40,1.60,-0.20,1.00,1.40,3.20,4.00,4.80,3.20,6.00,6.40,7.00,,,,,,,,,,,,,,
1799999990544959129,2027-01-15T07:59:50.544959129Z,-1.00,-2.40,-1.60,3.00,0.60,0.20,3.40,4.00,4.40,6.20,4.00,5.80,5.20,5.20,,,,,,,,,,,,,,
1799999990554041781,2027-01-15T07:59:50.554041781Z,0.80,-3.00,-1.40,1.20,1.60,1.80,2.80,1.20,4.00,6.00,4.60,4.20,4.60,8.20,,,,,,,,,,,,,,
1799999990563124433,2027-01-15T07:59:50.563124433Z,0.40,0.60,-0.20,1.00,0.60,1.80,1.40,0.00,1.80,6.80,5.00,4.60,5.60,8.40,,,,,,,,,,,,,,
1799999990572207085,2027-01-15T07:59:50.572207085Z,0.20,1.80,-0.40,0.40,-0.80,2.60,3.00,1.40,2.60,6.20,4.60,6.00,5.20,5.80,,,,,,,,,,,,,,
1799999990581289737,2027-01-15T07:59:50.581289737Z,-2.20,0.40,-1.00,-1.60,0.80,3.80,2.60,0.40,4.60,4.00,6.20,6.80,5.40,5.60,,,,,,,,,,,,,,
1799999990590372389,2027-01-15T07:59:50.590372389Z,-2.40,-0.40,-0.20,-0.80,2.00,3.20,1.80,1.20,4.60,3.80,5.80,6.40,5.60,5.60,,,,,,,,,,,,,,
1799999990599455041,2027-01-15T07:59:50.599455041Z,-1.80,-1.80,0.60,1.80,1.20,3.60,2.00,3.60,4.80,5.60,3.80,5.80,4.60,5.00,,,,,,,,,,,,,,
1799999990608537694,2027-01-15T07:59:50.608537694Z,1.40,-2.40,-0.40,0.80,1.40,4.80,2.40,2.80,4.80,5.00,5.20,6.80,5.80,6.80,,,,,,,,,,,,,,
1799999990617620346,2027-01-15T07:59:50.617620346Z,-0.40,-1.60,0.40,-0.80,2.80,1.80,1.60,2.80,3.60,4.00,6.20,6.00,8.40,8.40,,,,,,,,,,,,,,
1799999990626702998,2027-01-15T07:59:50.626702998Z,-1.00,-1.60,0.60,-1.40,3.60,-0.20,1.00,4.60,3.00,5.00,4.80,4.60,8.60,8.40,,,,,,,,,,,,,,
1799999990635785650,2027-01-15T07:59:50.635785650Z,0.60,-1.40,-1.20,-1.20,0.80,2.00,1.40,5.80,3.80,5.00,4.60,4.20,6.80,7.20,,,,,,,,,,,,,,
1799999990644868302,2027-01-15T07:59:50.644868302Z,-1.00,-1.20,-2.00,-1.20,-0.20,2.00,1.00,4.00,4.80,4.00,3.80,4.20,8.40,7.40,,,,,,,,,,,,,,
1799999990653950954,2027-01-15T07:59:50.653950954Z,-2.00,-1.60,-1.80,0.00,2.80,0.20,1.00,3.40,5.40,1.80,4.00,5.40,11.60,7.00,,,,,,,,,,,,,,
1799999990663033606,2027-01-15T07:59:50.663033606Z,-1.60,-2.40,-1.80,0.40,3.40,0.40,2.60,6.20,4.40,2.20,6.40,5.80,10.20,5.40,,,,,,,,,,,,,,
1799999990672116258,2027-01-15T07:59:50.672116258Z,-2.80,0.20,-0.20,-0.20,2.20,0.00,2.20,6.40,3.40,2.80,6.40,5.00,6.20,6.80,,,,,,,,,,,,,,
1799999990681198911,2027-01-15T07:59:50.681198911Z,-2.00,2.40,0.20,0.20,2.80,1.00,1.60,4.60,2.80,2.80,5.00,5.40,5.20,9.80,,,,,,,,,,,,,,
1799999990690281563,2027-01-15T07:59:50.690281563Z,1.40,0.40,-2.00,1.00,2.40,1.40,2.60,5.20,3.60,2.60,4.20,6.60,6.00,9.80,,,,,,,,,,,,,,
1799999990699364215,2027-01-15T07:59:50.699364215Z,0.80,0.40,-2.20,1.00,1.60,1.00,2.00,4.80,3.60,3.20,4.20,6.80,5.80,8.80,,,,,,,,,,,,,,
1799999990708446867,2027-01-15T07:59:50.708446867Z,1.40,2.00,-0.20,2.40,1.00,1.00,0.80,3.20,3.00,3.80,5.00,6.40,7.80,7.60,,,,,,,,,,,,,,
1799999990717529519,2027-01-15T07:59:50.717529519Z,-1.80,1.00,0.00,1.40,1.20,1.60,1.80,2.60,4.40,2.40,6.00,6.40,11.60,6.40,,,,,,,,,,,,,,
1799999990726612171,2027-01-15T07:59:50.726612171Z,-0.80,1.00,0.00,-1.00,1.60,2.80,2.80,2.00,5.40,1.80,5.00,6.60,10.20,6.40,,,,,,,,,,,,,,
1799999990735694823,2027-01-15T07:59:50.735694823Z,-0.40,1.00,1.40,-1.40,1.60,2.60,1.80,2.00,4.60,2.80,5.20,6.60,6.00,7.60,,,,,,,,,,,,,,
1799999990744777476,2027-01-15T07:59:50.744777476Z,2.80,-1.60,1.00,-0.20,2.20,1.00,2.40,3.00,4.60,4.00,6.60,5.80,5.20,7.80,,,,,,,,,,,,,,
1799999990753860128,2027-01-15T07:59:50.753860128Z,-1.00,-2.00,-0.40,1.00,1.40,2.00,3.20,2.80,6.00,4.80,6.00,5.60,6.00,7.40,,,,,,,,,,,,,,
1799999990762942780,2027-01-15T07:59:50.762942780Z,-0.60,-1.20,0.40,0.80,0.60,1.40,3.00,3.00,6.00,4.60,5.20,5.80,5.80,6.00,,,,,,,,,,,,,,
1799999990772025432,2027-01-15T07:59:50.772025432Z,-2.40,-0.20,2.00,-0.20,0.40,0.80,1.80,3.60,3.80,3.20,3.20,5.20,6.20,4.00,,,,,,,,,,,,,,
1799999990781108084,2027-01-15T07:59:50.781108084Z,-2.20,0.20,1.40,-1.60,0.20,2.20,2.20,2.40,2.40,3.60,3.40,5.40,5.60,3.80,,,,,,,,,,,,,,
1799999990790190736,2027-01-15T07:59:50.790190736Z,-2.00,1.40,2.00,-1.60,1.20,0.80,3.20,2.40,3.60,5.80,3.00,5.60,6.60,4.60,,,,,,,,,,,,,,
1799999990799273388,2027-01-15T07:59:50.799273388Z,0.60,0.20,2.00,0.20,1.00,-0.60,3.40,3.00,5.00,5.80,4.40,5.00,8.40,6.00,,,,,,,,,,,,,,
1799999990808356040,2027-01-15T07:59:50.808356040Z,0.00,0.20,0.80,1.60,1.00,0.80,2.40,3.20,4.40,3.60,4.20,4.60,6.60,8.40,,,,,,,,,,,,,,
1799999990817438693,2027-01-15T07:59:50.817438693Z,-0.40,0.60,0.80,1.20,1.00,2.00,2.60,4.60,3.80,2.80,4.00,4.60,5.20,7.60,,,,,,,,,,,,,,
1799999990826521345,2027-01-15T07:59:50.826521345Z,-0.20,-1.00,0.00,1.80,1.60,4.00,3.20,5.60,3.60,2.20,3.80,5.00,5.60,5.60,,,,,,,,,,,,,,
1799999990835603997,2027-01-15T07:59:50.835603997Z,-0.40,-1.80,0.40,2.00,2.00,3.80,2.60,2.80,4.40,2.80,4.60,5.60,6.40,6.60,,,,,,,,,,,,,,
1799999990844686649,2027-01-15T07:59:50.844686649Z,-0.20,-3.00,0.60,1.40,2.20,2.00,2.80,1.00,4.80,3.80,4.00,5.40,5.60,6.80,,,,,,,,,,,,,,
1799999990853769301,2027-01-15T07:59:50.853769301Z,-0.20,-2.80,-0.60,1.60,0.60,1.20,2.40,1.00,5.60,4.60,3.80,5.00,6.60,6.40,,,,,,,,,,,,,,
1799999990862851953,2027-01-15T07:59:50.862851953Z,0.20,-1.40,-0.40,0.60,0.20,1.00,2.00,2.60,4.80,5.80,4.40,6.20,7.40,7.00,,,,,,,,,,,,,,
1799999990871934605,2027-01-15T07:59:50.871934605Z,0.60,-1.20,-0.40,0.20,0.60,1.40,1.80,3.00,4.40,5.80,4.20,7.00,6.80,6.60,,,,,,,,,,,,,,
1799999990881017258,2027-01-15T07:59:50.881017258Z,0.00,-2.20,-1.60,0.40,2.40,1.80,2.20,1.40,3.80,6.20,4.20,6.60,5.80,5.60,,,,,,,,,,,,,,
1799999990890099910,2027-01-15T07:59:50.890099910Z,0.00,-1.60,-1.80,1.80,2.80,0.80,2.60,1.20,4.60,6.80,5.00,6.00,6.00,5.60,,,,,,,,,,,,,,
1799999990899182562,2027-01-15T07:59:50.899182562Z,-0.80,-0.40,-0.60,2.80,1.60,0.40,2.60,2.60,4.80,5.00,5.60,6.60,3.80,5.80,,,,,,,,,,,,,,
1799999990908265214,2027-01-15T07:59:50.908265214Z,-0.20,-1.60,-0.60,2.00,-0.20,0.60,3.60,4.00,4.00,4.60,4.60,6.40,3.20,5.60,,,,,,,,,,,,,,
1799999990917347866,2027-01-15T07:59:50.917347866Z,-0.40,-3.00,-1.60,1.40,-1.60,2.00,1.80,3.80,3.20,5.00,4.60,5.80,4.80,5.40,,,,,,,,,,,,,,
1799999990926430518,2027-01-15T07:59:50.926430518Z,-0.60,-1.40,-1.20,1.40,-1.40,1.20,0.80,2.80,3.40,4.40,4.80,5.80,5.20,6.00,,,,,,,,,,,,,,
1799999990935513170,2027-01-15T07:59:50.935513170Z,0.40,0.60,-0.60,0.80,-0.80,-0.80,2.60,1.60,3.80,4.20,4.80,4.00,5.80,6.80,,,,,,,,,,,,,,
1799999990944595822,2027-01-15T07:59:50.944595822Z,-1.00,-0.20,-1.20,-0.80,-1.00,-0.20,3.60,1.00,3.20,6.40,4.00,4.00,6.80,6.80,,,,,,,,,,,,,,
1799999990953678475,2027-01-15T07:59:50.953678475Z,0.00,-0.60,-1.40,-1.40,-1.20,1.20,3.00,1.60,4.00,4.80,4.20,7.20,5.40,7.20,,,,,,,,,,,,,,
1799999990962761127,2027-01-15T07:59:50.962761127Z,-0.40,-2.20,-2.40,0.80,-1.00,1.80,2.20,3.20,5.40,2.40,5.20,8.00,3.80,6.20,,,,,,,,,,,,,,
1799999990971843779,2027-01-15T07:59:50.971843779Z,-1.00,-2.00,-2.40,1.40,-0.20,1.20,3.80,2.20,5.40,5.00,4.80,5.20,4.00,7.60,,,,,,,,,,,,,,
1799999990980926431,2027-01-15T07:59:50.980926431Z,-1.20,-1.20,-2.00,1.20,0.20,1.20,4.40,2.00,5.00,6.40,4.40,5.60,4.80,8.20,,,,,,,,,,,,,,
1799999990990009083,2027-01-15T07:59:50.990009083Z,0.80,-0.40,0.00,1.80,0.40,1.60,2.80,4.00,3.80,3.40,4.20,6.60,5.00,6.20,,,,,,,,,,,,,,
1799999990999091735,2027-01-15T07:59:50.999091735Z,0.60,-1.20,1.60,0.80,0.80,3.20,2.40,3.80,4.00,2.80,5.00,5.60,4.20,4.60,,,,,,,,,,,,,,
1799999991008174387,2027-01-15T07:59:51.008174387Z,-0.80,-1.40,1.00,0.00,0.00,5.00,3.40,3.20,4.20,5.20,4.20,6.40,5.00,6.40,,,,,,,,,,,,,,
1799999991017257040,2027-01-15T07:59:51.017257040Z,0.40,-2.80,0.40,0.00,0.80,4.80,4.00,2.20,5.00,5.20,4.60,6.40,6.20,7.00,,,,,,,,,,,,,,
1799999991026339692,2027-01-15T07:59:51.026339692Z,0.20,-1.40,-2.20,0.20,0.60,2.80,5.00,1.20,5.00,2.40,5.20,5.00,6.60,6.00,,,,,,,,,,,,,,
1799999991035422344,2027-01-15T07:59:51.035422344Z,-0.60,-0.80,-3.20,0.20,0.60,2.60,5.20,2.40,5.40,2.60,5.60,4.00,7.60,5.60,,,,,,,,,,,,,,
1799999991044504996,2027-01-15T07:59:51.044504996Z,-2.20,0.80,-2.00,1.00,1.00,2.80,4.20,4.60,4.20,5.40,5.40,4.80,8.20,6.20,,,,,,,,,,,,,,
1799999991053587648,2027-01-15T07:59:51.053587648Z,-0.60,3.20,-1.00,1.00,2.00,0.40,3.40,4.60,2.20,5.60,4.00,5.80,5.20,7.40,,,,,,,,,,,,,,
1799999991062670300,2027-01-15T07:59:51.062670300Z,-0.80,3.00,-2.00,0.20,0.80,1.00,3.40,4.20,3.20,4.40,4.00,5.60,5.20,7.80,,,,,,,,,,,,,,
1799999991071752952,2027-01-15T07:59:51.071752952Z,-1.00,1.40,-1.60,0.00,1.80,4.20,3.80,3.80,4.20,4.00,5.40,6.20,7.00,7.20,,,,,,,,,,,,,,
1799999991080835604,2027-01-15T07:59:51.080835604Z,-0.40,0.40,0.20,1.40,2.00,3.20,4.20,4.00,2.20,4.40,5.60,6.60,6.60,7.80,,,,,,,,,,,,,,
1799999991089918257,2027-01-15T07:59:51.089918257Z,-0.60,-0.60,0.60,1.60,1.80,1.80,3.40,3.40,2.20,5.80,5.00,5.40,6.60,6.60,,,,,,,,,,,,,,
1799999991099000909,2027-01-15T07:59:51.099000909Z,-0.80,-1.80,-0.40,1.00,1.00,0.80,2.00,3.00,3.60,8.20,5.40,4.00,7.20,4.80,,,,,,,,,,,,,,
1799999991108083561,2027-01-15T07:59:51.108083561Z,-0.40,-1.20,-0.60,1.40,0.00,0.60,2.40,4.00,2.80,7.80,6.40,6.40,6.20,5.60,,,,,,,,,,,,,,
1799999991117166213,2027-01-15T07:59:51.117166213Z,0.00,-1.20,-0.40,2.00,-1.00,0.80,3.40,3.40,2.20,4.80,6.80,6.40,6.60,6.60,,,,,,,,,,,,,,
1799999991126248865,2027-01-15T07:59:51.126248865Z,-1.00,-2.40,0.00,1.60,0.20,1.80,3.40,4.00,3.00,3.60,5.40,4.80,7.40,7.00,,,,,,,,,,,,,,
1799999991135331517,2027-01-15T07:59:51.135331517Z,-2.20,-2.20,2.60,1.20,1.00,0.80,3.80,5.40,2.40,4.40,5.80,6.00,6.80,7.20,,,,,,,,,,,,,,
1799999991144414169,2027-01-15T07:59:51.144414169Z,1.00,-1.20,2.60,1.00,0.60,0.80,1.40,5.20,2.20,4.40,6.00,7.20,5.80,7.80,,,,,,,,,,,,,,
1799999991153496822,2027-01-15T07:59:51.153496822Z,1.00,-0.60,0.20,0.60,1.20,2.60,-1.20,4.80,3.80,4.40,5.00,7.60,4.60,8.20,,,,,,,,,,,,,,
1799999991162579474,2027-01-15T07:59:51.162579474Z,-2.60,-1.20,-0.40,0.60,2.40,2.60,0.80,4.80,4.00,4.40,5.00,6.20,4.40,7.40,,,,,,,,,,,,,,
1799999991171662126,2027-01-15T07:59:51.171662126Z,-2.00,-1.40,-0.80,0.60,2.20,1.60,2.00,3.40,3.00,3.20,7.00,5.40,5.00,7.80,,,,,,,,,,,,,,
1799999991180744778,2027-01-15T07:59:51.180744778Z,-2.40,-0.60,-0.40,-0.20,1.60,3.00,1.40,2.40,3.20,4.20,6.00,6.20,5.00,7.00,,,,,,,,,,,,,,
1799999991189827430,2027-01-15T07:59:51.189827430Z,-0.20,0.60,1.20,0.40,1.80,4.00,2.00,3.40,3.00,6.60,3.60,7.00,6.00,5.20,,,,,,,,,,,,,,
1799999991198910082,2027-01-15T07:59:51.198910082Z,0.80,-0.40,1.00,-1.00,1.80,2.20,2.40,4.80,3.00,5.20,3.40,6.00,5.60,6.20,,,,,,,,,,,,,,
1799999991207992734,2027-01-15T07:59:51.207992734Z,0.00,1.00,0.40,-1.60,1.80,1.60,2.60,4.20,3.20,3.80,4.40,5.60,6.00,7.40,,,,,,,,,,,,,,
1799999991217075387,2027-01-15T07:59:51.217075387Z,0.60,2.40,1.40,-0.80,0.80,-0.80,3.00,3.80,4.00,5.00,5.00,5.20,7.80,9.00,,,,,,,,,,,,,,
1799999991226158039,2027-01-15T07:59:51.226158039Z,-1.40,-0.20,2.20,0.40,0.20,0.00,3.80,5.20,2.40,4.40,5.80,5.80,6.80,8.40,,,,,,,,,,,,,,
1799999991235240691,2027-01-15T07:59:51.235240691Z,-1.00,-2.00,1.20,-0.60,1.20,3.40,3.80,4.00,2.20,2.60,5.80,4.40,6.20,8.20,,,,,,,,,,,,,,
1799999991244323343,2027-01-15T07:59:51.244323343Z,-0.80,-2.20,-0.40,-0.40,1.60,3.80,1.20,2.40,4.80,1.40,4.80,3.60,7.60,7.20,,,,,,,,,,,,,,
1799999991253405995,2027-01-15T07:59:51.253405995Z,-2.80,-1.40,-1.00,2.20,3.20,3.40,2.20,1.40,3.80,2.60,4.40,5.40,6.20,6.40,,,,,,,,,,,,,,
1799999991262488647,2027-01-15T07:59:51.262488647Z,-0.80,0.20,-0.80,2.00,4.00,3.40,2.60,1.80,3.00,3.40,5.80,5.80,5.60,6.40,,,,,,,,,,,,,,
1799999991271571299,2027-01-15T07:59:51.271571299Z,-1.20,2.00,-1.20,1.60,3.20,1.60,-0.40,3.40,4.20,4.20,7.60,5.40,8.20,5.80,,,,,,,,,,,,,,
1799999991280653951,2027-01-15T07:59:51.280653951Z,-4.20,1.00,-1.40,2.60,0.20,-1.60,-0.60,4.00,5.80,4.60,6.80,7.00,9.60,5.80,,,,,,,,,,,,,,
1799999991289736604,2027-01-15T07:59:51.289736604Z,-1.80,-0.80,-0.60,0.80,0.80,0.40,2.00,3.80,4.60,5.80,5.00,6.00,7.40,7.60,,,,,,,,,,,,,,
1799999991298819256,2027-01-15T07:59:51.298819256Z,-1.40,-1.00,-1.00,0.20,3.80,2.40,1.40,3.40,3.40,6.60,5.20,4.00,6.80,9.00,,,,,,,,,,,,,,
1799999991307901908,2027-01-15T07:59:51.307901908Z,-1.40,-2.80,0.00,-0.60,1.00,-0.20,1.60,2.60,2.80,6.20,5.20,4.80,7.60,8.20,,,,,,,,,,,,,,
1799999991316984560,2027-01-15T07:59:51.316984560Z,-2.20,-2.80,1.20,-0.60,-0.60,0.80,2.00,2.20,2.40,5.40,5.20,5.40,7.60,7.40,,,,,,,,,,,,,,
1799999991326067212,2027-01-15T07:59:51.326067212Z,-1.60,-0.80,2.00,0.60,2.60,3.20,3.20,2.20,4.00,4.20,6.60,5.40,7.60,6.60,,,,,,,,,,,,,,
1799999991335149864,2027-01-15T07:59:51.335149864Z,1.00,0.00,0.80,3.00,2.80,1.40,3.40,2.40,7.20,3.80,7.00,6.60,7.80,7.40,,,,,,,,,,,,,,
1799999991344232516,2027-01-15T07:59:51.344232516Z,-4.60,-1.00,1.00,1.80,1.60,1.00,3.00,3.40,7.40,4.00,4.40,7.00,7.20,7.20,,,,,,,,,,,,,,
1799999991353315169,2027-01-15T07:59:51.353315169Z,-1.00,0.80,1.60,1.20,2.60,0.60,2.00,3.40,4.60,4.80,3.20,6.00,6.80,6.80,,,,,,,,,,,,,,
1799999991362397821,2027-01-15T07:59:51.362397821Z,-0.20,0.60,0.80,0.40,4.20,-1.40,2.40,2.60,4.40,4.20,4.00,5.40,5.60,6.00,,,,,,,,,,,,,,
1799999991371480473,2027-01-15T07:59:51.371480473Z,-1.40,0.20,1.80,-0.40,3.40,0.00,3.00,2.60,5.20,3.80,3.60,5.80,4.60,5.80,,,,,,,,,,,,,,
1799999991380563125,2027-01-15T07:59:51.380563125Z,-4.00,-2.40,3.00,-0.40,1.80,3.20,3.20,3.00,4.60,4.20,2.20,6.60,5.00,5.00,,,,,,,,,,,,,,
1799999991389645777,2027-01-15T07:59:51.389645777Z,-2.20,-4.20,0.20,-0.40,2.40,2.20,2.60,4.00,3.00,4.80,2.40,6.40,7.00,4.60,,,,,,,,,,,,,,
1799999991398728429,2027-01-15T07:59:51.398728429Z,-2.20,-3.00,-3.00,0.20,3.60,0.20,3.60,4.80,4.20,5.00,2.40,6.40,7.40,5.80,,,,,,,,,,,,,,
1799999991407811081,2027-01-15T07:59:51.407811081Z,-4.20,-1.80,-2.80,0.80,3.80,0.40,3.80,4.00,7.40,5.20,2.60,6.40,5.60,6.00,,,,,,,,,,,,,,
1799999991416893733,2027-01-15T07:59:51.416893733Z,-2.40,-4.20,-0.20,0.60,1.80,0.60,2.60,4.80,7.00,4.80,4.00,5.80,5.00,5.00,,,,,,,,,,,,,,
1799999991425976386,2027-01-15T07:59:51.425976386Z,-1.80,-5.00,0.00,0.20,1.00,-0.80,2.60,5.20,5.20,5.20,4.20,6.00,7.20,6.40,,,,,,,,,,,,,,
1799999991435059038,2027-01-15T07:59:51.435059038Z,-1.80,-3.60,-0.40,-0.60,2.20,-2.40,3.00,5.00,2.80,5.40,3.00,6.00,9.60,9.60,,,,,,,,,,,,,,
1799999991444141690,2027-01-15T07:59:51.444141690Z,-1.80,-3.20,-1.20,-0.80,2.60,0.00,2.20,3.20,3.00,3.80,3.00,5.80,7.60,9.00,,,,,,,,,,,,,,
1799999991453224342,2027-01-15T07:59:51.453224342Z,-2.20,-3.40,-1.00,0.80,2.20,2.20,2.60,1.40,4.80,3.20,4.00,5.80,5.80,7.80,,,,,,,,,,,,,,
1799999991462306994,2027-01-15T07:59:51.462306994Z,-2.80,-2.00,0.20,1.80,2.40,2.20,3.60,2.60,5.00,4.00,4.60,6.40,7.00,6.00,,,,,,,,,,,,,,
1799999991471389646,2027-01-15T07:59:51.471389646Z,-0.20,0.60,1.60,1.40,2.00,1.20,2.20,4.00,2.00,4.20,4.00,5.40,6.60,6.00,,,,,,,,,,,,,,
1799999991480472298,2027-01-15T07:59:51.480472298Z,-0.40,1.00,1.60,1.60,2.00,1.20,2.20,3.40,1.20,5.00,5.20,5.20,6.20,6.60,,,,,,,,,,,,,,
1799999991489554951,2027-01-15T07:59:51.489554951Z,0.60,0.40,1.80,0.60,2.00,-0.60,4.40,1.80,3.40,7.00,6.80,5.20,7.20,5.60,,,,,,,,,,,,,,
1799999991498637603,2027-01-15T07:59:51.498637603Z,2.00,1.20,3.00,-0.60,1.40,-1.80,4.20,2.20,3.00,6.00,6.20,5.60,5.80,5.40,,,,,,,,,,,,,,
1799999991507720255,2027-01-15T07:59:51.507720255Z,1.60,1.00,3.20,0.00,2.20,-0.60,2.60,3.00,3.00,4.20,5.00,5.80,6.00,6.40,,,,,,,,,,,,,,
1799999991516802907,2027-01-15T07:59:51.516802907Z,1.60,0.00,1.00,1.40,3.00,0.80,1.40,3.40,3.80,3.00,4.20,6.00,9.40,7.60,,,,,,,,,,,,,,
1799999991525885559,2027-01-15T07:59:51.525885559Z,2.40,2.00,-2.20,2.00,2.20,2.60,1.40,3.00,3.00,3.80,6.00,6.20,7.40,7.00,,,,,,,,,,,,,,
1799999991534968211,2027-01-15T07:59:51.534968211Z,1.20,1.00,-3.20,1.40,2.40,3.20,1.60,2.80,2.60,4.20,5.40,6.20,5.20,6.60,,,,,,,,,,,,,,
1799999991544050863,2027-01-15T07:59:51.544050863Z,0.80,-3.40,-2.80,-0.40,2.60,3.00,1.80,1.60,3.80,4.20,3.00,5.20,7.20,8.60,,,,,,,,,,,,,,
1799999991553133515,2027-01-15T07:59:51.553133515Z,0.00,-3.20,-4.20,-1.20,1.80,4.20,2.80,2.40,4.40,3.80,3.40,4.40,7.80,9.00,,,,,,,,,,,,,,
1799999991562216168,2027-01-15T07:59:51.562216168Z,-0.20,-0.80,-4.00,-0.80,1.60,3.80,4.00,3.00,4.20,3.80,5.40,5.60,6.60,7.40,,,,,,,,,,,,,,
1799999991571298820,2027-01-15T07:59:51.571298820Z,-2.60,-0.60,-1.80,-1.60,0.20,1.80,5.00,2.60,4.20,4.00,5.60,6.60,5.80,6.60,,,,,,,,,,,,,,
1799999991580381472,2027-01-15T07:59:51.580381472Z,-2.60,-0.60,-0.60,0.00,-0.60,2.00,3.00,3.20,6.60,4.60,4.20,5.80,6.00,5.20,,,,,,,,,,,,,,
1799999991589464124,2027-01-15T07:59:51.589464124Z,0.20,-0.60,-0.20,0.00,-0.80,2.80,2.40,3.00,6.80,4.80,4.20,5.80,7.80,6.20,,,,,,,,,,,,,,
1799999991598546776,2027-01-15T07:59:51.598546776Z,-0.60,-0.80,-0.20,-0.60,-2.20,3.20,1.60,1.40,4.40,3.40,4.60,5.80,10.00,8.60,,,,,,,,,,,,,,
1799999991607629428,2027-01-15T07:59:51.607629428Z,-1.40,-0.40,-1.00,-1.80,-1.00,3.80,2.80,0.80,4.00,4.40,4.60,4.80,7.80,8.20,,,,,,,,,,,,,,
1799999991616712080,2027-01-15T07:59:51.616712080Z,1.00,2.20,0.00,1.40,0.80,2.60,3.60,2.60,5.20,5.80,5.80,5.20,4.60,7.80,,,,,,,,,,,,,,
1799999991625794733,2027-01-15T07:59:51.625794733Z,1.40,2.20,0.20,1.60,0.00,1.20,4.60,4.40,4.60,3.60,5.20,6.20,6.00,8.60,,,,,,,,,,,,,,
1799999991634877385,2027-01-15T07:59:51.634877385Z,2.80,2.40,-1.00,0.80,0.20,1.40,2.20,4.00,3.60,3.20,5.00,7.20,5.60,7.00,,,,,,,,,,,,,,
1799999991643960037,2027-01-15T07:59:51.643960037Z,0.80,1.80,-0.60,1.40,1.20,2.20,0.80,3.00,3.60,3.20,5.60,7.80,4.80,6.00,,,,,,,,,,,,,,
1799999991653042689,2027-01-15T07:59:51.653042689Z,1.80,-0.60,0.00,2.40,2.80,2.60,3.00,3.60,3.60,1.00,6.60,7.20,6.40,4.60,,,,,,,,,,,,,,
1799999991662125341,2027-01-15T07:59:51.662125341Z,3.20,-0.40,-1.40,0.60,2.40,1.00,4.00,3.60,3.60,1.60,4.20,5.20,8.00,6.00,,,,,,,,,,,,,,
1799999991671207993,2027-01-15T07:59:51.671207993Z,5.20,2.20,-1.20,0.20,1.40,0.40,3.40,1.80,4.80,4.00,3.60,6.00,5.60,7.00,,,,,,,,,,,,,,
1799999991680290645,2027-01-15T07:59:51.680290645Z,2.80,3.80,0.60,0.60,1.20,2.60,3.60,0.60,5.60,5.20,5.40,6.80,2.80,6.40,,,,,,,,,,,,,,
1799999991689373298,2027-01-15T07:59:51.689373298Z,2.20,2.80,1.20,1.80,1.00,4.80,3.60,1.20,4.60,4.40,7.00,6.40,5.20,6.80,,,,,,,,,,,,,,
1799999991698455950,2027-01-15T07:59:51.698455950Z,0.80,3.00,-0.20,2.60,2.40,2.80,3.00,1.00,5.00,3.80,6.80,7.00,8.60,6.80,,,,,,,,,,,,,,
1799999991707538602,2027-01-15T07:59:51.707538602Z,-1.20,3.80,-1.80,2.40,2.00,1.20,3.20,1.60,5.20,4.00,6.00,6.60,7.80,6.20,,,,,,,,,,,,,,
1799999991716621254,2027-01-15T07:59:51.716621254Z,0.20,2.60,-3.80,2.80,-0.60,2.00,4.00,2.60,3.80,3.60,4.40,6.20,5.20,6.00,,,,,,,,,,,,,,
1799999991725703906,2027-01-15T07:59:51.725703906Z,-0.40,0.40,-3.40,2.40,-0.60,0.20,3.60,1.40,3.80,2.40,3.80,7.20,6.20,8.60,,,,,,,,,,,,,,
1799999991734786558,2027-01-15T07:59:51.734786558Z,,-0.60,-1.60,1.80,0.80,-0.80,2.60,0.20,4.80,3.40,5.00,6.20,5.40,9.40,,,,,,,,,,,,,,
1799999991743869210,2027-01-15T07:59:51.743869210Z,-0.60,0.00,-0.60,1.20,-0.20,2.20,1.60,0.00,4.20,4.60,4.60,4.20,4.40,7.60,,,,,,,,,,,,,,
1799999991752951862,2027-01-15T07:59:51.752951862Z,-1.20,-0.20,1.00,0.40,0.60,4.20,1.20,0.60,3.20,5.20,4.00,5.20,6.80,4.40,,,,,,,,,,,,,,
1799999991762034515,2027-01-15T07:59:51.762034515Z,0.60,-0.20,1.20,0.60,1.20,3.20,0.80,1.00,2.80,4.60,3.80,5.60,8.40,3.60,,,,,,,,,,,,,,
1799999991771117167,2027-01-15T07:59:51.771117167Z,1.00,1.00,0.00,2.00,0.80,1.60,1.20,2.60,1.80,3.40,3.00,4.20,7.80,6.20,,,,,,,,,,,,,,
1799999991780199819,2027-01-15T07:59:51.780199819Z,-0.60,-0.40,0.20,1.80,0.60,3.20,2.60,4.00,2.60,4.20,4.00,4.80,8.80,8.00,,,,,,,,,,,,,,
1799999991789282471,2027-01-15T07:59:51.789282471Z,-0.60,-1.20,-0.20,0.60,1.00,2.00,2.60,5.00,3.00,5.80,5.00,6.00,7.00,5.80,,,,,,,,,,,,,,
1799999991798365123,2027-01-15T07:59:51.798365123Z,-0.20,0.60,-0.40,1.20,0.20,2.00,2.60,2.60,2.40,7.00,5.60,6.00,4.80,4.80,,,,,,,,,,,,,,
1799999991807447775,2027-01-15T07:59:51.807447775Z,-0.40,1.20,1.60,0.80,0.00,4.20,3.60,2.00,2.20,5.60,5.20,4.80,5.20,6.20,,,,,,,,,,,,,,
1799999991816530427,2027-01-15T07:59:51.816530427Z,-1.00,1.00,2.20,0.80,0.80,3.80,3.60,2.00,2.80,4.20,5.00,5.00,5.60,6.00,,,,,,,,,,,,,,
1799999991825613080,2027-01-15T07:59:51.825613080Z,0.80,2.00,0.60,3.40,1.60,1.80,2.80,1.00,3.80,2.40,4.80,5.20,4.60,5.40,,,,,,,,,,,,,,
1799999991834695732,2027-01-15T07:59:51.834695732Z,0.80,1.80,-0.20,4.40,0.60,1.00,1.80,1.20,4.20,3.20,3.80,5.20,4.20,6.00,,,,,,,,,,,,,,
1799999991843778384,2027-01-15T07:59:51.843778384Z,0.00,0.00,-0.80,2.60,-1.40,0.20,1.20,3.40,4.60,3.80,2.60,6.40,5.60,5.80,,,,,,,,,,,,,,
1799999991852861036,2027-01-15T07:59:51.852861036Z,0.20,-0.60,0.80,2.80,-1.60,1.20,1.40,3.00,3.80,4.80,5.00,6.60,6.40,7.40,,,,,,,,,,,,,,
1799999991861943688,2027-01-15T07:59:51.861943688Z,-0.80,0.80,1.00,2.20,0.60,2.00,2.00,2.20,3.80,6.20,6.60,5.60,5.20,9.20,,,,,,,,,,,,,,
1799999991871026340,2027-01-15T07:59:51.871026340Z,0.00,1.00,0.20,1.40,0.60,1.80,1.60,2.00,3.60,6.00,6.40,6.40,4.20,8.60,,,,,,,,,,,,,,
1799999991880108992,2027-01-15T07:59:51.880108992Z,-2.00,1.00,-0.60,2.60,-0.20,1.20,1.40,2.20,2.80,5.40,5.60,7.40,4.80,6.60,,,,,,,,,,,,,,
1799999991889191644,2027-01-15T07:59:51.889191644Z,-1.00,-0.40,1.40,4.00,1.40,1.80,2.80,3.20,3.00,6.60,6.40,5.20,5.40,6.80,,,,,,,,,,,,,,
1799999991898274297,2027-01-15T07:59:51.898274297Z,0.20,-0.60,2.40,3.60,0.40,3.60,2.80,2.60,3.00,6.60,5.00,3.40,4.00,8.20,,,,,,,,,,,,,,
1799999991907356949,2027-01-15T07:59:51.907356949Z,-0.20,-0.60,2.40,2.40,-1.40,2.40,1.40,2.80,3.80,5.40,4.80,4.00,5.80,8.40,,,,,,,,,,,,,,
1799999991916439601,2027-01-15T07:59:51.916439601Z,0.20,-1.20,2.00,2.20,0.20,1.20,2.20,2.00,4.00,4.60,6.00,4.60,10.60,7.00,,,,,,,,,,,,,,
1799999991925522253,2027-01-15T07:59:51.925522253Z,-1.20,-1.40,2.00,1.60,0.60,1.20,2.60,1.60,4.20,5.00,5.40,5.00,10.20,6.80,,,,,,,,,,,,,,
1799999991934604905,2027-01-15T07:59:51.934604905Z,2.00,-2.20,1.00,-0.40,-1.00,2.00,3.00,2.80,4.00,5.40,4.40,5.80,8.20,7.40,,,,,,,,,,,,,,
1799999991943687557,2027-01-15T07:59:51.943687557Z,-3.80,-2.60,-0.20,0.00,-0.40,1.80,3.00,4.20,2.20,4.60,5.40,6.40,7.80,7.20,,,,,,,,,,,,,,
1799999991952770209,2027-01-15T07:59:51.952770209Z,-1.40,-1.20,-1.60,1.60,1.00,3.40,4.60,4.20,1.60,4.20,6.20,6.20,5.00,6.80,,,,,,,,,,,,,,
1799999991961852862,2027-01-15T07:59:51.961852862Z,-0.80,-1.20,-1.60,0.80,2.40,1.80,4.80,3.80,3.00,5.20,6.20,5.20,4.80,6.00,,,,,,,,,,,,,,
1799999991970935514,2027-01-15T07:59:51.970935514Z,-1.20,-1.20,-1.60,0.40,0.40,0.20,5.00,4.60,4.00,4.60,5.40,5.20,4.20,6.40,,,,,,,,,,,,,,
1799999991980018166,2027-01-15T07:59:51.980018166Z,-3.80,-2.00,-1.60,-1.00,-0.60,0.40,5.00,4.40,4.40,3.60,7.00,4.60,3.60,7.20,,,,,,,,,,,,,,
1799999991989100818,2027-01-15T07:59:51.989100818Z,-2.00,-4.40,-1.00,-2.60,1.80,1.00,3.60,3.80,5.60,2.60,9.00,3.80,4.00,8.40,,,,,,,,,,,,,,
1799999991998183470,2027-01-15T07:59:51.998183470Z,-2.80,-6.60,-0.40,-1.60,2.20,1.20,3.00,4.60,4.40,4.20,7.40,4.40,5.40,7.20,,,,,,,,,,,,,,
1799999992007266122,2027-01-15T07:59:52.007266122Z,-3.80,-6.80,-1.20,-2.00,0.60,3.00,4.20,5.80,2.60,6.00,5.20,5.40,6.00,6.80,,,,,,,,,,,,,,
1799999992016348774,2027-01-15T07:59:52.016348774Z,-4.00,-5.00,-0.60,-3.00,1.00,2.80,2.00,6.20,2.20,5.80,3.40,5.80,5.00,6.40,,,,,,,,,,,,,,
1799999992025431426,2027-01-15T07:59:52.025431426Z,-4.40,-4.60,-1.40,-2.40,1.60,1.20,-1.60,5.40,3.00,4.60,1.80,5.20,5.40,4.40,,,,,,,,,,,,,,
1799999992034514079,2027-01-15T07:59:52.034514079Z,-6.40,-3.80,-2.00,-2.80,1.60,1.00,-1.00,5.20,3.00,3.80,2.80,5.40,5.00,3.80,,,,,,,,,,,,,,
1799999992043596731,2027-01-15T07:59:52.043596731Z,-7.60,-1.80,-1.20,-1.20,1.60,-0.20,1.40,4.40,4.40,3.40,5.40,5.20,4.20,6.20,,,,,,,,,,,,,,
1799999992052679383,2027-01-15T07:59:52.052679383Z,-7.40,-2.60,-1.60,1.60,0.20,-0.60,0.80,2.20,5.40,4.80,5.00,4.00,6.20,8.20,,,,,,,,,,,,,,
1799999992061762035,2027-01-15T07:59:52.061762035Z,-7.60,-6.00,-3.60,1.20,0.20,0.20,0.80,2.00,5.20,6.00,4.20,3.80,7.00,7.80,,,,,,,,,,,,,,
1799999992070844687,2027-01-15T07:59:52.070844687Z,-5.00,-6.00,-4.20,1.20,1.80,1.40,1.80,3.60,4.80,5.00,3.80,5.00,5.00,7.20,,,,,,,,,,,,,,
1799999992079927339,2027-01-15T07:59:52.079927339Z,-4.00,-5.00,-1.80,0.20,1.60,2.40,2.20,3.40,5.40,4.60,5.20,4.40,5.00,7.20,,,,,,,,,,,,,,
1799999992089009991,2027-01-15T07:59:52.089009991Z,-4.60,-2.40,-0.40,-0.60,0.80,2.20,2.00,4.20,5.60,5.00,5.40,4.00,6.00,6.80,,,,,,,,,,,,,,
1799999992098092644,2027-01-15T07:59:52.098092644Z,-3.40,0.40,-0.20,-1.40,0.80,1.60,1.60,6.00,6.60,5.20,4.00,5.20,5.40,5.60,,,,,,,,,,,,,,
1799999992107175296,2027-01-15T07:59:52.107175296Z,-1.20,-0.60,-2.60,-1.40,1.60,1.00,1.80,4.40,7.20,4.40,3.60,5.20,6.20,5.60,,,,,,,,,,,,,,
1799999992116257948,2027-01-15T07:59:52.116257948Z,-1.40,-1.60,-3.00,-1.20,4.00,2.00,2.20,2.60,6.20,6.40,4.40,5.60,5.60,7.00,,,,,,,,,,,,,,
1799999992125340600,2027-01-15T07:59:52.125340600Z,-3.60,-2.60,-0.80,-1.00,5.20,4.60,1.80,4.00,3.40,7.60,4.20,7.80,5.60,6.40,,,,,,,,,,,,,,
1799999992134423252,2027-01-15T07:59:52.134423252Z,0.00,-2.60,-1.00,0.00,3.00,4.80,3.20,3.00,1.60,5.00,4.80,7.60,9.20,6.80,,,,,,,,,,,,,,
1799999992143505904,2027-01-15T07:59:52.143505904Z,1.80,-1.20,-1.20,0.20,1.40,4.40,3.60,2.40,1.20,4.20,5.00,7.20,10.00,7.20,,,,,,,,,,,,,,
1799999992152588556,2027-01-15T07:59:52.152588556Z,2.20,0.80,-1.80,0.80,1.80,4.00,2.20,4.40,2.20,5.80,3.40,7.00,7.20,7.80,,,,,,,,,,,,,,
1799999992161671208,2027-01-15T07:59:52.161671208Z,3.00,0.40,0.40,1.60,2.40,2.40,1.20,4.40,3.00,5.40,3.00,7.40,7.20,6.40,,,,,,,,,,,,,,
1799999992170753861,2027-01-15T07:59:52.170753861Z,0.40,0.40,1.40,2.20,2.60,2.00,3.00,3.80,1.00,4.80,4.40,6.60,8.00,6.20,,,,,,,,,,,,,,
1799999992179836513,2027-01-15T07:59:52.179836513Z,-0.20,0.40,0.80,2.40,3.40,1.40,3.40,5.20,0.80,4.60,5.40,6.80,8.60,6.60,,,,,,,,,,,,,,
1799999992188919165,2027-01-15T07:59:52.188919165Z,2.20,0.60,1.20,2.00,3.60,-0.80,1.20,4.40,3.20,5.20,4.80,7.00,7.80,6.20,,,,,,,,,,,,,,
1799999992198001817,2027-01-15T07:59:52.198001817Z,1.80,0.20,-0.40,1.80,1.40,0.20,0.20,1.80,5.20,5.00,4.60,6.60,7.80,8.00,,,,,,,,,,,,,,
1799999992207084469,2027-01-15T07:59:52.207084469Z,0.40,2.20,-1.00,1.20,1.60,1.80,-0.20,0.60,4.40,4.20,5.00,6.80,8.20,8.60,,,,,,,,,,,,,,
1799999992216167121,2027-01-15T07:59:52.216167121Z,0.80,3.60,0.60,1.20,4.20,3.40,-0.40,1.20,3.20,3.20,5.20,6.80,8.20,5.80,,,,,,,,,,,,,,
1799999992225249773,2027-01-15T07:59:52.225249773Z,0.40,1.20,2.60,2.80,3.60,2.60,0.60,2.20,5.20,3.40,4.60,5.40,6.40,5.00,,,,,,,,,,,,,,
1799999992234332426,2027-01-15T07:59:52.234332426Z,-1.40,1.80,1.00,2.20,1.60,1.80,0.20,2.20,6.20,2.60,5.60,5.20,4.60,6.60,,,,,,,,,,,,,,
1799999992243415078,2027-01-15T07:59:52.243415078Z,-2.00,1.60,-1.40,-1.00,1.80,2.60,1.00,2.40,4.40,3.00,7.20,4.40,5.60,6.60,,,,,,,,,,,,,,
1799999992252497730,2027-01-15T07:59:52.252497730Z,-1.60,0.60,-0.40,-0.60,1.20,2.40,2.80,0.80,3.20,3.20,5.40,4.20,3.20,7.40,,,,,,,,,,,,,,
1799999992261580382,2027-01-15T07:59:52.261580382Z,0.80,1.00,0.00,0.60,1.00,2.00,2.40,-0.20,3.20,3.20,4.80,5.20,2.80,8.40,,,,,,,,,,,,,,
1799999992270663034,2027-01-15T07:59:52.270663034Z,5.40,2.40,0.40,0.40,1.40,1.60,1.20,1.00,2.40,4.40,5.00,6.80,7.00,10.60,,,,,,,,,,,,,,
1799999992279745686,2027-01-15T07:59:52.279745686Z,3.20,3.00,2.60,0.80,-0.40,1.40,2.20,2.80,4.00,3.80,5.80,5.80,7.20,11.00,,,,,,,,,,,,,,
1799999992288828338,2027-01-15T07:59:52.288828338Z,2.80,2.80,3.40,0.20,-1.00,1.20,2.20,1.80,5.00,2.40,4.60,4.60,6.40,9.40,,,,,,,,,,,,,,
1799999992297910991,2027-01-15T07:59:52.297910991Z,1.20,2.00,2.00,0.60,1.00,1.80,2.80,1.20,3.00,3.00,4.80,6.40,7.60,7.40,,,,,,,,,,,,,,
1799999992306993643,2027-01-15T07:59:52.306993643Z,0.60,0.40,1.20,0.80,1.60,0.80,3.40,2.40,3.40,2.60,4.40,8.00,7.80,5.20,,,,,,,,,,,,,,
1799999992316076295,2027-01-15T07:59:52.316076295Z,-0.20,0.00,0.20,0.80,1.40,1.40,3.20,3.00,4.60,2.40,4.20,7.80,6.00,6.00,,,,,,,,,,,,,,
1799999992325158947,2027-01-15T07:59:52.325158947Z,0.80,0.80,-1.00,2.40,1.60,3.20,4.80,4.80,5.60,3.80,5.60,6.80,5.00,7.60,,,,,,,,,,,,,,
1799999992334241599,2027-01-15T07:59:52.334241599Z,0.80,-0.80,-0.40,3.40,2.60,2.60,6.40,5.20,4.40,3.80,7.40,6.40,7.60,7.00,,,,,,,,,,,,,,
1799999992343324251,2027-01-15T07:59:52.343324251Z,-2.00,-1.40,-0.20,1.20,2.80,2.60,6.00,3.80,4.20,4.60,6.80,5.40,7.20,7.80,,,,,,,,,,,,,,
1799999992352406903,2027-01-15T07:59:52.352406903Z,-4.80,0.80,-0.80,0.00,2.80,3.00,3.60,3.60,5.60,6.40,6.20,4.80,3.80,8.20,,,,,,,,,,,,,,
1799999992361489555,2027-01-15T07:59:52.361489555Z,-3.80,0.60,-0.80,0.80,1.60,3.00,2.80,3.80,4.60,5.20,4.60,4.60,5.20,5.60,,,,,,,,,,,,,,
1799999992370572208,2027-01-15T07:59:52.370572208Z,-3.40,-1.20,0.00,-0.20,1.00,3.00,3.20,3.40,3.20,4.00,4.60,5.40,6.80,4.00,,,,,,,,,,,,,,
1799999992379654860,2027-01-15T07:59:52.379654860Z,-4.20,-2.60,1.60,-1.40,1.60,1.80,3.00,2.60,1.20,4.80,6.60,6.60,7.40,4.60,,,,,,,,,,,,,,
1799999992388737512,2027-01-15T07:59:52.388737512Z,-0.40,-2.40,2.60,-0.40,0.60,1.40,1.20,3.80,3.80,3.80,6.60,5.80,8.40,6.20,,,,,,,,,,,,,,
1799999992397820164,2027-01-15T07:59:52.397820164Z,-0.40,-3.00,2.20,-0.40,-1.60,2.80,1.80,4.20,6.20,3.00,5.80,5.80,9.80,6.60,,,,,,,,,,,,,,
1799999992406902816,2027-01-15T07:59:52.406902816Z,-3.80,-2.40,0.40,-0.20,-1.60,2.40,2.40,3.00,5.60,4.00,6.40,5.60,7.40,7.40,,,,,,,,,,,,,,
1799999992415985468,2027-01-15T07:59:52.415985468Z,-4.80,0.00,0.20,1.80,0.40,2.40,3.40,4.20,4.40,5.00,4.20,4.80,4.00,7.60,,,,,,,,,,,,,,
1799999992425068120,2027-01-15T07:59:52.425068120Z,-1.20,-0.40,0.80,2.80,2.20,2.60,3.60,4.60,4.40,5.00,3.00,5.60,6.20,7.00,,,,,,,,,,,,,,
1799999992434150773,2027-01-15T07:59:52.434150773Z,-0.80,-2.80,0.00,1.40,3.00,1.60,4.80,4.60,4.20,3.80,3.80,7.00,10.00,5.60,,,,,,,,,,,,,,
1799999992443233425,2027-01-15T07:59:52.443233425Z,-3.20,-3.60,0.00,-0.20,2.00,-1.40,4.00,3.20,4.40,3.40,2.00,6.60,8.00,7.20,,,,,,,,,,,,,,
1799999992452316077,2027-01-15T07:59:52.452316077Z,-1.80,-4.20,0.20,-1.00,1.40,-0.60,5.20,2.60,5.00,4.60,2.00,6.40,8.00,6.40,,,,,,,,,,,,,,
1799999992461398729,2027-01-15T07:59:52.461398729Z,-2.40,-3.00,-0.40,-0.20,2.20,1.80,6.00,3.20,5.80,4.20,4.80,6.40,8.20,5.20,,,,,,,,,,,,,,
1799999992470481381,2027-01-15T07:59:52.470481381Z,-4.00,0.40,0.20,-1.20,1.40,1.00,4.40,3.20,6.20,3.00,4.80,6.00,4.80,6.80,,,,,,,,,,,,,,
1799999992479564033,2027-01-15T07:59:52.479564033Z,-1.60,-0.60,0.40,-1.20,1.00,-0.40,2.60,2.80,5.00,3.20,4.00,6.00,3.60,7.80,,,,,,,,,,,,,,
1799999992488646685,2027-01-15T07:59:52.488646685Z,0.20,-4.40,-0.80,0.40,0.80,-0.20,2.00,3.00,2.80,4.20,4.80,5.80,4.20,7.00,,,,,,,,,,,,,,
1799999992497729337,2027-01-15T07:59:52.497729337Z,-0.40,-3.20,-1.80,-0.20,-0.40,0.80,2.00,2.60,3.40,4.40,4.80,5.80,3.40,7.60,,,,,,,,,,,,,,
1799999992506811990,2027-01-15T07:59:52.506811990Z,-2.80,-0.80,-0.80,-0.20,-0.40,0.20,1.60,2.20,4.00,3.80,4.80,5.60,5.60,8.60,,,,,,,,,,,,,,
1799999992515894642,2027-01-15T07:59:52.515894642Z,-2.80,-0.40,-0.40,1.60,0.20,-0.40,1.20,2.80,4.60,3.20,5.40,5.40,6.40,7.60,,,,,,,,,,,,,,
1799999992524977294,2027-01-15T07:59:52.524977294Z,-1.20,-3.00,-1.40,1.80,-0.20,1.20,1.80,3.80,3.40,4.40,4.60,5.80,5.60,5.80,,,,,,,,,,,,,,
1799999992534059946,2027-01-15T07:59:52.534059946Z,-0.60,-3.00,-1.20,1.00,0.40,2.20,3.20,3.60,3.80,5.60,5.40,5.20,5.60,5.20,,,,,,,,,,,,,,
1799999992543142598,2027-01-15T07:59:52.543142598Z,-0.60,-1.40,0.00,-0.20,1.80,3.40,4.80,2.40,5.20,6.20,6.20,5.00,6.40,6.80,,,,,,,,,,,,,,
1799999992552225250,2027-01-15T07:59:52.552225250Z,-0.20,-1.20,0.00,-0.60,1.40,3.40,3.40,2.00,4.00,4.40,4.80,6.40,6.40,8.40,,,,,,,,,,,,,,
1799999992561307902,2027-01-15T07:59:52.561307902Z,0.80,-0.80,0.20,-0.40,0.60,0.00,1.60,3.20,3.20,1.80,3.80,7.40,7.60,8.00,,,,,,,,,,,,,,
1799999992570390555,2027-01-15T07:59:52.570390555Z,1.20,-0.40,1.40,0.40,0.20,-2.20,2.20,2.80,3.80,1.00,3.80,6.80,8.60,7.00,,,,,,,,,,,,,,
1799999992579473207,2027-01-15T07:59:52.579473207Z,0.80,0.20,1.40,2.00,0.20,0.20,3.60,3.00,5.40,2.60,3.80,5.80,6.40,6.40,,,,,,,,,,,,,,
1799999992588555859,2027-01-15T07:59:52.588555859Z,0.00,0.20,1.00,2.40,0.40,1.40,4.40,3.00,5.60,2.80,3.60,5.20,6.20,6.00,,,,,,,,,,,,,,
1799999992597638511,2027-01-15T07:59:52.597638511Z,-1.20,-0.80,1.60,2.20,0.80,0.60,6.20,2.60,3.80,1.80,2.80,5.20,9.00,6.40,,,,,,,,,,,,,,
1799999992606721163,2027-01-15T07:59:52.606721163Z,-0.60,-0.40,0.80,1.80,0.80,1.80,5.00,3.80,3.40,2.60,3.40,6.60,8.20,7.20,,,,,,,,,,,,,,
1799999992615803815,2027-01-15T07:59:52.615803815Z,-0.20,-1.60,-0.60,0.00,1.00,2.00,2.60,4.40,5.80,3.40,5.00,7.80,6.40,7.20,,,,,,,,,,,,,,
1799999992624886467,2027-01-15T07:59:52.624886467Z,0.40,-3.00,0.00,-1.80,2.00,1.00,3.40,2.80,5.20,2.60,6.00,7.20,6.60,8.00,,,,,,,,,,,,,,
1799999992633969119,2027-01-15T07:59:52.633969119Z,-1.00,-0.20,-0.20,-0.60,1.20,0.60,5.20,1.40,2.80,2.40,4.60,6.20,4.60,7.20,,,,,,,,,,,,,,
1799999992643051772,2027-01-15T07:59:52.643051772Z,-0.20,1.40,0.00,0.60,-1.00,1.40,3.40,3.60,2.20,4.00,4.80,6.20,4.20,5.00,,,,,,,,,,,,,,
1799999992652134424,2027-01-15T07:59:52.652134424Z,-1.60,0.40,0.00,-0.20,-1.00,1.80,1.80,3.60,3.00,5.40,5.20,5.60,5.40,5.20,,,,,,,,,,,,,,
1799999992661217076,2027-01-15T07:59:52.661217076Z,-0.40,-1.00,-1.80,-1.20,0.00,2.60,2.00,1.40,4.00,6.80,5.00,4.80,6.60,7.40,,,,,,,,,,,,,,
1799999992670299728,2027-01-15T07:59:52.670299728Z,-0.40,-0.20,-2.80,0.60,-1.00,1.40,2.20,2.60,4.40,5.80,4.20,5.60,3.20,8.20,,,,,,,,,,,,,,
1799999992679382380,2027-01-15T07:59:52.679382380Z,0.00,0.00,-1.60,1.40,-0.20,1.40,1.40,3.60,3.40,4.60,5.00,4.60,2.60,7.80,,,,,,,,,,,,,,
1799999992688465032,2027-01-15T07:59:52.688465032Z,0.40,-1.20,-0.20,0.60,1.80,2.00,-0.20,3.20,2.60,4.20,6.00,3.80,4.80,7.40,,,,,,,,,,,,,,
1799999992697547684,2027-01-15T07:59:52.697547684Z,0.40,-1.20,-0.40,0.60,1.60,0.00,0.00,3.60,2.80,5.40,7.60,6.00,3.80,6.40,,,,,,,,,,,,,,
1799999992706630337,2027-01-15T07:59:52.706630337Z,-0.60,-1.00,-1.40,1.40,1.00,-0.40,0.60,3.80,3.00,5.60,8.20,6.20,6.20,5.80,,,,,,,,,,,,,,
1799999992715712989,2027-01-15T07:59:52.715712989Z,-1.40,-1.40,-2.80,2.40,0.40,1.00,1.20,3.20,2.60,4.80,7.60,4.80,9.20,5.40,,,,,,,,,,,,,,
1799999992724795641,2027-01-15T07:59:52.724795641Z,-0.80,-2.20,-0.80,2.20,-0.40,-0.40,0.20,3.20,2.60,5.00,4.00,6.00,6.20,6.40,,,,,,,,,,,,,,
1799999992733878293,2027-01-15T07:59:52.733878293Z,-1.00,-0.80,0.40,1.80,-0.20,-0.80,0.20,3.60,4.00,5.00,3.60,7.60,4.60,7.20,,,,,,,,,,,,,,
1799999992742960945,2027-01-15T07:59:52.742960945Z,-0.80,0.60,-0.60,0.80,-1.00,1.80,1.60,3.80,4.20,3.60,5.40,6.60,5.80,8.00,,,,,,,,,,,,,,
1799999992752043597,2027-01-15T07:59:52.752043597Z,-2.00,2.00,0.20,0.80,1.00,3.40,2.40,1.80,2.40,4.00,4.40,4.80,3.80,6.80,,,,,,,,,,,,,,
1799999992761126249,2027-01-15T07:59:52.761126249Z,-1.40,3.00,1.20,1.20,2.40,4.40,2.00,1.40,4.20,4.80,3.60,5.00,4.40,6.40,,,,,,,,,,,,,,
1799999992770208901,2027-01-15T07:59:52.770208901Z,-1.20,1.40,1.20,0.60,2.60,4.60,2.20,3.20,6.60,4.80,4.00,5.80,6.80,7.80,,,,,,,,,,,,,,
1799999992779291554,2027-01-15T07:59:52.779291554Z,-1.40,-1.80,0.40,-1.00,4.40,1.80,2.60,3.00,4.80,3.40,3.20,5.80,5.00,7.60,,,,,,,,,,,,,,
1799999992788374206,2027-01-15T07:59:52.788374206Z,-0.40,-1.80,0.40,-0.20,3.60,0.80,2.40,2.80,4.00,3.20,4.20,5.20,6.80,5.80,,,,,,,,,,,,,,
1799999992797456858,2027-01-15T07:59:52.797456858Z,-0.20,-0.80,-1.20,1.60,0.20,2.60,3.60,5.00,4.60,3.80,6.20,4.00,10.60,6.60,,,,,,,,,,,,,,
1799999992806539510,2027-01-15T07:59:52.806539510Z,-0.40,-2.20,-2.20,1.20,0.40,3.00,2.80,4.60,4.20,3.60,5.80,5.20,8.40,7.20,,,,,,,,,,,,,,
1799999992815622162,2027-01-15T07:59:52.815622162Z,0.00,-2.60,-1.20,2.00,1.40,2.00,2.40,3.20,4.60,4.40,5.00,5.80,6.00,6.60,,,,,,,,,,,,,,
1799999992824704814,2027-01-15T07:59:52.824704814Z,-2.60,-2.20,0.80,2.40,2.20,1.00,3.60,2.00,4.80,5.00,5.00,4.60,7.60,7.00,,,,,,,,,,,,,,
1799999992833787466,2027-01-15T07:59:52.833787466Z,-2.40,-0.80,-1.40,0.00,1.20,2.00,4.40,3.40,3.80,3.20,4.20,5.40,8.20,6.40,,,,,,,,,,,,,,
1799999992842870119,2027-01-15T07:59:52.842870119Z,-2.00,-1.80,-1.40,-0.60,-0.40,1.80,3.40,5.40,2.60,2.60,4.60,6.60,7.40,5.20,,,,,,,,,,,,,,
1799999992851952771,2027-01-15T07:59:52.851952771Z,-2.00,-2.80,-0.60,0.40,0.60,-0.40,3.20,5.20,1.40,3.80,6.20,6.80,4.60,6.40,,,,,,,,,,,,,,
1799999992861035423,2027-01-15T07:59:52.861035423Z,0.20,-1.40,0.60,-1.40,4.00,1.20,3.00,4.80,1.40,4.80,5.80,5.80,5.20,7.20,,,,,,,,,,,,,,
1799999992870118075,2027-01-15T07:59:52.870118075Z,2.00,-1.60,0.80,-0.60,4.40,2.60,3.80,4.40,2.20,5.40,4.40,5.60,6.60,6.80,,,,,,,,,,,,,,
1799999992879200727,2027-01-15T07:59:52.879200727Z,-2.40,-2.40,0.20,2.40,3.00,0.60,5.00,3.00,2.80,5.80,3.20,5.40,9.20,5.40,,,,,,,,,,,,,,
1799999992888283379,2027-01-15T07:59:52.888283379Z,-1.60,-1.00,-1.00,2.00,3.40,-0.40,5.00,2.20,2.00,5.40,5.60,5.00,5.60,5.20,,,,,,,,,,,,,,
1799999992897366031,2027-01-15T07:59:52.897366031Z,-2.00,-0.80,-1.60,-0.60,2.20,0.60,4.80,4.00,3.60,6.20,6.00,4.20,5.40,5.20,,,,,,,,,,,,,,
1799999992906448684,2027-01-15T07:59:52.906448684Z,-3.40,-2.20,-1.40,-1.60,0.80,0.00,4.20,4.20,6.60,6.60,5.00,5.00,7.40,6.80,,,,,,,,,,,,,,
1799999992915531336,2027-01-15T07:59:52.915531336Z,0.00,-1.40,-0.80,0.80,1.60,-0.40,3.00,1.40,7.20,5.80,4.80,5.80,8.60,7.60,,,,,,,,,,,,,,
1799999992924613988,2027-01-15T07:59:52.924613988Z,0.40,-0.40,0.40,1.60,1.80,-0.20,3.40,1.00,6.40,5.80,4.60,5.60,5.80,7.80,,,,,,,,,,,,,,
1799999992933696640,2027-01-15T07:59:52.933696640Z,-0.20,0.20,0.00,0.40,2.20,1.00,4.80,3.20,5.20,7.00,4.60,5.00,2.20,7.40,,,,,,,,,,,,,,
1799999992942779292,2027-01-15T07:59:52.942779292Z,-0.60,0.00,-3.00,0.40,2.00,2.60,4.20,3.40,3.20,7.00,4.60,5.20,3.60,5.80,,,,,,,,,,,,,,
1799999992951861944,2027-01-15T07:59:52.951861944Z,-0.40,-0.20,-3.40,1.20,2.60,3.80,2.40,3.20,3.80,5.80,4.40,6.60,6.80,5.80,,,,,,,,,,,,,,
1799999992960944596,2027-01-15T07:59:52.960944596Z,,-1.20,-1.60,1.80,2.20,3.40,2.40,4.00,5.60,5.60,5.40,7.80,6.20,6.60,,,,,,,,,,,,,,
1799999992970027248,2027-01-15T07:59:52.970027248Z,0.80,-0.40,-1.00,1.40,1.80,1.60,1.00,4.00,5.60,5.20,6.80,6.00,6.40,5.20,,,,,,,,,,,,,,
1799999992979109901,2027-01-15T07:59:52.979109901Z,1.40,-0.20,0.60,0.60,1.20,0.80,0.40,3.60,4.80,4.80,5.40,5.00,6.80,5.20,,,,,,,,,,,,,,
1799999992988192553,2027-01-15T07:59:52.988192553Z,-1.20,-1.80,1.40,0.00,0.40,1.80,2.20,2.00,4.40,3.60,3.40,4.80,5.20,5.80,,,,,,,,,,,,,,
1799999992997275205,2027-01-15T07:59:52.997275205Z,-1.60,-2.60,-1.00,0.60,0.20,2.20,2.20,2.60,3.40,3.40,4.80,5.00,5.00,5.00,,,,,,,,,,,,,,
1799999993006357857,2027-01-15T07:59:53.006357857Z,-1.20,-0.80,-1.00,-0.20,0.40,3.20,3.40,4.80,2.00,4.60,6.00,6.00,5.80,5.60,,,,,,,,,,,,,,
1799999993015440509,2027-01-15T07:59:53.015440509Z,-0.80,1.40,1.20,-0.60,-0.20,4.00,3.20,3.80,2.40,6.20,6.20,6.00,5.60,6.60,,,,,,,,,,,,,,
1799999993024523161,2027-01-15T07:59:53.024523161Z,-1.40,-0.20,0.20,1.40,-0.80,2.20,1.80,1.20,4.20,6.60,4.00,5.60,8.20,7.60,,,,,,,,,,,,,,
1799999993033605813,2027-01-15T07:59:53.033605813Z,-1.00,-1.20,0.40,1.00,0.00,0.60,1.80,0.80,4.00,6.00,3.40,6.00,9.40,7.40,,,,,,,,,,,,,,
1799999993042688466,2027-01-15T07:59:53.042688466Z,0.40,0.40,2.60,0.40,1.00,-0.60,1.00,1.00,2.20,6.20,5.80,6.80,8.40,7.00,,,,,,,,,,,,,,
1799999993051771118,2027-01-15T07:59:53.051771118Z,0.60,0.60,2.00,1.20,-0.60,0.00,-0.80,0.80,2.00,7.40,7.00,5.40,8.40,7.60,,,,,,,,,,,,,,
1799999993060853770,2027-01-15T07:59:53.060853770Z,0.20,0.60,0.60,-0.20,-3.20,1.40,-0.20,2.00,1.80,7.40,6.80,5.60,7.60,8.00,,,,,,,,,,,,,,
1799999993069936422,2027-01-15T07:59:53.069936422Z,-1.80,1.60,-0.80,0.40,-2.40,2.60,0.60,2.20,0.60,4.60,6.00,6.40,5.40,7.20,,,,,,,,,,,,,,
1799999993079019074,2027-01-15T07:59:53.079019074Z,0.40,0.60,-0.80,1.60,0.20,2.40,1.00,1.00,2.00,4.20,5.20,5.80,6.20,6.40,,,,,,,,,,,,,,
1799999993088101726,2027-01-15T07:59:53.088101726Z,0.60,-0.40,-0.20,1.20,0.80,2.40,1.00,2.00,3.00,5.00,5.40,5.20,5.80,7.00,,,,,,,,,,,,,,
1799999993097184378,2027-01-15T07:59:53.097184378Z,1.40,0.20,1.80,0.60,-0.40,1.60,2.60,4.00,2.80,4.40,5.20,5.80,4.00,7.60,,,,,,,,,,,,,,
1799999993106267030,2027-01-15T07:59:53.106267030Z,1.20,-0.20,2.00,1.20,0.00,1.60,4.40,4.60,3.40,5.40,4.60,6.80,6.60,5.80,,,,,,,,,,,,,,
1799999993115349683,2027-01-15T07:59:53.115349683Z,0.40,-0.40,0.20,1.20,1.40,3.80,3.40,4.80,4.80,4.40,5.80,5.60,9.80,4.40,,,,,,,,,,,,,,
1799999993124432335,2027-01-15T07:59:53.124432335Z,0.00,0.20,-1.20,0.80,2.20,5.00,1.40,5.40,5.80,3.20,5.40,4.60,8.00,5.40,,,,,,,,,,,,,,
1799999993133514987,2027-01-15T07:59:53.133514987Z,0.40,-0.20,-0.40,1.00,1.60,2.80,1.80,4.20,6.00,4.80,4.40,5.60,6.00,6.80,,,,,,,,,,,,,,
1799999993142597639,2027-01-15T07:59:53.142597639Z,0.20,-1.20,0.60,-0.20,1.60,0.00,3.60,2.80,2.80,3.60,5.20,6.20,7.60,7.20,,,,,,,,,,,,,,
1799999993151680291,2027-01-15T07:59:53.151680291Z,0.80,-1.20,0.20,-0.20,2.20,-1.00,4.00,2.80,2.20,2.80,5.00,5.80,8.60,7.20,,,,,,,,,,,,,,
1799999993160762943,2027-01-15T07:59:53.160762943Z,0.60,-1.40,0.00,1.40,2.60,-1.80,3.60,1.60,2.20,4.20,3.40,5.20,7.60,7.60,,,,,,,,,,,,,,
1799999993169845595,2027-01-15T07:59:53.169845595Z,-1.20,-0.40,-0.40,2.20,3.40,-0.60,2.40,2.20,6.00,6.20,3.80,4.20,5.00,7.60,,,,,,,,,,,,,,
1799999993178928248,2027-01-15T07:59:53.178928248Z,-2.60,-0.80,-1.80,1.60,3.40,1.00,3.00,5.00,6.00,5.80,5.40,4.20,3.60,7.40,,,,,,,,,,,,,,
1799999993188010900,2027-01-15T07:59:53.188010900Z,1.80,-0.60,-1.80,1.40,1.60,1.60,4.00,5.80,3.20,5.00,5.60,4.80,7.00,7.60,,,,,,,,,,,,,,
1799999993197093552,2027-01-15T07:59:53.197093552Z,-1.80,-1.00,-0.40,0.20,1.00,2.40,4.40,3.00,3.20,4.00,4.80,5.00,10.00,7.00,,,,,,,,,,,,,,
1799999993206176204,2027-01-15T07:59:53.206176204Z,2.40,-1.60,-0.40,-0.40,2.00,3.00,4.00,2.60,3.80,3.40,5.60,5.80,9.60,6.60,,,,,,,,,,,,,,
1799999993215258856,2027-01-15T07:59:53.215258856Z,1.00,-1.40,-0.80,0.20,3.40,3.00,1.60,3.60,3.20,3.20,6.60,6.60,7.40,6.20,,,,,,,,,,,,,,
1799999993224341508,2027-01-15T07:59:53.224341508Z,0.60,-1.40,0.60,1.00,3.40,1.80,0.80,2.60,4.80,3.60,5.20,6.40,6.60,7.20,,,,,,,,,,,,,,
1799999993233424160,2027-01-15T07:59:53.233424160Z,-2.80,-1.00,2.20,-0.60,1.40,1.20,3.40,3.00,6.20,4.60,4.80,6.20,6.60,8.00,,,,,,,,,,,,,,
1799999993242506812,2027-01-15T07:59:53.242506812Z,-2.20,-1.60,1.80,-2.20,0.40,1.20,4.00,5.20,5.00,5.00,4.60,6.00,7.20,6.80,,,,,,,,,,,,,,
1799999993251589465,2027-01-15T07:59:53.251589465Z,0.20,-0.20,-0.20,-0.40,1.80,0.60,1.80,4.20,4.40,4.40,4.40,6.40,3.60,6.00,,,,,,,,,,,,,,
1799999993260672117,2027-01-15T07:59:53.260672117Z,-0.20,0.20,0.40,0.60,2.80,1.60,0.80,3.00,4.60,4.20,5.40,6.00,3.60,6.20,,,,,,,,,,,,,,
1799999993269754769,2027-01-15T07:59:53.269754769Z,-0.60,-1.00,0.60,0.60,2.00,1.60,1.80,3.60,4.80,4.20,6.80,5.60,7.60,6.00,,,,,,,,,,,,,,
1799999993278837421,2027-01-15T07:59:53.278837421Z,-0.40,-1.00,-1.40,2.00,-2.00,-0.80,3.00,4.00,4.00,3.60,5.40,5.20,6.20,6.60,,,,,,,,,,,,,,
1799999993287920073,2027-01-15T07:59:53.287920073Z,-2.00,-1.00,-0.20,3.00,-2.20,-0.40,2.20,3.80,5.00,3.60,6.40,4.20,3.20,8.00,,,,,,,,,,,,,,
1799999993297002725,2027-01-15T07:59:53.297002725Z,-2.00,-1.80,1.20,1.80,2.40,2.20,1.00,4.60,5.00,3.60,7.60,5.20,3.60,7.80,,,,,,,,,,,,,,
1799999993306085377,2027-01-15T07:59:53.306085377Z,1.40,-2.60,-0.80,0.20,3.80,3.00,1.00,3.80,4.20,4.20,5.60,6.80,3.40,7.00,,,,,,,,,,,,,,
1799999993315168030,2027-01-15T07:59:53.315168030Z,-1.20,-2.60,-0.60,0.00,2.40,3.80,1.40,3.00,4.00,4.40,3.60,6.80,3.40,7.20,,,,,,,,,,,,,,
1799999993324250682,2027-01-15T07:59:53.324250682Z,-1.20,-1.40,1.80,0.40,1.00,3.40,2.20,3.20,3.80,4.80,2.20,6.40,6.20,7.60,,,,,,,,,,,,,,
1799999993333333334,2027-01-15T07:59:53.333333334Z,-1.00,-0.60,0.80,1.40,2.40,1.00,2.20,2.60,4.40,3.80,2.60,5.60,7.60,7.20,,,,,,,,,,,,,,
1799999993342415986,2027-01-15T07:59:53.342415986Z,-1.20,-1.40,-1.40,1.20,3.60,1.00,2.60,3.40,4.80,3.80,5.00,5.20,5.80,7.20,,,,,,,,,,,,,,
1799999993351498638,2027-01-15T07:59:53.351498638Z,-2.20,-0.60,-1.40,0.40,2.00,2.60,4.20,4.20,4.80,4.60,6.40,6.00,7.20,7.40,,,,,,,,,,,,,,
1799999993360581290,2027-01-15T07:59:53.360581290Z,-0.80,0.80,-0.20,1.00,0.60,2.20,2.60,3.00,2.80,5.20,4.60,6.60,9.00,6.40,,,,,,,,,,,,,,
1799999993369663942,2027-01-15T07:59:53.369663942Z,0.20,0.40,-0.60,0.80,0.60,2.20,1.60,2.40,2.60,5.00,3.60,6.80,8.60,7.40,,,,,,,,,,,,,,
1799999993378746595,2027-01-15T07:59:53.378746595Z,-2.00,-1.00,-1.40,-0.20,0.60,3.80,2.80,3.20,4.80,4.80,4.40,5.80,6.60,7.20,,,,,,,,,,,,,,
1799999993387829247,2027-01-15T07:59:53.387829247Z,0.40,-1.20,-0.20,0.00,0.20,3.00,3.20,2.00,7.60,4.60,4.60,4.40,6.20,4.00,,,,,,,,,,,,,,
1799999993396911899,2027-01-15T07:59:53.396911899Z,0.60,-0.80,1.00,1.20,0.80,2.20,2.40,1.80,6.60,3.00,4.60,4.40,7.40,3.80,,,,,,,,,,,,,,
1799999993405994551,2027-01-15T07:59:53.405994551Z,-2.40,0.80,1.20,2.80,1.80,4.80,2.00,3.40,4.00,2.00,5.60,6.00,6.60,7.00,,,,,,,,,,,,,,
1799999993415077203,2027-01-15T07:59:53.415077203Z,-2.40,0.40,-0.20,1.20,2.40,3.20,2.00,5.40,1.80,3.00,4.80,5.80,7.00,8.00,,,,,,,,,,,,,,
1799999993424159855,2027-01-15T07:59:53.424159855Z,1.00,0.40,-0.80,0.60,1.20,2.40,2.20,5.60,3.80,3.80,4.80,5.20,5.80,8.00,,,,,,,,,,,,,,
1799999993433242507,2027-01-15T07:59:53.433242507Z,1.00,0.40,-1.20,1.40,-1.00,0.20,2.00,3.60,7.00,4.00,6.20,5.40,2.40,7.60,,,,,,,,,,,,,,
1799999993442325159,2027-01-15T07:59:53.442325159Z,-0.20,-0.80,-0.20,1.80,-2.20,1.40,1.60,1.20,4.40,2.80,5.60,7.40,4.40,5.20,,,,,,,,,,,,,,
1799999993451407812,2027-01-15T07:59:53.451407812Z,0.20,0.40,0.60,1.40,-2.20,1.60,0.40,0.60,1.80,4.60,4.20,7.40,8.00,3.60,,,,,,,,,,,,,,
1799999993460490464,2027-01-15T07:59:53.460490464Z,-1.60,0.60,0.60,2.60,-1.20,2.00,0.60,2.20,3.80,6.20,3.20,6.60,7.20,5.00,,,,,,,,,,,,,,
1799999993469573116,2027-01-15T07:59:53.469573116Z,-2.20,-0.40,1.60,3.20,0.80,2.80,1.40,2.80,4.00,4.40,2.40,6.00,6.60,6.80,,,,,,,,,,,,,,
1799999993478655768,2027-01-15T07:59:53.478655768Z,-0.60,-1.00,0.40,1.80,2.00,2.20,1.60,3.60,3.00,4.20,3.00,5.40,7.00,6.60,,,,,,,,,,,,,,
1799999993487738420,2027-01-15T07:59:53.487738420Z,-0.40,-1.20,-0.80,-0.20,2.20,1.60,2.60,3.20,2.00,5.00,3.60,4.60,5.60,6.80,,,,,,,,,,,,,,
1799999993496821072,2027-01-15T07:59:53.496821072Z,-0.60,1.00,0.80,1.40,-0.40,3.20,3.40,1.20,2.00,3.80,3.40,6.00,6.20,8.20,,,,,,,,,,,,,,
1799999993505903724,2027-01-15T07:59:53.505903724Z,0.60,0.40,-0.40,0.20,-0.60,4.20,2.80,1.80,4.00,4.40,4.80,5.80,7.20,8.20,,,,,,,,,,,,,,
1799999993514986377,2027-01-15T07:59:53.514986377Z,0.40,-0.80,-1.20,-1.60,0.60,3.40,1.80,2.60,5.80,4.20,5.60,5.00,6.20,7.00,,,,,,,,,,,,,,
1799999993524069029,2027-01-15T07:59:53.524069029Z,-1.60,0.20,-0.20,0.00,0.00,2.40,2.40,1.00,4.40,4.60,4.20,6.40,5.60,7.60,,,,,,,,,,,,,,
1799999993533151681,2027-01-15T07:59:53.533151681Z,-1.20,-1.20,-1.40,1.00,-0.80,2.40,2.60,1.00,4.40,4.80,3.80,7.00,5.80,8.00,,,,,,,,,,,,,,
1799999993542234333,2027-01-15T07:59:53.542234333Z,1.20,-2.60,-2.60,1.20,0.60,3.00,1.60,3.00,5.80,4.00,3.40,7.80,4.60,7.20,,,,,,,,,,,,,,
1799999993551316985,2027-01-15T07:59:53.551316985Z,1.20,-0.60,-0.40,2.20,2.40,1.40,3.00,3.60,4.20,4.00,1.80,7.80,3.60,6.40,,,,,,,,,,,,,,
1799999993560399637,2027-01-15T07:59:53.560399637Z,1.00,0.80,1.40,2.40,2.00,-1.00,6.00,2.80,3.40,4.40,2.60,6.80,5.20,6.00,,,,,,,,,,,,,,
1799999993569482289,2027-01-15T07:59:53.569482289Z,1.00,2.00,0.80,2.00,0.80,-0.80,5.60,3.00,4.40,4.80,5.00,6.20,5.60,6.00,,,,,,,,,,,,,,
1799999993578564941,2027-01-15T07:59:53.578564941Z,1.00,1.00,-0.60,1.40,1.60,1.60,3.60,2.60,4.40,4.80,6.00,7.20,3.00,6.40,,,,,,,,,,,,,,
1799999993587647594,2027-01-15T07:59:53.587647594Z,0.60,0.20,-0.40,0.60,1.80,3.40,4.00,1.20,4.40,3.00,5.20,6.40,6.20,7.40,,,,,,,,,,,,,,
1799999993596730246,2027-01-15T07:59:53.596730246Z,-1.00,-0.20,0.00,1.60,2.20,3.20,4.00,1.80,4.20,4.20,4.40,5.80,7.80,7.80,,,,,,,,,,,,,,
1799999993605812898,2027-01-15T07:59:53.605812898Z,-0.80,-0.60,-1.20,3.20,3.00,3.40,3.80,3.60,3.20,6.20,4.80,5.00,7.80,7.40,,,,,,,,,,,,,,
1799999993614895550,2027-01-15T07:59:53.614895550Z,1.60,-1.00,-1.40,1.60,2.60,3.00,4.40,3.80,2.60,5.00,6.00,6.20,7.40,8.20,,,,,,,,,,,,,,
1799999993623978202,2027-01-15T07:59:53.623978202Z,-2.00,-1.40,-0.40,0.00,3.00,2.20,3.80,4.20,2.00,4.20,5.80,6.40,8.60,9.40,,,,,,,,,,,,,,
1799999993633060854,2027-01-15T07:59:53.633060854Z,0.40,0.60,0.80,1.20,2.80,1.20,3.40,4.00,2.60,3.40,4.80,5.40,8.80,9.60,,,,,,,,,,,,,,
1799999993642143506,2027-01-15T07:59:53.642143506Z,0.40,1.40,0.80,1.40,1.40,0.20,3.00,3.80,4.80,3.40,6.60,5.20,8.00,7.80,,,,,,,,,,,,,,
1799999993651226159,2027-01-15T07:59:53.651226159Z,-1.60,0.80,-0.20,1.60,0.80,2.00,2.60,3.60,4.80,3.80,7.60,5.00,8.00,6.60,,,,,,,,,,,,,,
1799999993660308811,2027-01-15T07:59:53.660308811Z,0.80,0.00,-1.60,1.40,1.60,3.40,2.40,3.60,3.00,5.20,6.60,4.60,7.80,5.40,,,,,,,,,,,,,,
1799999993669391463,2027-01-15T07:59:53.669391463Z,0.40,-1.40,-0.60,0.60,1.40,0.80,2.40,4.00,3.60,6.00,5.00,5.00,6.20,5.20,,,,,,,,,,,,,,
1799999993678474115,2027-01-15T07:59:53.678474115Z,-0.40,-5.20,1.80,0.20,1.40,-0.40,2.40,3.00,4.80,4.60,3.80,6.00,5.60,6.00,,,,,,,,,,,,,,
1799999993687556767,2027-01-15T07:59:53.687556767Z,0.60,-4.80,2.60,-0.60,2.20,2.00,1.80,1.60,4.40,2.00,4.40,7.00,7.00,6.80,,,,,,,,,,,,,,
1799999993696639419,2027-01-15T07:59:53.696639419Z,1.60,-0.40,0.40,0.00,0.60,2.00,2.60,3.80,3.00,2.40,5.60,7.40,8.40,6.00,,,,,,,,,,,,,,
1799999993705722071,2027-01-15T07:59:53.705722071Z,-2.20,0.60,-0.40,0.20,1.00,2.80,3.20,3.20,3.20,3.40,5.40,6.80,7.20,5.60,,,,,,,,,,,,,,
1799999993714804723,2027-01-15T07:59:53.714804723Z,-4.40,-1.00,0.60,0.00,2.80,3.80,2.60,0.00,4.00,4.40,4.80,6.00,5.40,6.20,,,,,,,,,,,,,,
1799999993723887376,2027-01-15T07:59:53.723887376Z,-2.40,-2.80,0.00,0.00,1.60,1.00,2.20,1.40,3.40,3.60,5.80,7.00,7.60,7.80,,,,,,,,,,,,,,
1799999993732970028,2027-01-15T07:59:53.732970028Z,-2.00,-2.80,-0.40,1.00,0.60,-0.40,1.40,3.00,4.00,4.80,5.60,6.20,7.60,7.80,,,,,,,,,,,,,,
1799999993742052680,2027-01-15T07:59:53.742052680Z,-3.00,-0.20,-0.20,0.80,1.40,0.20,0.80,3.00,4.40,6.60,5.40,5.60,4.60,7.00,,,,,,,,,,,,,,
1799999993751135332,2027-01-15T07:59:53.751135332Z,0.40,1.00,1.00,0.60,3.00,0.20,1.20,2.20,5.00,5.00,6.40,5.80,5.00,7.20,,,,,,,,,,,,,,
1799999993760217984,2027-01-15T07:59:53.760217984Z,0.00,0.80,1.60,1.20,3.60,0.20,1.80,2.80,5.60,3.80,6.40,5.40,6.00,7.20,,,,,,,,,,,,,,
1799999993769300636,2027-01-15T07:59:53.769300636Z,-1.60,1.80,0.20,1.40,2.60,0.40,3.60,4.20,5.60,4.20,5.40,4.20,5.20,6.60,,,,,,,,,,,,,,
1799999993778383288,2027-01-15T07:59:53.778383288Z,-1.80,0.00,-1.40,0.20,1.80,0.60,4.20,4.00,3.00,3.60,5.40,4.00,6.00,4.80,,,,,,,,,,,,,,
1799999993787465941,2027-01-15T07:59:53.787465941Z,2.20,-2.60,-1.60,1.00,1.80,1.80,3.00,3.00,1.60,2.60,5.20,4.40,6.80,3.00,,,,,,,,,,,,,,
1799999993796548593,2027-01-15T07:59:53.796548593Z,0.60,-2.00,-0.40,1.80,1.80,1.00,2.00,3.20,2.40,3.40,4.60,4.40,5.60,4.60,,,,,,,,,,,,,,
1799999993805631245,2027-01-15T07:59:53.805631245Z,1.00,-0.80,-0.60,1.00,1.60,0.20,3.20,2.60,2.20,4.40,4.00,4.40,5.60,7.60,,,,,,,,,,,,,,
1799999993814713897,2027-01-15T07:59:53.814713897Z,0.20,-1.80,-0.80,0.60,1.80,-0.60,4.20,1.80,3.00,4.40,4.00,4.20,5.60,7.80,,,,,,,,,,,,,,
1799999993823796549,2027-01-15T07:59:53.823796549Z,-2.40,-1.60,0.00,1.80,1.60,-0.80,3.80,0.00,5.20,5.20,4.80,4.60,4.60,6.60,,,,,,,,,,,,,,
1799999993832879201,2027-01-15T07:59:53.832879201Z,-3.40,0.60,-0.60,1.60,1.60,1.00,3.00,-1.00,5.20,6.00,6.00,5.40,5.20,7.00,,,,,,,,,,,,,,
1799999993841961853,2027-01-15T07:59:53.841961853Z,-1.60,-0.20,-2.60,-0.80,2.20,1.60,3.40,1.20,3.80,5.80,6.20,5.00,5.40,7.00,,,,,,,,,,,,,,
1799999993851044505,2027-01-15T07:59:53.851044505Z,1.20,-2.40,-1.60,-2.00,1.40,0.00,3.00,3.00,3.60,4.80,5.20,5.40,5.20,6.60,,,,,,,,,,,,,,
1799999993860127158,2027-01-15T07:59:53.860127158Z,0.80,-2.20,0.60,-1.40,0.00,0.20,1.40,2.40,2.80,4.00,4.20,4.80,5.80,6.80,,,,,,,,,,,,,,
1799999993869209810,2027-01-15T07:59:53.869209810Z,-3.20,-1.80,0.60,-1.00,0.00,1.00,1.00,2.00,3.00,4.00,4.00,4.60,6.80,7.00,,,,,,,,,,,,,,
1799999993878292462,2027-01-15T07:59:53.878292462Z,-3.20,0.40,-0.80,-1.00,-0.60,1.80,2.80,2.80,5.00,2.80,3.60,6.20,7.40,6.40,,,,,,,,,,,,,,
1799999993887375114,2027-01-15T07:59:53.887375114Z,-2.20,-0.20,-0.20,-0.20,0.40,2.20,3.20,3.20,5.20,2.20,2.60,7.60,5.80,5.20,,,,,,,,,,,,,,
1799999993896457766,2027-01-15T07:59:53.896457766Z,-1.40,-0.60,1.00,0.60,1.40,2.00,0.80,3.40,4.80,5.00,4.20,7.00,4.80,6.20,,,,,,,,,,,,,,
1799999993905540418,2027-01-15T07:59:53.905540418Z,,-1.40,1.00,1.00,1.20,1.60,0.00,3.20,5.00,6.80,7.80,6.20,6.20,8.00,,,,,,,,,,,,,,
1799999993914623070,2027-01-15T07:59:53.914623070Z,0.20,0.20,0.00,0.40,0.80,3.60,3.40,2.20,3.80,5.00,7.00,6.40,6.80,6.60,,,,,,,,,,,,,,
1799999993923705723,2027-01-15T07:59:53.923705723Z,0.20,0.80,0.40,0.60,0.60,4.20,1.40,2.80,3.20,3.00,6.00,6.80,6.00,6.40,,,,,,,,,,,,,,
1799999993932788375,2027-01-15T07:59:53.932788375Z,-2.40,-0.20,1.40,1.20,0.20,3.20,-1.60,3.80,3.00,2.80,4.80,6.40,4.00,8.80,,,,,,,,,,,,,,
1799999993941871027,2027-01-15T07:59:53.941871027Z,-2.60,-0.40,0.60,0.20,0.00,3.40,2.60,3.40,2.20,4.20,4.20,5.40,4.00,7.80,,,,,,,,,,,,,,
1799999993950953679,2027-01-15T07:59:53.950953679Z,0.20,1.60,-0.20,0.40,0.60,3.20,4.80,4.60,2.80,4.60,3.40,4.20,4.80,6.20,,,,,,,,,,,,,,
1799999993960036331,2027-01-15T07:59:53.960036331Z,0.60,2.80,0.20,0.20,0.80,1.00,3.40,5.60,4.20,3.40,4.20,4.00,4.60,6.60,,,,,,,,,,,,,,
1799999993969118983,2027-01-15T07:59:53.969118983Z,,-1.20,-1.00,-0.60,0.20,1.60,2.00,3.40,4.20,4.40,4.40,5.80,5.40,6.40,,,,,,,,,,,,,,
1799999993978201635,2027-01-15T07:59:53.978201635Z,0.40,-2.40,-1.00,-0.20,-0.20,0.60,1.40,2.80,3.40,5.20,4.00,5.60,6.00,7.20,,,,,,,,,,,,,,
1799999993987284288,2027-01-15T07:59:53.987284288Z,0.00,0.40,1.20,-0.20,0.20,-1.00,0.60,4.00,2.00,4.20,4.20,3.60,5.80,6.40,,,,,,,,,,,,,,
1799999993996366940,2027-01-15T07:59:53.996366940Z,-0.40,-1.00,1.20,-1.80,1.20,1.80,1.60,2.20,3.60,4.60,4.40,4.20,5.40,3.60,,,,,,,,,,,,,,
1799999994005449592,2027-01-15T07:59:54.005449592Z,-1.60,-2.20,-0.40,-1.80,0.80,3.00,2.60,1.00,4.80,5.80,4.60,5.80,5.80,5.40,,,,,,,,,,,,,,
1799999994014532244,2027-01-15T07:59:54.014532244Z,1.00,-0.20,-0.20,-0.20,-0.20,2.20,3.40,3.20,6.00,6.40,4.20,6.40,6.00,8.80,,,,,,,,,,,,,,
1799999994023614896,2027-01-15T07:59:54.023614896Z,-0.20,-1.00,-1.80,1.40,0.60,0.60,3.60,4.00,3.80,5.40,5.00,5.60,6.60,8.00,,,,,,,,,,,,,,
1799999994032697548,2027-01-15T07:59:54.032697548Z,-0.40,-2.20,-2.20,2.00,0.60,1.80,3.40,3.60,3.00,3.80,5.60,5.40,6.80,6.40,,,,,,,,,,,,,,
1799999994041780200,2027-01-15T07:59:54.041780200Z,1.00,-1.60,0.20,2.20,1.00,4.40,2.20,4.20,5.00,1.80,5.40,6.20,6.80,7.00,,,,,,,,,,,,,,
1799999994050862852,2027-01-15T07:59:54.050862852Z,-1.00,-2.00,0.40,0.00,1.20,4.00,2.00,3.60,5.00,2.00,5.40,7.00,6.20,8.00,,,,,,,,,,,,,,
1799999994059945505,2027-01-15T07:59:54.059945505Z,-1.60,-1.60,-0.60,-0.80,0.20,1.80,1.80,3.00,5.00,3.60,5.20,6.20,6.00,6.80,,,,,,,,,,,,,,
1799999994069028157,2027-01-15T07:59:54.069028157Z,-3.00,-1.00,0.20,1.80,-0.20,0.40,2.60,3.60,5.80,4.60,5.00,6.20,5.60,5.20,,,,,,,,,,,,,,
1799999994078110809,2027-01-15T07:59:54.078110809Z,-2.40,-1.80,0.00,2.40,-0.40,0.60,4.20,4.60,4.80,3.60,5.00,7.40,5.40,5.80,,,,,,,,,,,,,,
1799999994087193461,2027-01-15T07:59:54.087193461Z,-0.20,1.00,-1.00,0.40,0.40,1.60,3.40,4.60,3.60,4.40,4.40,6.00,3.40,5.80,,,,,,,,,,,,,,
1799999994096276113,2027-01-15T07:59:54.096276113Z,-0.80,1.60,-0.60,0.40,0.60,0.60,2.60,4.60,3.80,4.40,4.40,5.80,2.60,5.20,,,,,,,,,,,,,,
1799999994105358765,2027-01-15T07:59:54.105358765Z,1.20,-1.40,0.20,-0.40,0.40,-0.40,4.00,4.20,5.20,2.20,4.60,7.40,3.20,4.80,,,,,,,,,,,,,,
1799999994114441417,2027-01-15T07:59:54.114441417Z,-0.40,-1.60,-0.40,-0.40,1.40,1.80,4.60,3.80,5.00,2.00,3.20,5.80,2.80,5.60,,,,,,,,,,,,,,
1799999994123524070,2027-01-15T07:59:54.123524070Z,-0.40,-1.00,1.00,0.80,1.80,3.20,3.80,3.60,3.40,3.40,2.60,4.60,4.00,7.40,,,,,,,,,,,,,,
1799999994132606722,2027-01-15T07:59:54.132606722Z,-2.60,-1.80,1.80,1.40,0.80,2.60,3.40,4.00,1.40,4.60,4.20,6.20,5.60,8.40,,,,,,,,,,,,,,
1799999994141689374,2027-01-15T07:59:54.141689374Z,-0.40,-2.00,-1.00,2.40,1.40,3.00,4.60,5.20,2.40,3.40,5.60,7.20,7.00,8.60,,,,,,,,,,,,,,
1799999994150772026,2027-01-15T07:59:54.150772026Z,-0.80,-2.00,-2.60,2.60,2.20,2.80,5.00,4.00,3.40,2.60,5.60,7.80,7.20,8.60,,,,,,,,,,,,,,
1799999994159854678,2027-01-15T07:59:54.159854678Z,-0.40,-1.00,-1.00,1.60,2.00,1.60,3.60,0.60,3.40,3.20,5.60,8.20,6.60,7.20,,,,,,,,,,,,,,
1799999994168937330,2027-01-15T07:59:54.168937330Z,-1.00,-0.80,0.80,0.00,1.60,1.20,2.60,-0.20,3.00,3.00,6.00,7.20,7.20,7.20,,,,,,,,,,,,,,
1799999994178019982,2027-01-15T07:59:54.178019982Z,-1.60,-0.40,0.20,1.00,2.20,1.80,3.00,2.20,2.00,4.00,5.20,6.00,7.00,7.60,,,,,,,,,,,,,,
1799999994187102634,2027-01-15T07:59:54.187102634Z,0.40,-1.00,-1.00,2.20,1.60,2.00,2.00,2.80,2.60,5.00,5.20,5.00,6.60,7.80,,,,,,,,,,,,,,
1799999994196185287,2027-01-15T07:59:54.196185287Z,0.60,-1.60,-1.00,0.80,0.20,0.80,2.00,2.60,4.40,5.80,7.20,5.80,8.40,7.60,,,,,,,,,,,,,,
1799999994205267939,2027-01-15T07:59:54.205267939Z,-1.00,-0.60,-0.20,0.40,1.40,0.40,2.40,2.60,4.40,5.00,8.80,6.20,8.40,7.40,,,,,,,,,,,,,,
1799999994214350591,2027-01-15T07:59:54.214350591Z,-0.40,0.00,0.80,2.20,3.60,1.20,1.80,3.00,3.60,4.00,9.60,6.20,8.40,5.80,,,,,,,,,,,,,,
1799999994223433243,2027-01-15T07:59:54.223433243Z,0.60,-0.40,1.00,3.20,3.20,0.80,2.60,2.80,3.40,5.40,5.60,7.00,8.20,6.00,,,,,,,,,,,,,,
1799999994232515895,2027-01-15T07:59:54.232515895Z,1.00,1.80,0.00,1.40,2.60,0.80,3.00,4.40,2.40,7.80,3.20,7.00,6.00,6.60,,,,,,,,,,,,,,
1799999994241598547,2027-01-15T07:59:54.241598547Z,1.20,2.00,-1.20,1.20,3.80,1.00,2.40,5.00,2.20,7.20,4.80,6.20,5.00,6.60,,,,,,,,,,,,,,
1799999994250681199,2027-01-15T07:59:54.250681199Z,-2.20,-1.60,-1.80,2.80,0.60,0.60,2.80,2.20,4.00,5.60,5.20,6.60,3.20,7.20,,,,,,,,,,,,,,
1799999994259763852,2027-01-15T07:59:54.259763852Z,-0.60,-2.80,-1.40,2.80,-0.20,0.80,2.60,2.00,5.00,5.80,6.20,5.60,5.20,7.40,,,,,,,,,,,,,,
1799999994268846504,2027-01-15T07:59:54.268846504Z,-0.40,-0.60,-1.80,4.40,3.00,1.80,2.40,3.40,6.80,5.80,7.60,4.60,9.80,6.60,,,,,,,,,,,,,,
1799999994277929156,2027-01-15T07:59:54.277929156Z,-0.80,0.40,-2.40,2.20,2.60,3.40,3.20,1.80,5.40,4.00,5.60,5.80,9.40,5.60,,,,,,,,,,,,,,
1799999994287011808,2027-01-15T07:59:54.287011808Z,-0.80,1.20,-0.80,-1.80,1.20,5.60,2.60,1.40,5.00,4.60,3.80,5.20,7.20,4.40,,,,,,,,,,,,,,
1799999994296094460,2027-01-15T07:59:54.296094460Z,-0.40,-0.20,1.20,-1.60,1.40,4.20,1.40,2.60,4.80,5.40,3.80,4.40,7.20,3.80,,,,,,,,,,,,,,
1799999994305177112,2027-01-15T07:59:54.305177112Z,-1.00,-1.60,0.80,0.40,0.80,1.00,2.20,3.60,3.80,4.60,3.20,6.00,7.20,5.80,,,,,,,,,,,,,,
1799999994314259764,2027-01-15T07:59:54.314259764Z,-1.20,-1.40,0.60,1.60,1.40,-0.80,2.60,3.00,3.00,4.20,4.80,5.20,7.80,7.20,,,,,,,,,,,,,,
1799999994323342416,2027-01-15T07:59:54.323342416Z,0.40,-1.40,1.60,1.80,2.40,-1.00,2.20,1.60,3.20,4.80,7.40,4.00,8.60,7.40,,,,,,,,,,,,,,
1799999994332425069,2027-01-15T07:59:54.332425069Z,0.80,0.20,0.00,-0.40,2.20,-2.00,2.60,2.20,4.60,4.40,6.80,5.40,7.80,7.20,,,,,,,,,,,,,,
1799999994341507721,2027-01-15T07:59:54.341507721Z,-0.60,1.80,-0.80,-0.40,2.40,-1.40,1.60,1.60,5.20,4.60,5.00,4.80,8.20,7.40,,,,,,,,,,,,,,
1799999994350590373,2027-01-15T07:59:54.350590373Z,2.40,1.40,2.00,2.20,1.80,0.60,1.00,2.20,4.20,6.00,4.00,4.80,8.60,7.80,,,,,,,,,,,,,,
1799999994359673025,2027-01-15T07:59:54.359673025Z,3.00,-0.80,2.00,1.80,0.20,1.80,3.00,3.20,4.40,6.40,3.40,4.80,7.20,7.80,,,,,,,,,,,,,,
1799999994368755677,2027-01-15T07:59:54.368755677Z,-2.40,-2.20,0.40,1.40,-0.40,1.60,4.80,3.20,5.40,5.40,3.20,5.40,5.80,7.00,,,,,,,,,,,,,,
1799999994377838329,2027-01-15T07:59:54.377838329Z,1.80,-1.40,-0.20,1.40,0.40,2.20,4.20,3.20,6.40,3.20,4.40,5.80,5.00,6.20,,,,,,,,,,,,,,
1799999994386920981,2027-01-15T07:59:54.386920981Z,-0.60,-0.80,-1.20,0.00,0.80,3.60,2.00,2.60,5.80,1.40,6.00,4.60,6.40,7.00,,,,,,,,,,,,,,
1799999994396003634,2027-01-15T07:59:54.396003634Z,-0.80,-1.80,-1.20,0.80,1.00,2.40,1.40,2.00,3.80,3.00,4.40,4.80,7.60,6.80,,,,,,,,,,,,,,
1799999994405086286,2027-01-15T07:59:54.405086286Z,0.00,-2.60,0.00,2.00,1.20,0.00,3.80,2.40,2.60,4.80,1.40,6.00,7.40,5.60,,,,,,,,,,,,,,
1799999994414168938,2027-01-15T07:59:54.414168938Z,-0.80,-1.00,1.00,0.60,1.20,1.40,3.80,2.60,3.60,7.00,3.00,5.40,6.60,5.80,,,,,,,,,,,,,,
1799999994423251590,2027-01-15T07:59:54.423251590Z,-2.40,-0.40,0.00,0.00,1.40,2.40,2.60,3.20,4.00,7.40,4.60,5.40,7.40,6.20,,,,,,,,,,,,,,
1799999994432334242,2027-01-15T07:59:54.432334242Z,-0.40,-1.40,-0.60,-0.20,1.80,1.60,0.80,4.80,4.00,6.20,3.40,6.80,9.00,5.40,,,,,,,,,,,,,,
1799999994441416894,2027-01-15T07:59:54.441416894Z,-0.40,-1.60,0.80,0.20,1.60,0.20,1.00,4.40,6.00,5.80,3.20,6.20,8.00,5.40,,,,,,,,,,,,,,
1799999994450499546,2027-01-15T07:59:54.450499546Z,-1.80,-0.60,1.00,1.00,2.00,0.60,2.40,3.60,8.20,5.00,4.40,5.00,6.20,5.80,,,,,,,,,,,,,,
1799999994459582199,2027-01-15T07:59:54.459582199Z,-2.00,-0.80,-0.20,1.80,1.80,1.80,2.80,5.00,7.60,3.60,4.60,4.80,6.60,5.00,,,,,,,,,,,,,,
1799999994468664851,2027-01-15T07:59:54.468664851Z,1.60,-1.80,-0.40,1.40,2.00,1.20,1.60,4.40,5.80,4.00,3.60,6.40,5.40,5.40,,,,,,,,,,,,,,
1799999994477747503,2027-01-15T07:59:54.477747503Z,-0.40,-0.60,0.00,1.20,1.20,0.80,1.60,3.60,5.00,3.80,6.00,6.40,4.20,6.00,,,,,,,,,,,,,,
1799999994486830155,2027-01-15T07:59:54.486830155Z,-1.20,1.00,0.00,1.40,-0.60,1.40,1.20,1.60,3.80,3.00,8.80,3.80,4.60,6.40,,,,,,,,,,,,,,
1799999994495912807,2027-01-15T07:59:54.495912807Z,,-0.80,0.00,0.40,-1.40,2.60,1.40,2.80,3.20,3.60,6.60,3.20,6.00,6.20,,,,,,,,,,,,,,
1799999994504995459,2027-01-15T07:59:54.504995459Z,-0.80,-2.00,-0.20,-1.00,-0.20,1.80,2.40,2.60,2.80,4.20,5.40,5.60,6.20,7.00,,,,,,,,,,,,,,
1799999994514078111,2027-01-15T07:59:54.514078111Z,-0.80,-0.20,-0.40,-1.80,1.40,2.20,2.60,1.40,2.00,4.20,6.20,6.60,5.00,6.20,,,,,,,,,,,,,,
1799999994523160763,2027-01-15T07:59:54.523160763Z,-1.20,-1.20,-1.00,-0.80,2.60,3.60,2.20,1.00,2.40,3.80,5.00,5.40,5.20,4.60,,,,,,,,,,,,,,
1799999994532243416,2027-01-15T07:59:54.532243416Z,-5.20,-1.20,-0.40,0.20,2.40,3.20,2.20,4.00,3.40,3.80,4.80,5.00,5.80,7.00,,,,,,,,,,,,,,
1799999994541326068,2027-01-15T07:59:54.541326068Z,-2.80,-0.40,0.40,0.20,1.80,2.80,1.40,5.40,4.60,3.60,5.20,4.60,5.60,8.60,,,,,,,,,,,,,,
1799999994550408720,2027-01-15T07:59:54.550408720Z,-0.60,0.40,0.20,1.40,-0.80,1.80,1.00,4.40,6.20,2.80,5.60,3.80,6.20,7.60,,,,,,,,,,,,,,
1799999994559491372,2027-01-15T07:59:54.559491372Z,0.40,0.60,-1.60,1.00,-1.80,0.80,3.20,5.60,4.40,3.20,5.40,4.80,6.40,8.60,,,,,,,,,,,,,,
1799999994568574024,2027-01-15T07:59:54.568574024Z,1.20,1.60,-0.40,-0.60,1.20,2.20,4.40,6.00,2.60,4.00,4.60,6.20,6.40,8.60,,,,,,,,,,,,,,
1799999994577656676,2027-01-15T07:59:54.577656676Z,-1.00,-0.40,1.00,-0.80,2.40,3.20,3.60,4.40,1.60,4.00,3.40,7.00,6.60,7.40,,,,,,,,,,,,,,
1799999994586739328,2027-01-15T07:59:54.586739328Z,-1.40,0.20,1.40,0.20,1.60,1.60,2.60,2.80,4.80,4.80,3.20,5.80,5.80,6.60,,,,,,,,,,,,,,
1799999994595821981,2027-01-15T07:59:54.595821981Z,-1.40,1.20,0.00,1.20,1.80,1.00,2.20,3.40,5.80,3.80,4.00,5.60,5.40,6.80,,,,,,,,,,,,,,
1799999994604904633,2027-01-15T07:59:54.604904633Z,-3.80,0.20,-2.20,2.60,1.80,2.40,1.60,4.80,1.60,2.40,5.40,6.60,5.20,6.80,,,,,,,,,,,,,,
1799999994613987285,2027-01-15T07:59:54.613987285Z,-4.40,-1.00,-3.00,2.00,-0.20,2.40,1.60,4.60,0.60,3.60,6.00,6.80,5.20,6.60,,,,,,,,,,,,,,
1799999994623069937,2027-01-15T07:59:54.623069937Z,-1.60,-1.20,-1.60,0.20,0.00,1.60,2.80,2.20,3.60,4.60,4.40,6.00,6.60,7.80,,,,,,,,,,,,,,
1799999994632152589,2027-01-15T07:59:54.632152589Z,0.00,-1.80,0.20,-1.20,2.00,1.80,3.40,0.60,4.20,5.20,2.40,5.00,7.80,8.00,,,,,,,,,,,,,,
1799999994641235241,2027-01-15T07:59:54.641235241Z,-0.80,-0.20,0.60,1.00,2.20,2.80,3.00,2.40,2.40,4.00,4.80,6.20,7.20,6.60,,,,,,,,,,,,,,
1799999994650317893,2027-01-15T07:59:54.650317893Z,-3.40,-0.20,-0.80,1.80,1.60,1.80,2.80,4.00,2.40,4.40,6.00,6.80,7.80,6.20,,,,,,,,,,,,,,
1799999994659400545,2027-01-15T07:59:54.659400545Z,-2.00,-2.20,-2.60,1.40,1.40,-0.20,1.00,3.20,4.00,6.40,5.80,7.00,7.40,5.80,,,,,,,,,,,,,,
1799999994668483198,2027-01-15T07:59:54.668483198Z,-0.40,-0.60,-2.20,1.60,2.60,0.40,-0.40,2.20,3.80,6.20,5.40,6.20,4.80,6.60,,,,,,,,,,,,,,
1799999994677565850,2027-01-15T07:59:54.677565850Z,0.20,0.20,0.40,-0.20,1.80,2.40,0.80,2.80,2.60,5.60,6.00,6.40,3.60,8.00,,,,,,,,,,,,,,
1799999994686648502,2027-01-15T07:59:54.686648502Z,1.20,-1.00,1.20,-2.20,1.20,3.80,1.20,1.60,2.40,6.40,5.00,6.60,3.60,7.20,,,,,,,,,,,,,,
1799999994695731154,2027-01-15T07:59:54.695731154Z,0.80,0.40,-0.60,-0.60,2.80,3.20,1.40,1.00,4.00,5.60,3.60,5.40,1.80,7.40,,,,,,,,,,,,,,
1799999994704813806,2027-01-15T07:59:54.704813806Z,-0.80,0.40,-1.20,-0.20,2.20,3.40,2.20,1.20,5.20,4.60,4.00,4.80,3.80,7.60,,,,,,,,,,,,,,
1799999994713896458,2027-01-15T07:59:54.713896458Z,-1.60,-1.60,-2.60,-1.60,1.40,3.00,3.60,2.60,5.20,4.00,4.40,5.80,7.20,5.40,,,,,,,,,,,,,,
1799999994722979110,2027-01-15T07:59:54.722979110Z,-2.80,-1.80,-2.40,-0.20,2.60,1.20,1.60,1.00,3.40,3.00,3.40,7.20,6.60,4.80,,,,,,,,,,,,,,
1799999994732061763,2027-01-15T07:59:54.732061763Z,0.00,-2.00,-0.20,0.00,-0.20,1.20,-0.40,1.40,2.60,3.20,4.00,8.80,8.00,6.00,,,,,,,,,,,,,,
1799999994741144415,2027-01-15T07:59:54.741144415Z,0.40,-2.60,0.40,-1.40,-2.20,2.40,0.40,2.00,3.80,4.20,5.60,7.20,8.60,7.20,,,,,,,,,,,,,,
1799999994750227067,2027-01-15T07:59:54.750227067Z,-0.60,0.60,1.00,-0.60,0.00,1.00,2.20,2.20,3.60,4.80,4.80,5.00,6.60,8.00,,,,,,,,,,,,,,
1799999994759309719,2027-01-15T07:59:54.759309719Z,0.40,2.20,1.80,0.40,1.40,1.20,1.80,2.60,3.60,4.40,5.80,5.20,6.60,7.80,,,,,,,,,,,,,,
1799999994768392371,2027-01-15T07:59:54.768392371Z,-0.20,0.60,1.60,0.00,1.00,2.40,0.80,4.00,4.40,5.00,7.60,6.60,6.80,7.00,,,,,,,,,,,,,,
1799999994777475023,2027-01-15T07:59:54.777475023Z,-0.80,-2.60,0.40,-1.20,0.80,1.20,1.20,5.20,5.00,6.00,6.60,5.60,6.00,7.60,,,,,,,,,,,,,,
1799999994786557675,2027-01-15T07:59:54.786557675Z,0.60,-4.20,-0.60,-0.40,1.00,1.20,2.00,5.20,5.80,5.20,7.60,4.60,7.60,8.20,,,,,,,,,,,,,,
1799999994795640327,2027-01-15T07:59:54.795640327Z,1.00,-3.80,-1.20,0.40,2.20,1.80,3.80,4.00,4.40,3.40,8.00,4.20,8.80,7.20,,,,,,,,,,,,,,
1799999994804722980,2027-01-15T07:59:54.804722980Z,0.80,-2.40,-0.60,0.80,2.40,-0.40,4.20,3.20,2.40,5.60,6.40,5.80,7.80,6.80,,,,,,,,,,,,,,
1799999994813805632,2027-01-15T07:59:54.813805632Z,0.00,-2.00,-0.40,1.00,2.80,0.20,3.80,3.40,2.40,7.00,6.40,6.60,7.00,7.00,,,,,,,,,,,,,,
1799999994822888284,2027-01-15T07:59:54.822888284Z,0.00,-1.00,-1.40,2.00,2.20,3.40,3.00,2.60,3.80,4.80,6.00,5.80,6.40,7.40,,,,,,,,,,,,,,
1799999994831970936,2027-01-15T07:59:54.831970936Z,0.40,0.40,-1.80,2.00,0.80,4.00,1.60,1.60,5.00,3.80,3.80,6.00,5.80,8.20,,,,,,,,,,,,,,
1799999994841053588,2027-01-15T07:59:54.841053588Z,-0.80,-0.40,-0.80,2.20,2.00,3.40,2.80,3.60,3.80,3.60,4.80,6.80,6.20,7.20,,,,,,,,,,,,,,
1799999994850136240,2027-01-15T07:59:54.850136240Z,-0.40,-0.40,0.00,0.60,2.00,3.00,3.80,3.40,1.20,3.00,6.80,6.20,8.00,6.20,,,,,,,,,,,,,,
1799999994859218892,2027-01-15T07:59:54.859218892Z,1.40,-0.60,0.60,1.00,0.60,1.60,2.20,2.00,3.20,3.40,6.00,5.00,7.20,6.80,,,,,,,,,,,,,,
1799999994868301545,2027-01-15T07:59:54.868301545Z,-0.80,-1.20,1.00,1.20,1.20,1.40,2.40,2.80,5.20,4.40,5.20,4.60,6.60,7.20,,,,,,,,,,,,,,
1799999994877384197,2027-01-15T07:59:54.877384197Z,-0.80,-0.80,1.40,0.20,2.20,1.00,3.80,5.00,4.80,5.80,4.80,5.00,6.80,6.80,,,,,,,,,,,,,,
1799999994886466849,2027-01-15T07:59:54.886466849Z,0.20,-0.60,1.00,-1.20,1.60,0.80,2.80,4.20,3.80,4.80,3.60,5.80,6.60,6.60,,,,,,,,,,,,,,
1799999994895549501,2027-01-15T07:59:54.895549501Z,0.00,-0.40,0.80,-1.00,2.20,1.80,2.00,3.00,3.60,3.80,3.00,7.00,6.00,7.20,,,,,,,,,,,,,,
1799999994904632153,2027-01-15T07:59:54.904632153Z,-0.40,-0.80,0.60,-0.40,1.80,2.00,2.80,1.80,4.60,5.80,4.00,7.00,6.60,8.20,,,,,,,,,,,,,,
1799999994913714805,2027-01-15T07:59:54.913714805Z,-0.20,0.40,0.20,-0.40,1.60,3.00,3.80,3.60,3.80,4.20,4.40,5.40,6.20,7.00,,,,,,,,,,,,,,
1799999994922797457,2027-01-15T07:59:54.922797457Z,1.40,0.20,-0.60,-0.40,0.80,3.40,3.40,5.00,3.20,2.60,4.20,4.80,5.60,6.00,,,,,,,,,,,,,,
1799999994931880109,2027-01-15T07:59:54.931880109Z,0.60,-2.40,-1.60,0.80,-0.60,2.00,2.60,3.80,4.20,4.20,3.40,5.20,5.80,5.20,,,,,,,,,,,,,,
1799999994940962762,2027-01-15T07:59:54.940962762Z,-1.60,-2.00,-1.20,1.80,0.20,1.40,3.60,3.80,4.20,4.60,3.60,6.20,6.60,6.20,,,,,,,,,,,,,,
1799999994950045414,2027-01-15T07:59:54.950045414Z,0.40,0.60,0.60,2.20,1.40,0.80,4.40,2.60,4.00,4.60,3.80,7.00,7.40,7.00,,,,,,,,,,,,,,
1799999994959128066,2027-01-15T07:59:54.959128066Z,-0.60,-0.60,-0.60,2.00,1.20,-0.40,3.40,2.00,4.20,6.00,4.20,7.20,7.40,7.00,,,,,,,,,,,,,,
1799999994968210718,2027-01-15T07:59:54.968210718Z,0.40,-1.40,-2.40,1.20,0.40,1.20,2.60,3.20,4.20,6.00,3.60,7.40,6.20,6.40,,,,,,,,,,,,,,
1799999994977293370,2027-01-15T07:59:54.977293370Z,0.00,0.20,-2.00,0.60,0.20,2.60,2.20,2.60,3.20,5.00,3.40,6.80,5.60,6.40,,,,,,,,,,,,,,
1799999994986376022,2027-01-15T07:59:54.986376022Z,0.40,1.00,-0.20,-0.20,0.60,2.20,0.20,2.40,2.80,3.00,3.60,5.40,5.80,7.60,,,,,,,,,,,,,,
1799999994995458674,2027-01-15T07:59:54.995458674Z,-1.80,-0.20,-0.40,-0.60,1.40,2.00,0.60,5.20,4.60,3.80,4.00,5.40,6.00,7.00,,,,,,,,,,,,,,
1799999995004541327,2027-01-15T07:59:55.004541327Z,-2.20,-1.20,0.60,-0.40,0.80,0.60,1.60,5.00,3.80,4.00,5.40,5.60,6.40,5.40,,,,,,,,,,,,,,
1799999995013623979,2027-01-15T07:59:55.013623979Z,-2.00,-0.60,1.80,0.20,-1.00,0.40,1.20,3.00,3.60,4.80,6.00,5.40,6.60,5.60,,,,,,,,,,,,,,
1799999995022706631,2027-01-15T07:59:55.022706631Z,-2.40,-0.60,1.40,0.80,-2.00,1.60,2.20,2.60,6.20,5.80,4.20,4.60,7.00,6.80,,,,,,,,,,,,,,
1799999995031789283,2027-01-15T07:59:55.031789283Z,-0.40,-1.60,1.00,1.80,-1.00,1.40,3.00,1.80,5.60,5.60,4.00,5.80,5.80,6.80,,,,,,,,,,,,,,
1799999995040871935,2027-01-15T07:59:55.040871935Z,-1.60,-1.00,1.60,1.00,0.00,2.40,3.00,0.80,4.00,5.20,4.20,6.40,5.60,6.40,,,,,,,,,,,,,,
1799999995049954587,2027-01-15T07:59:55.049954587Z,-2.60,0.00,0.60,-1.00,0.80,3.40,3.80,0.60,3.60,5.40,2.40,5.40,6.20,6.00,,,,,,,,,,,,,,
1799999995059037239,2027-01-15T07:59:55.059037239Z,-1.20,-0.40,-0.40,0.20,1.00,1.40,3.40,2.60,2.00,4.80,1.40,5.20,7.60,5.80,,,,,,,,,,,,,,
1799999995068119892,2027-01-15T07:59:55.068119892Z,-0.80,0.40,2.20,2.60,1.00,0.80,3.20,5.20,2.00,3.80,3.40,6.20,6.60,5.40,,,,,,,,,,,,,,
1799999995077202544,2027-01-15T07:59:55.077202544Z,-1.00,0.00,2.40,2.40,1.00,2.60,4.80,5.40,3.40,3.00,5.20,6.60,5.80,6.00,,,,,,,,,,,,,,
1799999995086285196,2027-01-15T07:59:55.086285196Z,-0.60,-1.00,-1.00,2.00,1.00,1.40,5.00,4.00,5.60,2.80,4.20,5.00,6.20,6.40,,,,,,,,,,,,,,
1799999995095367848,2027-01-15T07:59:55.095367848Z,0.20,-1.00,-1.00,1.80,1.40,0.60,4.00,2.80,5.80,1.40,5.20,4.00,5.80,6.20,,,,,,,,,,,,,,
1799999995104450500,2027-01-15T07:59:55.104450500Z,-1.20,-1.40,0.40,0.60,1.00,1.20,2.80,-0.20,3.60,0.20,7.00,3.20,2.60,6.60,,,,,,,,,,,,,,
1799999995113533152,2027-01-15T07:59:55.113533152Z,,-0.80,-0.80,0.60,-1.00,3.60,2.20,-0.80,3.20,2.40,6.20,4.80,-0.40,7.80,,,,,,,,,,,,,,
1799999995122615804,2027-01-15T07:59:55.122615804Z,-0.40,0.40,-0.80,0.60,-0.80,5.80,1.20,0.60,5.00,5.00,5.40,6.00,3.00,7.40,,,,,,,,,,,,,,
1799999995131698456,2027-01-15T07:59:55.131698456Z,-0.80,0.20,0.20,0.80,0.60,5.20,1.00,0.60,5.20,6.80,5.40,5.40,8.80,9.00,,,,,,,,,,,,,,
1799999995140781109,2027-01-15T07:59:55.140781109Z,-1.00,-0.20,-0.60,1.80,0.80,3.20,2.40,1.40,3.80,7.20,4.60,4.00,9.00,9.60,,,,,,,,,,,,,,
1799999995149863761,2027-01-15T07:59:55.149863761Z,-1.80,-0.20,0.60,1.60,2.20,2.00,2.00,2.20,3.00,6.40,3.80,4.40,8.00,9.20,,,,,,,,,,,,,,
1799999995158946413,2027-01-15T07:59:55.158946413Z,-0.40,-1.00,2.40,0.80,3.00,1.20,1.40,2.40,2.20,4.80,3.20,5.80,8.00,7.20,,,,,,,,,,,,,,
1799999995168029065,2027-01-15T07:59:55.168029065Z,-0.40,-1.40,0.60,0.80,1.20,1.80,2.80,3.40,2.20,5.60,3.60,7.00,7.40,7.40,,,,,,,,,,,,,,
1799999995177111717,2027-01-15T07:59:55.177111717Z,-1.20,-1.00,-1.20,0.40,0.60,1.80,2.80,4.20,2.80,4.80,4.60,6.60,8.40,6.40,,,,,,,,,,,,,,
1799999995186194369,2027-01-15T07:59:55.186194369Z,-3.00,0.40,-1.60,1.60,1.40,1.20,3.40,4.60,2.20,4.20,4.60,5.00,5.80,6.20,,,,,,,,,,,,,,
1799999995195277021,2027-01-15T07:59:55.195277021Z,-0.80,1.00,-1.40,0.40,1.20,1.80,4.20,3.20,4.20,4.80,5.00,6.00,3.20,6.80,,,,,,,,,,,,,,
1799999995204359674,2027-01-15T07:59:55.204359674Z,-1.00,1.20,-1.00,-0.40,2.20,2.60,2.60,3.40,5.20,4.40,4.40,6.80,3.80,7.00,,,,,,,,,,,,,,
1799999995213442326,2027-01-15T07:59:55.213442326Z,1.00,0.40,0.00,-0.60,4.00,3.20,0.40,5.60,4.00,4.40,4.20,5.60,6.20,6.20,,,,,,,,,,,,,,
1799999995222524978,2027-01-15T07:59:55.222524978Z,0.20,-0.20,0.60,-0.80,3.80,2.40,2.60,5.80,3.60,5.60,6.60,5.00,5.20,5.80,,,,,,,,,,,,,,
1799999995231607630,2027-01-15T07:59:55.231607630Z,-0.40,1.40,0.80,-1.00,2.60,1.20,3.00,4.40,3.00,5.40,7.40,5.80,6.80,6.40,,,,,,,,,,,,,,
1799999995240690282,2027-01-15T07:59:55.240690282Z,-0.40,1.20,0.80,0.40,3.20,0.20,1.00,4.20,3.60,4.60,6.00,6.00,6.20,6.80,,,,,,,,,,,,,,
1799999995249772934,2027-01-15T07:59:55.249772934Z,-0.60,-2.20,0.20,1.00,1.40,1.80,2.40,3.40,3.40,4.40,5.80,6.00,6.20,6.00,,,,,,,,,,,,,,
1799999995258855586,2027-01-15T07:59:55.258855586Z,-1.20,-1.60,-0.20,1.00,0.40,2.40,3.40,3.20,3.40,3.20,6.00,6.00,6.80,6.40,,,,,,,,,,,,,,
1799999995267938238,2027-01-15T07:59:55.267938238Z,-0.80,2.20,-0.40,2.60,0.60,1.60,5.40,3.20,5.40,2.00,5.40,6.00,6.60,8.00,,,,,,,,,,,,,,
1799999995277020891,2027-01-15T07:59:55.277020891Z,-1.00,2.20,-1.00,2.00,1.20,0.60,5.40,1.80,6.80,5.00,4.00,6.20,5.60,8.80,,,,,,,,,,,,,,
1799999995286103543,2027-01-15T07:59:55.286103543Z,0.20,1.60,-1.20,-0.40,1.80,0.40,4.00,2.60,5.60,5.00,2.20,5.80,6.20,7.20,,,,,,,,,,,,,,
1799999995295186195,2027-01-15T07:59:55.295186195Z,0.60,2.60,-0.40,-0.60,1.40,0.80,1.80,4.40,3.80,3.00,2.60,5.00,7.40,5.60,,,,,,,,,,,,,,
1799999995304268847,2027-01-15T07:59:55.304268847Z,1.00,-1.20,-0.80,0.80,1.40,1.00,0.20,4.20,3.00,1.60,3.80,6.40,6.60,6.40,,,,,,,,,,,,,,
1799999995313351499,2027-01-15T07:59:55.313351499Z,-0.80,-3.20,-1.00,1.20,1.60,1.60,1.40,4.20,2.00,1.00,5.40,7.40,7.20,5.40,,,,,,,,,,,,,,
1799999995322434151,2027-01-15T07:59:55.322434151Z,-0.80,-0.20,-0.40,2.40,1.40,1.80,3.20,4.60,2.00,1.40,7.20,6.60,5.00,3.60,,,,,,,,,,,,,,
1799999995331516803,2027-01-15T07:59:55.331516803Z,0.80,0.00,-0.20,2.00,1.00,1.00,2.20,3.40,4.20,4.40,7.00,6.80,1.20,4.80,,,,,,,,,,,,,,
1799999995340599456,2027-01-15T07:59:55.340599456Z,-2.80,0.00,-1.60,0.40,0.00,0.20,2.40,2.20,4.60,6.40,5.80,7.20,3.40,5.60,,,,,,,,,,,,,,
1799999995349682108,2027-01-15T07:59:55.349682108Z,-0.60,1.80,-1.60,0.60,-0.40,-0.20,3.20,1.20,3.00,5.40,4.60,7.60,7.00,5.00,,,,,,,,,,,,,,
1799999995358764760,2027-01-15T07:59:55.358764760Z,0.00,1.00,-0.60,2.00,0.60,1.00,2.80,1.80,4.80,6.40,4.80,6.60,5.80,6.00,,,,,,,,,,,,,,
1799999995367847412,2027-01-15T07:59:55.367847412Z,-0.80,-1.00,-0.20,2.20,1.60,1.00,2.20,2.60,6.00,4.80,5.00,6.20,6.00,7.40,,,,,,,,,,,,,,
1799999995376930064,2027-01-15T07:59:55.376930064Z,-1.20,-4.20,-0.60,1.60,2.00,-1.00,2.20,2.40,4.00,2.80,4.60,6.40,7.80,9.00,,,,,,,,,,,,,,
1799999995386012716,2027-01-15T07:59:55.386012716Z,-0.40,-3.80,-0.40,1.20,1.80,-0.80,3.20,1.00,4.20,5.20,5.20,5.20,7.00,9.00,,,,,,,,,,,,,,
1799999995395095368,2027-01-15T07:59:55.395095368Z,-0.20,-0.80,0.60,-0.60,1.60,0.60,4.40,3.40,5.40,5.00,6.20,5.00,6.60,8.20,,,,,,,,,,,,,,
1799999995404178020,2027-01-15T07:59:55.404178020Z,-0.80,-0.60,1.20,-1.40,1.00,0.20,3.80,5.40,3.40,2.80,6.00,6.00,7.20,8.40,,,,,,,,,,,,,,
1799999995413260673,2027-01-15T07:59:55.413260673Z,-3.80,-2.00,1.80,0.40,1.60,2.00,1.20,4.00,3.60,3.80,5.20,5.20,8.20,6.60,,,,,,,,,,,,,,
1799999995422343325,2027-01-15T07:59:55.422343325Z,-1.00,-1.80,2.40,0.60,2.20,3.00,1.00,2.80,4.20,5.00,5.20,6.00,7.40,5.80,,,,,,,,,,,,,,
1799999995431425977,2027-01-15T07:59:55.431425977Z,0.20,-1.40,1.80,1.60,2.40,4.00,2.20,2.20,1.80,5.60,5.20,7.20,5.80,7.20,,,,,,,,,,,,,,
1799999995440508629,2027-01-15T07:59:55.440508629Z,1.00,-1.40,-0.20,3.80,1.60,2.00,1.80,3.00,1.60,7.00,5.00,5.80,6.00,7.20,,,,,,,,,,,,,,
1799999995449591281,2027-01-15T07:59:55.449591281Z,0.60,-1.20,0.80,3.00,0.20,1.80,2.20,3.80,3.20,6.60,4.80,6.00,6.80,6.20,,,,,,,,,,,,,,
1799999995458673933,2027-01-15T07:59:55.458673933Z,-0.20,-1.80,1.00,0.80,-0.20,3.20,3.40,3.60,2.40,6.60,5.20,7.00,6.60,5.60,,,,,,,,,,,,,,
1799999995467756585,2027-01-15T07:59:55.467756585Z,-2.00,-1.40,-1.60,1.60,1.20,1.60,4.20,2.00,4.20,6.40,6.20,5.40,6.80,5.20,,,,,,,,,,,,,,
1799999995476839238,2027-01-15T07:59:55.476839238Z,-3.20,-1.20,-0.40,1.80,2.00,0.80,4.60,2.00,5.00,5.40,5.40,5.60,6.80,5.80,,,,,,,,,,,,,,
1799999995485921890,2027-01-15T07:59:55.485921890Z,-1.20,-0.60,0.00,0.60,3.40,0.40,4.20,3.40,5.40,3.60,3.80,7.60,6.20,6.80,,,,,,,,,,,,,,
1799999995495004542,2027-01-15T07:59:55.495004542Z,-0.60,-1.80,-2.80,0.40,3.20,2.00,2.20,3.40,3.80,3.60,4.20,6.80,7.20,6.60,,,,,,,,,,,,,,
1799999995504087194,2027-01-15T07:59:55.504087194Z,-0.40,-2.20,-0.40,-0.80,2.20,2.60,2.80,1.60,3.00,5.00,4.60,5.40,8.60,6.00,,,,,,,,,,,,,,
1799999995513169846,2027-01-15T07:59:55.513169846Z,-0.60,-1.00,2.20,-1.20,2.20,2.20,4.40,0.40,4.40,4.40,5.20,4.00,8.40,5.40,,,,,,,,,,,,,,
1799999995522252498,2027-01-15T07:59:55.522252498Z,-1.20,-1.40,0.20,-0.40,2.60,2.00,3.40,3.60,5.20,3.20,6.40,2.80,6.80,5.80,,,,,,,,,,,,,,
1799999995531335150,2027-01-15T07:59:55.531335150Z,2.20,-0.60,-0.40,-0.80,0.60,2.00,1.80,4.20,4.20,4.40,5.80,5.00,7.20,6.40,,,,,,,,,,,,,,
1799999995540417802,2027-01-15T07:59:55.540417802Z,0.00,-1.00,0.00,0.00,-0.40,2.00,1.80,2.80,3.40,4.00,5.60,6.60,6.80,8.00,,,,,,,,,,,,,,
1799999995549500455,2027-01-15T07:59:55.549500455Z,-0.80,-1.40,-1.00,1.20,0.00,2.20,2.00,0.80,2.20,2.80,5.60,5.40,5.60,9.20,,,,,,,,,,,,,,
1799999995558583107,2027-01-15T07:59:55.558583107Z,-0.80,-0.80,-0.80,0.00,-0.60,2.20,3.20,2.60,2.00,3.80,4.00,5.00,7.60,7.80,,,,,,,,,,,,,,
1799999995567665759,2027-01-15T07:59:55.567665759Z,-1.20,-1.80,0.20,-0.80,0.20,2.00,2.60,4.40,4.00,4.80,4.20,6.00,5.00,7.20,,,,,,,,,,,,,,
1799999995576748411,2027-01-15T07:59:55.576748411Z,0.20,-2.00,0.40,-0.40,0.40,2.20,1.60,5.40,5.60,4.80,6.20,6.20,0.20,8.20,,,,,,,,,,,,,,
1799999995585831063,2027-01-15T07:59:55.585831063Z,0.00,-2.20,-2.60,-0.20,0.20,0.60,3.00,4.20,4.80,3.40,5.20,7.00,4.80,7.60,,,,,,,,,,,,,,
1799999995594913715,2027-01-15T07:59:55.594913715Z,-3.00,-1.20,-3.40,0.60,0.80,-0.20,2.60,3.20,4.80,3.00,5.40,6.40,8.00,6.60,,,,,,,,,,,,,,
1799999995603996367,2027-01-15T07:59:55.603996367Z,1.00,-0.60,-0.80,1.80,1.80,0.40,0.00,3.40,5.00,3.80,8.20,5.60,3.40,6.40,,,,,,,,,,,,,,
1799999995613079020,2027-01-15T07:59:55.613079020Z,-0.20,-3.20,0.80,0.20,0.80,0.60,1.40,3.00,3.60,3.00,7.40,8.00,1.60,7.00,,,,,,,,,,,,,,
1799999995622161672,2027-01-15T07:59:55.622161672Z,0.20,-2.80,-0.80,-0.60,0.20,1.60,4.40,3.40,4.20,2.60,4.00,8.40,5.00,5.80,,,,,,,,,,,,,,
1799999995631244324,2027-01-15T07:59:55.631244324Z,3.20,0.80,-1.20,0.40,1.20,2.80,3.60,4.00,6.40,5.80,3.60,5.00,7.40,5.80,,,,,,,,,,,,,,
1799999995640326976,2027-01-15T07:59:55.640326976Z,-1.40,-0.20,-0.20,0.00,0.40,1.80,1.80,3.60,4.60,6.80,5.80,4.20,6.40,7.40,,,,,,,,,,,,,,
1799999995649409628,2027-01-15T07:59:55.649409628Z,-0.20,0.60,0.80,0.20,-0.40,0.60,2.20,3.00,3.60,6.20,4.80,4.80,7.00,6.20,,,,,,,,,,,,,,
1799999995658492280,2027-01-15T07:59:55.658492280Z,-0.40,2.00,0.80,1.00,-1.40,-0.40,3.00,1.80,4.80,5.60,3.60,6.60,7.40,5.00,,,,,,,,,,,,,,
1799999995667574932,2027-01-15T07:59:55.667574932Z,-0.80,-1.40,-0.60,-0.40,0.80,0.20,2.00,1.80,2.60,4.40,5.80,6.80,5.60,7.60,,,,,,,,,,,,,,
1799999995676657585,2027-01-15T07:59:55.676657585Z,-0.60,-2.80,-1.80,-1.20,2.00,-0.20,1.80,0.80,1.60,4.60,5.40,6.40,5.80,7.60,,,,,,,,,,,,,,
1799999995685740237,2027-01-15T07:59:55.685740237Z,-0.20,-1.00,-1.00,0.20,1.20,-0.60,2.80,1.80,3.00,5.20,3.60,5.20,6.20,6.80,,,,,,,,,,,,,,
1799999995694822889,2027-01-15T07:59:55.694822889Z,-1.60,-0.80,-0.60,2.20,1.20,1.40,2.60,3.00,5.60,3.60,3.60,5.00,5.60,6.20,,,,,,,,,,,,,,
1799999995703905541,2027-01-15T07:59:55.703905541Z,1.60,0.20,-1.40,3.20,2.40,2.60,3.20,3.00,6.60,4.60,5.00,5.20,4.20,6.00,,,,,,,,,,,,,,
1799999995712988193,2027-01-15T07:59:55.712988193Z,-1.00,1.80,-1.40,3.00,3.20,2.40,4.40,3.80,5.80,6.60,5.80,5.40,2.40,6.80,,,,,,,,,,,,,,
1799999995722070845,2027-01-15T07:59:55.722070845Z,-1.20,1.00,1.00,1.00,1.80,2.60,3.80,4.20,6.60,4.60,2.40,6.00,5.00,6.60,,,,,,,,,,,,,,
1799999995731153497,2027-01-15T07:59:55.731153497Z,,0.60,2.20,-1.40,2.00,2.20,3.40,3.20,5.80,2.20,2.40,6.40,8.60,6.60,,,,,,,,,,,,,,
1799999995740236149,2027-01-15T07:59:55.740236149Z,-1.20,-0.20,0.80,-1.60,3.80,1.60,4.00,3.20,3.60,3.00,6.00,6.60,7.20,7.80,,,,,,,,,,,,,,
1799999995749318802,2027-01-15T07:59:55.749318802Z,0.60,0.40,-0.80,1.00,3.00,0.40,3.60,2.80,4.00,5.00,5.40,6.40,7.20,7.60,,,,,,,,,,,,,,
1799999995758401454,2027-01-15T07:59:55.758401454Z,-0.80,0.60,-1.00,2.40,2.20,0.20,2.60,2.20,4.60,5.40,3.80,5.80,7.60,6.80,,,,,,,,,,,,,,
1799999995767484106,2027-01-15T07:59:55.767484106Z,-2.80,-1.00,-0.60,1.40,1.80,1.40,2.20,1.80,4.60,5.20,4.80,4.60,5.20,6.00,,,,,,,,,,,,,,
1799999995776566758,2027-01-15T07:59:55.776566758Z,1.00,-1.80,0.00,1.00,0.60,2.60,3.60,3.00,4.00,4.40,5.60,3.40,5.00,7.80,,,,,,,,,,,,,,
1799999995785649410,2027-01-15T07:59:55.785649410Z,1.20,-1.00,0.40,0.00,1.20,2.60,4.80,3.20,4.60,3.40,5.40,3.80,4.60,8.80,,,,,,,,,,,,,,
1799999995794732062,2027-01-15T07:59:55.794732062Z,2.60,-1.00,0.00,-0.60,2.20,2.60,3.60,3.20,5.60,2.60,4.80,4.60,2.60,7.60,,,,,,,,,,,,,,
1799999995803814714,2027-01-15T07:59:55.803814714Z,0.40,-2.40,-0.20,0.60,2.20,1.80,2.00,3.20,5.80,3.20,4.00,5.60,6.40,5.80,,,,,,,,,,,,,,
1799999995812897367,2027-01-15T07:59:55.812897367Z,-2.20,-2.00,0.40,0.40,0.80,1.00,2.40,3.00,5.00,3.20,3.60,5.60,9.00,5.60,,,,,,,,,,,,,,
1799999995821980019,2027-01-15T07:59:55.821980019Z,-2.20,-0.20,2.20,-0.60,-0.20,0.00,3.40,2.40,3.60,3.40,5.00,4.60,7.60,6.80,,,,,,,,,,,,,,
1799999995831062671,2027-01-15T07:59:55.831062671Z,-0.20,0.60,2.00,0.40,2.00,0.20,3.00,3.20,3.60,3.40,5.40,4.20,7.40,6.60,,,,,,,,,,,,,,
1799999995840145323,2027-01-15T07:59:55.840145323Z,0.00,1.00,-0.20,0.60,2.80,2.40,2.20,3.80,4.40,3.20,2.80,3.40,6.80,5.00,,,,,,,,,,,,,,
1799999995849227975,2027-01-15T07:59:55.849227975Z,-1.60,0.20,0.00,0.60,1.40,3.20,1.80,2.00,4.60,4.00,3.40,3.20,6.40,5.20,,,,,,,,,,,,,,
1799999995858310627,2027-01-15T07:59:55.858310627Z,0.80,0.40,1.00,1.40,2.40,2.00,1.60,3.60,5.20,3.80,6.20,5.80,5.80,6.80,,,,,,,,,,,,,,
1799999995867393279,2027-01-15T07:59:55.867393279Z,-1.60,0.20,-0.40,1.40,0.00,1.80,2.40,5.20,5.60,2.80,6.00,7.20,5.80,6.60,,,,,,,,,,,,,,
1799999995876475931,2027-01-15T07:59:55.876475931Z,-1.80,-0.40,-2.00,1.20,-3.00,1.60,3.60,5.40,5.00,1.00,4.20,6.80,6.00,6.40,,,,,,,,,,,,,,
1799999995885558584,2027-01-15T07:59:55.885558584Z,0.80,1.20,0.20,2.40,-0.40,1.00,3.40,5.40,3.00,0.40,3.60,5.80,4.60,7.60,,,,,,,,,,,,,,
1799999995894641236,2027-01-15T07:59:55.894641236Z,1.00,1.60,0.20,2.60,2.40,1.40,2.20,4.60,1.80,3.80,2.40,6.20,2.00,6.60,,,,,,,,,,,,,,
1799999995903723888,2027-01-15T07:59:55.903723888Z,-1.80,-0.20,-1.40,1.40,1.20,2.20,1.40,3.00,2.20,7.00,3.00,7.40,5.20,5.60,,,,,,,,,,,,,,
1799999995912806540,2027-01-15T07:59:55.912806540Z,1.00,0.00,-2.40,-0.40,2.00,3.60,2.40,3.00,1.80,7.60,4.60,7.00,9.20,6.80,,,,,,,,,,,,,,
1799999995921889192,2027-01-15T07:59:55.921889192Z,1.40,1.00,-1.20,-1.20,2.60,2.80,2.00,3.40,1.60,6.60,4.60,6.40,9.00,6.60,,,,,,,,,,,,,,
1799999995930971844,2027-01-15T07:59:55.930971844Z,-1.80,0.40,-0.80,-0.80,1.20,0.40,0.60,4.80,3.20,5.40,5.40,6.60,7.00,6.40,,,,,,,,,,,,,,
1799999995940054496,2027-01-15T07:59:55.940054496Z,-2.60,0.20,-2.20,0.40,2.40,0.60,0.00,3.20,3.60,3.80,7.20,7.00,7.20,7.00,,,,,,,,,,,,,,
1799999995949137149,2027-01-15T07:59:55.949137149Z,-1.20,0.00,0.40,0.60,2.00,2.60,0.20,1.80,1.40,2.40,6.00,6.60,8.20,6.00,,,,,,,,,,,,,,
1799999995958219801,2027-01-15T07:59:55.958219801Z,-0.80,-1.60,2.20,1.00,0.40,3.20,1.00,2.40,1.40,2.40,4.60,6.00,8.40,7.20,,,,,,,,,,,,,,
1799999995967302453,2027-01-15T07:59:55.967302453Z,0.40,-2.00,-0.80,2.60,1.20,3.00,0.20,2.40,4.60,3.60,5.40,6.20,6.80,9.20,,,,,,,,,,,,,,
1799999995976385105,2027-01-15T07:59:55.976385105Z,0.00,-0.60,-1.00,0.40,2.00,2.60,0.00,3.00,4.80,4.20,5.20,7.20,6.60,9.40,,,,,,,,,,,,,,
1799999995985467757,2027-01-15T07:59:55.985467757Z,-1.80,-0.80,-0.80,-1.20,1.20,2.80,0.00,3.80,4.20,3.80,5.20,8.00,4.20,9.20,,,,,,,,,,,,,,
1799999995994550409,2027-01-15T07:59:55.994550409Z,-2.00,-2.00,-2.20,-0.20,-0.20,2.60,0.60,3.80,6.60,4.20,5.60,8.00,2.20,9.40,,,,,,,,,,,,,,
1799999996003633061,2027-01-15T07:59:56.003633061Z,-3.00,-1.80,-1.20,1.20,0.60,0.80,1.40,4.40,7.40,4.60,4.60,6.80,6.00,8.20,,,,,,,,,,,,,,
1799999996012715713,2027-01-15T07:59:56.012715713Z,-2.20,-1.80,0.80,1.40,0.60,0.40,2.80,4.80,5.40,4.00,4.80,6.00,8.20,7.00,,,,,,,,,,,,,,
1799999996021798366,2027-01-15T07:59:56.021798366Z,-1.80,-2.80,-1.40,1.00,-0.80,2.00,1.80,5.00,3.60,3.60,5.60,6.40,6.80,6.20,,,,,,,,,,,,,,
1799999996030881018,2027-01-15T07:59:56.030881018Z,-0.60,-2.20,-0.80,2.00,-0.60,2.80,1.00,3.00,2.80,4.60,6.20,4.80,4.00,7.20,,,,,,,,,,,,,,
1799999996039963670,2027-01-15T07:59:56.039963670Z,0.00,-0.40,0.60,3.20,0.20,2.40,1.20,1.60,2.40,5.00,6.60,4.00,5.80,8.20,,,,,,,,,,,,,,
1799999996049046322,2027-01-15T07:59:56.049046322Z,-2.20,-0.20,0.00,3.40,1.80,3.20,2.00,1.60,2.20,4.60,5.80,4.20,9.00,8.20,,,,,,,,,,,,,,
1799999996058128974,2027-01-15T07:59:56.058128974Z,-3.40,-2.40,-0.80,1.60,2.00,3.00,0.80,3.80,2.20,5.00,5.20,5.60,8.00,6.20,,,,,,,,,,,,,,
1799999996067211626,2027-01-15T07:59:56.067211626Z,-3.60,-0.20,0.00,1.00,1.20,1.20,1.80,3.60,2.20,6.20,5.80,6.20,6.80,5.60,,,,,,,,,,,,,,
1799999996076294278,2027-01-15T07:59:56.076294278Z,-1.60,2.00,0.00,0.40,1.60,0.60,4.00,1.80,3.60,4.60,4.80,5.40,6.20,6.60,,,,,,,,,,,,,,
1799999996085376931,2027-01-15T07:59:56.085376931Z,-2.20,-0.60,-1.00,0.60,0.60,2.00,4.20,3.40,4.60,1.80,4.00,6.00,6.80,6.40,,,,,,,,,,,,,,
1799999996094459583,2027-01-15T07:59:56.094459583Z,-1.20,-2.00,-0.40,1.20,0.00,2.20,3.80,4.60,3.60,3.20,4.00,5.60,7.00,7.00,,,,,,,,,,,,,,
1799999996103542235,2027-01-15T07:59:56.103542235Z,0.80,-1.20,0.80,1.60,0.20,2.00,3.00,4.00,1.80,5.80,4.40,4.80,7.60,7.40,,,,,,,,,,,,,,
1799999996112624887,2027-01-15T07:59:56.112624887Z,-0.40,-0.20,-0.20,0.60,0.60,3.00,3.00,3.00,3.60,4.40,4.60,4.80,7.00,5.40,,,,,,,,,,,,,,
1799999996121707539,2027-01-15T07:59:56.121707539Z,-1.60,0.20,-0.20,-0.20,0.80,2.60,1.80,2.20,4.20,4.40,4.80,3.40,6.40,4.80,,,,,,,,,,,,,,
1799999996130790191,2027-01-15T07:59:56.130790191Z,-0.80,0.40,0.80,0.80,0.40,1.80,2.80,1.00,2.40,5.40,3.60,4.20,6.20,5.40,,,,,,,,,,,,,,
1799999996139872843,2027-01-15T07:59:56.139872843Z,-0.80,-1.20,1.40,1.00,0.60,1.00,3.80,2.20,2.00,4.40,3.80,7.00,7.00,6.40,,,,,,,,,,,,,,
1799999996148955496,2027-01-15T07:59:56.148955496Z,-1.00,-1.60,1.00,1.60,0.80,1.40,3.60,2.80,2.40,3.60,4.60,7.00,5.40,6.20,,,,,,,,,,,,,,
1799999996158038148,2027-01-15T07:59:56.158038148Z,-1.20,-0.20,0.60,3.40,0.80,2.40,4.00,1.20,2.40,3.80,5.00,6.40,5.00,6.00,,,,,,,,,,,,,,
1799999996167120800,2027-01-15T07:59:56.167120800Z,-0.80,1.20,1.00,3.00,1.80,1.00,4.00,0.20,3.80,3.60,5.00,6.80,9.20,8.20,,,,,,,,,,,,,,
1799999996176203452,2027-01-15T07:59:56.176203452Z,-2.00,2.00,0.40,1.20,3.40,0.80,3.40,1.00,4.80,3.80,5.80,5.40,10.40,9.00,,,,,,,,,,,,,,
1799999996185286104,2027-01-15T07:59:56.185286104Z,-1.40,2.40,0.20,0.20,2.80,3.40,2.80,0.00,3.40,4.60,6.60,5.40,7.40,7.20,,,,,,,,,,,,,,
1799999996194368756,2027-01-15T07:59:56.194368756Z,-1.60,-0.20,0.20,0.80,1.60,2.60,3.00,1.40,3.40,4.80,5.60,7.00,6.80,6.60,,,,,,,,,,,,,,
1799999996203451408,2027-01-15T07:59:56.203451408Z,2.00,-1.80,0.60,0.40,1.00,1.20,2.40,2.80,3.80,5.40,4.80,6.20,7.40,5.40,,,,,,,,,,,,,,
1799999996212534060,2027-01-15T07:59:56.212534060Z,1.40,-1.80,0.60,-1.40,0.20,-0.80,3.00,1.40,4.00,5.80,5.40,4.40,7.00,3.20,,,,,,,,,,,,,,
1799999996221616713,2027-01-15T07:59:56.221616713Z,-0.80,-0.60,0.60,-2.20,0.60,0.80,5.20,2.20,3.60,5.00,5.00,5.00,7.80,3.80,,,,,,,,,,,,,,
1799999996230699365,2027-01-15T07:59:56.230699365Z,-1.20,0.20,1.60,-1.20,1.20,2.60,4.60,3.00,5.40,6.00,4.20,5.80,8.60,5.40,,,,,,,,,,,,,,
1799999996239782017,2027-01-15T07:59:56.239782017Z,-2.20,-0.80,-0.40,0.20,0.80,2.20,2.80,3.60,6.40,6.80,4.80,5.40,8.00,6.20,,,,,,,,,,,,,,
1799999996248864669,2027-01-15T07:59:56.248864669Z,-0.40,-1.60,-2.00,-0.60,0.40,0.80,2.80,4.80,5.20,5.00,6.20,4.20,7.00,7.00,,,,,,,,,,,,,,
1799999996257947321,2027-01-15T07:59:56.257947321Z,0.60,-1.40,-1.40,-0.40,0.40,1.00,2.40,4.40,5.20,4.20,6.20,5.40,6.40,7.40,,,,,,,,,,,,,,
1799999996267029973,2027-01-15T07:59:56.267029973Z,0.20,-2.40,-1.20,1.80,2.40,1.60,2.40,3.00,5.60,4.80,5.00,7.40,5.20,6.80,,,,,,,,,,,,,,
1799999996276112625,2027-01-15T07:59:56.276112625Z,-0.60,-1.60,-1.20,1.00,3.40,1.00,3.20,3.00,3.40,4.20,4.40,6.20,5.60,4.60,,,,,,,,,,,,,,
1799999996285195278,2027-01-15T07:59:56.285195278Z,-1.80,1.80,-0.60,-0.20,1.40,0.80,2.40,2.60,1.60,4.60,3.80,4.40,6.80,3.80,,,,,,,,,,,,,,
1799999996294277930,2027-01-15T07:59:56.294277930Z,-1.40,1.80,0.40,0.40,1.20,0.20,2.40,3.00,2.60,4.60,4.80,5.20,7.00,5.60,,,,,,,,,,,,,,
1799999996303360582,2027-01-15T07:59:56.303360582Z,-3.00,-1.80,-0.80,1.00,1.80,-1.60,3.00,3.40,4.60,3.00,7.20,5.20,5.40,7.00,,,,,,,,,,,,,,
1799999996312443234,2027-01-15T07:59:56.312443234Z,-1.20,-1.60,-1.20,1.40,1.60,0.20,3.60,3.80,5.00,3.40,7.60,4.60,4.60,7.60,,,,,,,,,,,,,,
1799999996321525886,2027-01-15T07:59:56.321525886Z,-0.80,0.20,1.40,1.00,2.00,3.00,3.80,3.80,5.00,4.60,7.20,5.20,4.60,7.40,,,,,,,,,,,,,,
1799999996330608538,2027-01-15T07:59:56.330608538Z,-0.60,-0.60,1.20,0.00,1.60,2.00,2.60,2.40,5.80,4.20,7.20,4.60,5.60,6.00,,,,,,,,,,,,,,
1799999996339691190,2027-01-15T07:59:56.339691190Z,-0.60,-0.20,-0.20,0.40,2.00,2.00,1.80,1.40,5.80,4.40,5.60,4.20,6.80,5.40,,,,,,,,,,,,,,
1799999996348773842,2027-01-15T07:59:56.348773842Z,1.20,-0.20,1.60,1.00,1.00,1.60,1.60,2.00,4.20,5.20,4.80,6.00,7.40,6.00,,,,,,,,,,,,,,
1799999996357856495,2027-01-15T07:59:56.357856495Z,1.40,-2.20,1.20,1.80,-0.40,0.60,1.80,3.20,2.60,4.80,5.20,5.40,6.20,7.80,,,,,,,,,,,,,,
1799999996366939147,2027-01-15T07:59:56.366939147Z,0.80,-2.00,0.20,1.80,0.20,1.00,2.00,3.60,2.20,4.40,5.00,4.60,5.60,8.20,,,,,,,,,,,,,,
1799999996376021799,2027-01-15T07:59:56.376021799Z,0.20,-0.40,0.60,0.80,1.40,1.60,1.80,4.80,3.20,4.20,4.40,5.20,5.20,7.20,,,,,,,,,,,,,,
1799999996385104451,2027-01-15T07:59:56.385104451Z,-2.80,-0.40,0.60,0.20,-0.40,1.00,3.60,3.80,5.40,5.20,5.20,4.40,4.80,5.40,,,,,,,,,,,,,,
1799999996394187103,2027-01-15T07:59:56.394187103Z,-1.00,0.20,0.00,0.00,-0.60,1.80,6.20,2.00,5.00,6.40,5.80,5.00,5.20,4.80,,,,,,,,,,,,,,
1799999996403269755,2027-01-15T07:59:56.403269755Z,-0.60,-0.80,0.20,-1.20,0.40,1.00,3.20,2.40,3.40,6.20,5.20,6.40,6.20,5.40,,,,,,,,,,,,,,
1799999996412352407,2027-01-15T07:59:56.412352407Z,1.20,-2.40,-1.80,-1.00,-1.20,1.40,0.80,3.80,3.80,4.80,3.80,5.60,7.20,6.60,,,,,,,,,,,,,,
1799999996421435060,2027-01-15T07:59:56.421435060Z,0.20,-1.40,-1.40,-0.60,-0.20,2.20,1.20,4.60,4.40,4.40,4.40,5.40,6.80,7.20,,,,,,,,,,,,,,
1799999996430517712,2027-01-15T07:59:56.430517712Z,-0.20,0.60,1.40,0.20,0.80,3.60,3.60,5.80,4.60,5.60,4.80,7.00,6.40,7.40,,,,,,,,,,,,,,
1799999996439600364,2027-01-15T07:59:56.439600364Z,-0.20,0.20,0.40,2.00,-0.80,3.00,1.20,4.80,4.80,4.60,3.20,7.40,5.80,7.20,,,,,,,,,,,,,,
1799999996448683016,2027-01-15T07:59:56.448683016Z,-0.80,-0.80,-1.60,1.60,1.00,1.80,1.60,3.40,4.20,1.80,3.60,5.40,2.80,7.60,,,,,,,,,,,,,,
1799999996457765668,2027-01-15T07:59:56.457765668Z,-0.60,-0.80,-1.00,-0.40,3.00,2.20,4.00,2.00,4.60,2.40,4.00,4.60,1.80,7.00,,,,,,,,,,,,,,
1799999996466848320,2027-01-15T07:59:56.466848320Z,0.00,0.60,0.60,0.40,2.00,3.60,5.80,1.60,4.00,4.80,4.00,5.80,6.60,6.20,,,,,,,,,,,,,,
1799999996475930972,2027-01-15T07:59:56.475930972Z,0.20,0.80,-1.00,-0.60,2.20,2.20,4.00,3.60,3.60,5.20,4.80,6.40,7.20,6.60,,,,,,,,,,,,,,
1799999996485013624,2027-01-15T07:59:56.485013624Z,-1.00,1.00,-2.20,-1.60,2.80,0.80,2.40,4.00,2.60,4.80,4.60,7.00,6.60,6.80,,,,,,,,,,,,,,
1799999996494096277,2027-01-15T07:59:56.494096277Z,-1.20,-0.20,-0.60,-0.80,2.00,0.60,0.00,3.60,2.40,5.80,3.80,6.60,7.40,6.20,,,,,,,,,,,,,,
1799999996503178929,2027-01-15T07:59:56.503178929Z,-0.80,-1.60,1.20,0.80,1.60,2.00,1.40,4.20,4.60,7.00,3.40,5.20,6.60,6.60,,,,,,,,,,,,,,
1799999996512261581,2027-01-15T07:59:56.512261581Z,-0.80,0.40,0.60,1.80,1.60,3.80,2.60,3.40,5.20,7.40,3.60,5.40,4.80,7.00,,,,,,,,,,,,,,
1799999996521344233,2027-01-15T07:59:56.521344233Z,-1.00,2.40,-0.60,1.80,1.60,4.20,2.40,3.60,4.20,5.80,6.20,5.80,5.20,8.40,,,,,,,,,,,,,,
1799999996530426885,2027-01-15T07:59:56.530426885Z,0.00,0.20,-0.40,2.60,1.00,2.40,0.80,2.40,2.80,5.60,5.80,5.40,5.40,10.40,,,,,,,,,,,,,,
1799999996539509537,2027-01-15T07:59:56.539509537Z,-0.60,-0.80,0.20,2.20,0.60,1.40,0.40,1.60,2.60,5.80,5.20,6.00,6.00,9.20,,,,,,,,,,,,,,
1799999996548592189,2027-01-15T07:59:56.548592189Z,-0.40,-1.80,0.20,0.00,0.60,1.60,1.60,2.40,3.00,4.60,3.60,6.20,6.20,6.40,,,,,,,,,,,,,,
1799999996557674842,2027-01-15T07:59:56.557674842Z,1.40,-0.80,0.40,-2.00,1.60,2.40,3.40,3.40,4.80,3.60,5.20,5.40,6.00,5.60,,,,,,,,,,,,,,
1799999996566757494,2027-01-15T07:59:56.566757494Z,-1.40,0.40,1.00,-1.60,1.80,2.60,3.40,3.80,4.60,2.40,4.20,6.00,7.20,5.40,,,,,,,,,,,,,,
1799999996575840146,2027-01-15T07:59:56.575840146Z,-0.80,0.80,1.40,-0.20,1.00,2.60,2.00,3.00,3.60,1.20,4.20,5.80,7.60,5.60,,,,,,,,,,,,,,
1799999996584922798,2027-01-15T07:59:56.584922798Z,-1.20,0.20,1.00,1.20,1.80,1.60,2.40,2.00,3.60,1.60,6.20,6.20,8.20,7.00,,,,,,,,,,,,,,
1799999996594005450,2027-01-15T07:59:56.594005450Z,-0.80,-1.40,0.40,1.40,2.20,0.60,3.20,3.20,2.40,2.80,5.60,6.40,7.00,6.40,,,,,,,,,,,,,,
1799999996603088102,2027-01-15T07:59:56.603088102Z,-2.40,-3.00,0.00,0.60,2.20,-0.80,4.60,5.40,0.40,5.00,3.80,5.80,5.40,5.00,,,,,,,,,,,,,,
1799999996612170754,2027-01-15T07:59:56.612170754Z,1.40,-1.60,-0.60,1.00,3.00,0.00,5.20,4.80,1.40,5.60,4.20,6.60,6.40,5.20,,,,,,,,,,,,,,
1799999996621253406,2027-01-15T07:59:56.621253406Z,0.00,-2.60,-0.40,1.20,2.80,3.00,4.00,2.80,4.00,4.40,5.20,6.80,7.20,4.80,,,,,,,,,,,,,,
1799999996630336059,2027-01-15T07:59:56.630336059Z,0.00,-2.00,0.80,0.60,2.40,4.00,1.60,0.80,4.60,2.00,5.60,5.80,6.40,5.00,,,,,,,,,,,,,,
1799999996639418711,2027-01-15T07:59:56.639418711Z,0.40,-1.40,0.20,1.00,2.20,1.00,0.40,1.20,3.80,3.40,4.60,6.20,6.40,5.60,,,,,,,,,,,,,,
1799999996648501363,2027-01-15T07:59:56.648501363Z,-2.00,-1.60,-1.00,1.00,1.20,0.00,1.40,2.40,3.80,4.40,4.40,6.40,5.80,6.60,,,,,,,,,,,,,,
1799999996657584015,2027-01-15T07:59:56.657584015Z,-2.40,-1.20,-1.80,1.40,0.20,1.80,2.60,3.60,5.00,4.40,4.60,6.20,5.00,7.60,,,,,,,,,,,,,,
1799999996666666667,2027-01-15T07:59:56.666666667Z,-0.20,-2.00,-0.20,2.20,2.80,1.00,3.20,4.80,5.60,5.60,3.60,6.80,6.20,6.40,,,,,,,,,,,,,,
1799999996675749319,2027-01-15T07:59:56.675749319Z,-0.60,-3.60,0.00,0.00,2.80,0.00,4.00,5.00,4.60,7.80,3.20,6.80,7.80,5.20,,,,,,,,,,,,,,
1799999996684831971,2027-01-15T07:59:56.684831971Z,-1.00,-2.60,-1.60,-1.60,1.20,1.60,3.80,4.20,3.80,6.00,4.60,6.00,8.40,4.60,,,,,,,,,,,,,,
1799999996693914624,2027-01-15T07:59:56.693914624Z,0.40,-1.00,-0.80,0.00,1.80,0.80,3.00,4.40,3.20,5.40,6.60,5.40,7.00,6.40,,,,,,,,,,,,,,
1799999996702997276,2027-01-15T07:59:56.702997276Z,-1.00,-0.80,0.20,-0.20,2.40,1.00,3.00,4.20,2.20,5.60,7.60,6.60,5.60,7.00,,,,,,,,,,,,,,
1799999996712079928,2027-01-15T07:59:56.712079928Z,-3.80,-1.40,1.00,-0.40,1.80,3.40,2.00,3.20,1.40,3.80,7.40,8.60,5.20,6.20,,,,,,,,,,,,,,
1799999996721162580,2027-01-15T07:59:56.721162580Z,-1.00,-1.80,0.20,1.80,2.60,3.80,1.20,1.20,4.00,4.40,4.80,8.00,4.40,5.40,,,,,,,,,,,,,,
1799999996730245232,2027-01-15T07:59:56.730245232Z,-0.60,-1.40,1.60,1.60,2.80,2.40,2.40,0.60,6.80,6.80,3.20,6.20,4.40,6.20,,,,,,,,,,,,,,
1799999996739327884,2027-01-15T07:59:56.739327884Z,0.60,-1.80,0.40,-0.20,1.60,1.00,3.00,2.60,5.60,5.80,3.20,5.60,5.20,8.00,,,,,,,,,,,,,,
1799999996748410536,2027-01-15T07:59:56.748410536Z,-2.20,-1.20,-2.20,0.40,1.40,0.40,2.60,2.80,4.00,3.60,3.40,6.00,6.60,6.60,,,,,,,,,,,,,,
1799999996757493189,2027-01-15T07:59:56.757493189Z,-1.00,-1.20,-2.40,0.80,1.60,1.00,3.40,1.60,4.00,3.00,3.80,6.80,7.00,5.80,,,,,,,,,,,,,,
1799999996766575841,2027-01-15T07:59:56.766575841Z,-0.80,0.20,-2.00,0.40,0.40,2.60,4.80,1.80,3.40,5.00,5.40,7.40,7.20,8.00,,,,,,,,,,,,,,
1799999996775658493,2027-01-15T07:59:56.775658493Z,-1.00,1.60,-1.60,1.40,0.60,2.20,3.80,2.00,4.40,7.60,5.60,5.80,8.40,9.00,,,,,,,,,,,,,,
1799999996784741145,2027-01-15T07:59:56.784741145Z,0.00,2.60,1.20,2.20,0.20,2.00,2.40,2.00,5.40,7.20,4.80,5.60,7.80,9.20,,,,,,,,,,,,,,
1799999996793823797,2027-01-15T07:59:56.793823797Z,0.00,2.20,2.00,1.80,-1.60,1.40,2.20,2.40,4.00,4.20,4.20,6.80,6.40,8.00,,,,,,,,,,,,,,
1799999996802906449,2027-01-15T07:59:56.802906449Z,0.00,-0.60,-1.00,0.60,-0.60,1.60,2.60,3.60,3.60,3.60,4.40,5.40,5.20,6.20,,,,,,,,,,,,,,
1799999996811989101,2027-01-15T07:59:56.811989101Z,-1.00,-1.00,-1.60,1.80,0.40,2.60,1.80,4.20,3.00,3.80,6.00,4.20,4.80,6.20,,,,,,,,,,,,,,
1799999996821071753,2027-01-15T07:59:56.821071753Z,-0.80,-0.80,0.80,4.40,0.60,3.00,0.20,3.60,1.60,3.60,8.40,5.00,4.40,5.20,,,,,,,,,,,,,,
1799999996830154406,2027-01-15T07:59:56.830154406Z,-1.40,-2.00,1.60,2.80,1.20,2.40,0.60,2.60,3.20,5.80,7.00,3.80,3.60,6.40,,,,,,,,,,,,,,
1799999996839237058,2027-01-15T07:59:56.839237058Z,-2.40,-0.60,0.40,-0.60,1.20,1.40,2.20,2.60,5.40,6.80,4.60,4.80,4.20,7.40,,,,,,,,,,,,,,
1799999996848319710,2027-01-15T07:59:56.848319710Z,-2.40,0.00,-0.20,-1.20,0.60,1.60,3.60,3.20,5.40,4.40,4.40,7.20,6.00,6.00,,,,,,,,,,,,,,
1799999996857402362,2027-01-15T07:59:56.857402362Z,-1.00,-1.20,-0.40,-0.80,1.20,2.20,4.20,3.80,3.80,3.20,5.60,6.60,6.60,7.20,,,,,,,,,,,,,,
1799999996866485014,2027-01-15T07:59:56.866485014Z,2.00,-1.00,0.20,0.00,1.00,1.60,4.40,3.20,3.60,4.00,5.40,5.20,5.80,8.40,,,,,,,,,,,,,,
1799999996875567666,2027-01-15T07:59:56.875567666Z,-0.20,0.80,1.80,0.80,1.00,0.20,4.80,1.80,5.40,5.60,6.00,4.40,5.40,7.20,,,,,,,,,,,,,,
1799999996884650318,2027-01-15T07:59:56.884650318Z,1.20,1.20,0.40,0.00,1.40,1.20,3.40,1.80,5.80,4.00,6.80,3.60,4.60,7.80,,,,,,,,,,,,,,
1799999996893732971,2027-01-15T07:59:56.893732971Z,0.60,-1.20,-1.60,-0.40,0.80,2.20,2.80,3.00,4.40,3.20,5.60,5.60,4.40,8.20,,,,,,,,,,,,,,
1799999996902815623,2027-01-15T07:59:56.902815623Z,0.60,-3.20,-0.80,-0.20,0.60,1.80,3.80,3.00,4.40,4.80,3.80,6.80,5.40,6.60,,,,,,,,,,,,,,
1799999996911898275,2027-01-15T07:59:56.911898275Z,-0.80,-2.40,0.00,-0.60,1.60,1.60,5.00,2.60,5.40,5.80,4.20,5.40,7.20,6.60,,,,,,,,,,,,,,
1799999996920980927,2027-01-15T07:59:56.920980927Z,-0.20,-2.80,0.20,0.80,1.00,1.40,3.60,2.80,4.60,4.80,2.60,5.20,7.20,8.40,,,,,,,,,,,,,,
1799999996930063579,2027-01-15T07:59:56.930063579Z,1.00,-3.00,0.20,0.60,0.40,1.20,3.00,2.80,4.00,5.20,2.00,5.60,7.00,8.00,,,,,,,,,,,,,,
1799999996939146231,2027-01-15T07:59:56.939146231Z,-1.00,-0.20,-0.60,-0.60,0.20,2.40,1.80,3.00,5.00,5.40,5.20,5.80,6.20,6.80,,,,,,,,,,,,,,
1799999996948228883,2027-01-15T07:59:56.948228883Z,-2.20,2.60,-1.80,0.60,1.00,3.00,0.60,3.60,5.00,3.40,6.20,5.60,6.00,6.20,,,,,,,,,,,,,,
1799999996957311535,2027-01-15T07:59:56.957311535Z,-2.80,1.60,-0.60,1.60,1.00,2.60,0.40,3.40,4.00,2.60,3.00,5.80,5.60,4.40,,,,,,,,,,,,,,
1799999996966394188,2027-01-15T07:59:56.966394188Z,1.20,-0.40,-0.40,1.60,1.40,2.20,2.20,3.60,3.60,4.00,2.40,6.80,5.80,3.60,,,,,,,,,,,,,,
1799999996975476840,2027-01-15T07:59:56.975476840Z,-0.20,0.60,-1.40,1.60,2.60,0.80,2.20,3.20,3.80,3.00,4.80,5.80,7.40,6.20,,,,,,,,,,,,,,
1799999996984559492,2027-01-15T07:59:56.984559492Z,-0.20,0.20,-1.00,2.20,3.40,0.80,1.80,2.40,3.00,2.20,5.60,5.40,7.80,7.00,,,,,,,,,,,,,,
1799999996993642144,2027-01-15T07:59:56.993642144Z,-0.20,-1.00,0.20,1.80,3.60,2.00,1.40,2.40,2.40,1.80,4.80,6.80,6.60,6.80,,,,,,,,,,,,,,
1799999997002724796,2027-01-15T07:59:57.002724796Z,-5.00,1.00,0.80,0.00,1.80,2.00,1.80,4.60,4.20,4.00,5.00,5.80,6.00,4.60,,,,,,,,,,,,,,
1799999997011807448,2027-01-15T07:59:57.011807448Z,,1.60,1.80,0.40,0.20,1.20,2.00,5.40,5.00,3.60,4.80,4.60,5.80,5.40,,,,,,,,,,,,,,
1799999997020890100,2027-01-15T07:59:57.020890100Z,-3.80,-1.20,0.80,1.40,0.60,2.20,4.00,3.60,4.00,2.80,3.40,5.20,5.80,6.00,,,,,,,,,,,,,,
1799999997029972753,2027-01-15T07:59:57.029972753Z,-0.40,-1.80,-1.00,1.40,0.40,2.80,3.80,3.80,4.40,4.20,2.60,5.00,5.60,6.00,,,,,,,,,,,,,,
1799999997039055405,2027-01-15T07:59:57.039055405Z,-0.40,-1.80,-1.80,1.20,0.20,2.80,3.00,3.20,4.80,3.80,3.20,5.40,5.60,7.00,,,,,,,,,,,,,,
1799999997048138057,2027-01-15T07:59:57.048138057Z,-1.60,-1.80,-1.40,1.00,1.60,2.20,1.20,1.40,4.40,2.80,4.80,5.60,6.20,8.40,,,,,,,,,,,,,,
1799999997057220709,2027-01-15T07:59:57.057220709Z,-4.00,-1.40,-0.20,0.60,2.80,1.80,2.60,1.80,2.20,4.40,4.40,4.20,7.40,6.00,,,,,,,,,,,,,,
1799999997066303361,2027-01-15T07:59:57.066303361Z,-1.80,-2.40,-0.20,-0.20,2.00,0.40,3.40,1.20,2.60,4.60,3.60,5.20,7.60,6.00,,,,,,,,,,,,,,
1799999997075386013,2027-01-15T07:59:57.075386013Z,-1.60,-1.80,-1.40,-0.40,0.60,1.00,3.40,1.20,4.20,2.80,4.60,7.40,7.60,7.60,,,,,,,,,,,,,,
1799999997084468665,2027-01-15T07:59:57.084468665Z,0.60,0.00,1.00,1.40,0.80,2.60,1.60,2.60,4.60,2.80,5.60,6.40,6.00,8.00,,,,,,,,,,,,,,
1799999997093551317,2027-01-15T07:59:57.093551317Z,-0.60,-0.20,2.00,2.20,0.60,2.40,1.60,3.00,4.20,3.60,5.40,5.60,6.00,6.80,,,,,,,,,,,,,,
1799999997102633970,2027-01-15T07:59:57.102633970Z,-0.20,-1.00,0.00,1.40,0.40,2.00,3.20,2.60,3.20,3.60,5.20,6.60,8.20,5.20,,,,,,,,,,,,,,
1799999997111716622,2027-01-15T07:59:57.111716622Z,-0.20,-0.80,-0.20,1.60,0.20,2.60,2.00,2.00,3.80,4.20,4.40,6.20,8.00,6.00,,,,,,,,,,,,,,
1799999997120799274,2027-01-15T07:59:57.120799274Z,0.20,-0.40,0.80,1.00,0.40,0.80,1.20,2.60,4.80,5.00,3.20,6.20,6.40,7.00,,,,,,,,,,,,,,
1799999997129881926,2027-01-15T07:59:57.129881926Z,1.00,1.40,2.00,1.00,0.20,0.00,2.40,3.20,3.00,5.40,3.20,6.20,6.20,6.40,,,,,,,,,,,,,,
1799999997138964578,2027-01-15T07:59:57.138964578Z,0.00,0.60,1.20,0.40,-0.40,1.20,1.80,3.40,2.40,4.60,3.20,7.20,6.80,6.80,,,,,,,,,,,,,,
1799999997148047230,2027-01-15T07:59:57.148047230Z,0.80,-1.80,0.80,0.20,0.80,1.40,1.20,3.00,2.80,5.60,4.00,7.40,6.60,6.00,,,,,,,,,,,,,,
1799999997157129882,2027-01-15T07:59:57.157129882Z,0.20,-4.00,1.00,0.60,2.40,1.80,2.20,1.20,4.40,6.20,6.80,6.60,7.00,5.20,,,,,,,,,,,,,,
1799999997166212535,2027-01-15T07:59:57.166212535Z,-0.20,-1.40,0.20,1.00,0.60,1.20,3.80,0.40,4.20,3.80,7.20,6.60,7.40,8.60,,,,,,,,,,,,,,
1799999997175295187,2027-01-15T07:59:57.175295187Z,-0.40,1.40,0.80,0.60,0.40,0.20,3.00,2.60,5.00,1.80,6.40,7.40,6.40,10.80,,,,,,,,,,,,,,
1799999997184377839,2027-01-15T07:59:57.184377839Z,-1.20,0.20,1.20,-0.20,0.80,0.20,0.60,4.20,3.80,3.60,7.80,6.60,5.40,9.00,,,,,,,,,,,,,,
1799999997193460491,2027-01-15T07:59:57.193460491Z,-1.00,-0.80,-0.40,-1.40,0.20,0.60,0.40,2.80,3.40,4.20,6.40,5.40,6.40,8.00,,,,,,,,,,,,,,
1799999997202543143,2027-01-15T07:59:57.202543143Z,1.40,-0.20,0.80,-1.60,0.80,0.60,1.20,2.80,2.40,3.80,5.20,4.80,7.20,8.20,,,,,,,,,,,,,,
1799999997211625795,2027-01-15T07:59:57.211625795Z,0.40,-0.60,1.00,-1.00,1.80,1.40,1.60,2.60,1.00,3.40,2.80,4.40,6.60,6.20,,,,,,,,,,,,,,
1799999997220708447,2027-01-15T07:59:57.220708447Z,-2.20,-1.80,-1.80,-1.40,1.80,2.20,2.80,2.40,1.60,6.40,1.60,5.20,7.40,5.80,,,,,,,,,,,,,,
1799999997229791100,2027-01-15T07:59:57.229791100Z,-1.40,0.20,-0.80,-1.20,2.40,1.80,3.00,3.80,1.40,7.20,3.20,6.40,8.20,7.40,,,,,,,,,,,,,,
1799999997238873752,2027-01-15T07:59:57.238873752Z,1.00,0.60,1.00,0.60,2.20,-0.20,3.00,5.00,1.00,6.00,4.20,5.20,7.00,7.60,,,,,,,,,,,,,,
1799999997247956404,2027-01-15T07:59:57.247956404Z,1.00,-0.60,0.40,0.80,0.60,0.00,3.20,4.20,3.60,6.00,4.60,3.80,5.80,6.20,,,,,,,,,,,,,,
1799999997257039056,2027-01-15T07:59:57.257039056Z,-0.60,0.00,-0.20,0.80,0.60,0.40,1.80,3.20,5.00,5.40,5.00,5.00,6.00,6.20,,,,,,,,,,,,,,
1799999997266121708,2027-01-15T07:59:57.266121708Z,3.00,-0.20,0.00,2.20,1.80,-0.40,-0.20,2.60,6.60,3.80,6.60,7.20,5.60,7.40,,,,,,,,,,,,,,
1799999997275204360,2027-01-15T07:59:57.275204360Z,-2.40,-1.40,0.00,2.40,2.40,-0.60,1.60,2.60,6.00,3.80,8.00,6.20,4.60,8.20,,,,,,,,,,,,,,
1799999997284287012,2027-01-15T07:59:57.284287012Z,-2.00,1.60,-1.00,1.00,1.40,0.80,4.20,3.00,5.80,4.60,10.40,6.80,4.80,7.80,,,,,,,,,,,,,,
1799999997293369664,2027-01-15T07:59:57.293369664Z,-0.60,2.80,-1.20,1.20,-0.20,2.40,5.60,4.20,5.00,3.80,8.80,8.40,5.20,6.60,,,,,,,,,,,,,,
1799999997302452317,2027-01-15T07:59:57.302452317Z,0.00,0.00,0.20,2.20,0.40,2.80,3.20,3.20,4.40,4.00,4.80,7.20,5.60,6.80,,,,,,,,,,,,,,
1799999997311534969,2027-01-15T07:59:57.311534969Z,0.00,-0.80,-0.20,2.40,1.20,2.40,2.00,2.40,4.40,4.60,4.60,6.00,6.00,7.40,,,,,,,,,,,,,,
1799999997320617621,2027-01-15T07:59:57.320617621Z,1.20,0.80,-1.60,2.80,0.80,1.40,2.00,3.40,4.40,5.00,6.40,6.60,5.80,7.80,,,,,,,,,,,,,,
1799999997329700273,2027-01-15T07:59:57.329700273Z,1.20,-0.60,-0.40,2.60,1.00,0.20,3.40,3.60,4.60,4.40,5.00,5.60,5.00,8.20,,,,,,,,,,,,,,
1799999997338782925,2027-01-15T07:59:57.338782925Z,-1.00,-2.20,0.80,0.40,1.40,-2.20,4.00,2.60,4.20,2.00,3.60,4.60,4.80,7.60,,,,,,,,,,,,,,
1799999997347865577,2027-01-15T07:59:57.347865577Z,-0.40,-1.20,0.20,-0.80,0.80,-2.00,3.20,2.20,3.60,1.40,4.80,4.40,6.60,8.00,,,,,,,,,,,,,,
1799999997356948229,2027-01-15T07:59:57.356948229Z,1.20,0.00,0.40,2.20,0.00,0.20,4.20,3.20,4.80,3.80,5.80,4.80,5.80,8.60,,,,,,,,,,,,,,
1799999997366030882,2027-01-15T07:59:57.366030882Z,-1.60,-0.40,-0.60,3.40,1.00,2.40,4.40,3.80,5.20,4.60,5.40,5.00,5.20,7.60,,,,,,,,,,,,,,
1799999997375113534,2027-01-15T07:59:57.375113534Z,0.60,-1.20,-2.00,1.20,2.60,4.20,2.60,3.40,4.20,5.40,4.20,5.20,5.40,4.60,,,,,,,,,,,,,,
1799999997384196186,2027-01-15T07:59:57.384196186Z,0.40,-2.20,-1.00,0.60,1.40,4.00,2.20,2.60,3.60,6.40,4.00,5.60,2.60,3.60,,,,,,,,,,,,,,
1799999997393278838,2027-01-15T07:59:57.393278838Z,-2.20,-3.60,-0.20,0.40,0.00,2.80,1.60,1.80,4.00,7.00,4.60,5.20,0.40,5.40,,,,,,,,,,,,,,
1799999997402361490,2027-01-15T07:59:57.402361490Z,-2.00,-2.60,0.00,0.20,-0.60,1.80,0.20,2.80,4.00,5.80,5.80,4.60,3.80,8.60,,,,,,,,,,,,,,
1799999997411444142,2027-01-15T07:59:57.411444142Z,-1.60,-0.40,-0.60,0.80,1.20,2.00,0.60,4.60,4.40,4.20,5.20,5.80,7.00,9.00,,,,,,,,,,,,,,
1799999997420526794,2027-01-15T07:59:57.420526794Z,-1.60,-1.00,-0.40,0.20,1.40,3.40,2.80,4.40,4.60,3.80,3.20,5.60,6.20,7.00,,,,,,,,,,,,,,
1799999997429609446,2027-01-15T07:59:57.429609446Z,-4.20,-1.40,-0.60,0.60,1.20,4.20,3.40,3.60,3.80,3.80,3.60,5.20,5.60,7.20,,,,,,,,,,,,,,
1799999997438692099,2027-01-15T07:59:57.438692099Z,-1.60,0.80,-1.00,1.80,0.40,3.80,3.80,2.20,2.20,3.80,5.20,6.00,7.00,8.40,,,,,,,,,,,,,,
1799999997447774751,2027-01-15T07:59:57.447774751Z,-1.20,0.40,-0.20,1.20,1.80,3.00,4.80,3.00,1.80,5.00,4.80,6.60,6.80,8.20,,,,,,,,,,,,,,
1799999997456857403,2027-01-15T07:59:57.456857403Z,-1.40,-2.80,0.00,0.60,1.20,2.20,3.80,4.80,3.60,4.80,4.80,5.80,5.40,7.40,,,,,,,,,,,,,,
1799999997465940055,2027-01-15T07:59:57.465940055Z,-1.00,-2.80,0.80,0.80,0.60,1.60,2.00,5.20,5.60,3.60,5.40,6.00,6.20,6.40,,,,,,,,,,,,,,
1799999997475022707,2027-01-15T07:59:57.475022707Z,1.20,-0.80,0.60,0.80,1.00,2.00,2.20,3.40,4.60,3.20,5.60,5.60,7.40,7.40,,,,,,,,,,,,,,
1799999997484105359,2027-01-15T07:59:57.484105359Z,-2.60,-1.00,0.00,0.60,1.40,1.40,2.80,3.20,4.00,4.00,4.40,5.80,7.00,8.00,,,,,,,,,,,,,,
1799999997493188011,2027-01-15T07:59:57.493188011Z,-2.80,-0.60,-0.20,0.00,0.80,1.20,2.80,5.00,5.00,5.60,3.60,7.00,6.00,7.40,,,,,,,,,,,,,,
1799999997502270664,2027-01-15T07:59:57.502270664Z,-1.60,0.00,-1.20,0.40,0.80,2.80,3.60,4.40,4.80,5.80,5.80,6.20,7.20,6.60,,,,,,,,,,,,,,
1799999997511353316,2027-01-15T07:59:57.511353316Z,-1.60,-0.80,-2.40,0.40,1.80,2.20,4.00,2.40,4.20,5.00,5.80,5.00,7.40,6.20,,,,,,,,,,,,,,
1799999997520435968,2027-01-15T07:59:57.520435968Z,1.20,-2.40,-2.40,0.20,2.20,0.80,4.60,3.00,3.80,4.40,4.20,5.80,7.00,7.00,,,,,,,,,,,,,,
1799999997529518620,2027-01-15T07:59:57.529518620Z,-0.80,-2.00,-0.60,0.40,1.40,1.40,3.20,3.60,3.00,4.20,4.40,5.40,7.00,6.20,,,,,,,,,,,,,,
1799999997538601272,2027-01-15T07:59:57.538601272Z,1.20,-0.80,-0.40,-0.40,1.00,2.20,1.40,3.20,3.40,4.80,5.00,5.00,7.00,6.00,,,,,,,,,,,,,,
1799999997547683924,2027-01-15T07:59:57.547683924Z,-0.40,-0.40,-2.20,-2.00,0.80,2.00,-1.20,3.40,5.00,6.20,4.40,6.00,7.80,6.60,,,,,,,,,,,,,,
1799999997556766576,2027-01-15T07:59:57.556766576Z,0.40,-0.80,-2.20,-1.00,1.20,2.20,0.40,3.20,5.60,5.60,4.60,6.60,7.60,7.00,,,,,,,,,,,,,,
1799999997565849228,2027-01-15T07:59:57.565849228Z,0.40,-1.00,-0.20,-1.00,1.20,3.40,3.60,1.80,6.00,4.60,5.00,6.00,5.00,5.60,,,,,,,,,,,,,,
1799999997574931881,2027-01-15T07:59:57.574931881Z,0.60,-1.40,1.60,-2.00,0.20,3.40,3.80,1.00,5.00,3.80,6.00,4.20,3.40,5.40,,,,,,,,,,,,,,
1799999997584014533,2027-01-15T07:59:57.584014533Z,-2.20,-0.60,0.00,-0.20,0.40,1.80,1.20,3.00,1.40,4.20,7.40,3.80,5.00,6.40,,,,,,,,,,,,,,
1799999997593097185,2027-01-15T07:59:57.593097185Z,-2.60,0.40,-1.00,0.80,0.80,2.40,0.20,3.60,1.80,3.80,7.60,4.60,5.40,6.00,,,,,,,,,,,,,,
1799999997602179837,2027-01-15T07:59:57.602179837Z,0.80,1.00,-0.20,2.20,1.60,3.40,1.00,1.40,4.40,3.60,8.20,7.20,5.40,5.20,,,,,,,,,,,,,,
1799999997611262489,2027-01-15T07:59:57.611262489Z,1.20,0.80,-1.00,2.20,1.60,1.60,1.00,0.60,3.00,5.00,7.40,7.20,6.60,5.60,,,,,,,,,,,,,,
1799999997620345141,2027-01-15T07:59:57.620345141Z,3.00,-0.20,-1.20,2.60,1.80,0.40,1.60,2.20,3.20,4.00,4.40,6.00,6.00,5.40,,,,,,,,,,,,,,
1799999997629427793,2027-01-15T07:59:57.629427793Z,1.80,-1.00,-0.20,1.20,1.60,1.60,2.60,2.80,5.00,2.40,3.40,5.80,5.80,6.40,,,,,,,,,,,,,,
1799999997638510446,2027-01-15T07:59:57.638510446Z,-1.40,0.20,-0.20,0.40,1.60,2.60,3.40,1.80,4.00,3.80,5.00,6.60,5.00,6.80,,,,,,,,,,,,,,
1799999997647593098,2027-01-15T07:59:57.647593098Z,-1.60,0.40,-1.80,0.40,1.40,2.40,4.60,2.00,3.80,4.00,5.00,6.60,5.20,5.40,,,,,,,,,,,,,,
1799999997656675750,2027-01-15T07:59:57.656675750Z,0.00,0.20,-3.00,1.20,2.00,1.60,4.60,3.00,4.40,2.80,5.00,7.20,6.80,3.20,,,,,,,,,,,,,,
1799999997665758402,2027-01-15T07:59:57.665758402Z,0.20,-0.80,-0.60,1.40,1.20,1.40,2.60,2.80,2.40,4.20,5.40,7.40,7.00,4.00,,,,,,,,,,,,,,
1799999997674841054,2027-01-15T07:59:57.674841054Z,0.20,0.00,1.00,1.00,-0.40,2.20,1.60,3.40,3.20,5.00,5.60,6.40,6.20,5.40,,,,,,,,,,,,,,
1799999997683923706,2027-01-15T07:59:57.683923706Z,-0.60,-0.40,-1.00,-0.20,0.60,2.80,1.20,4.80,4.80,3.80,6.60,4.80,6.80,6.00,,,,,,,,,,,,,,
1799999997693006358,2027-01-15T07:59:57.693006358Z,-0.40,-2.00,-0.60,0.20,1.00,2.40,0.60,5.60,5.00,5.40,5.20,3.80,6.20,7.40,,,,,,,,,,,,,,
1799999997702089010,2027-01-15T07:59:57.702089010Z,1.00,-1.00,-0.20,0.40,0.80,1.80,3.20,5.00,5.00,6.20,4.20,4.00,5.80,7.80,,,,,,,,,,,,,,
1799999997711171663,2027-01-15T07:59:57.711171663Z,-0.40,1.80,-2.00,2.60,2.20,1.00,6.20,3.40,4.60,4.40,4.80,4.60,7.00,6.80,,,,,,,,,,,,,,
1799999997720254315,2027-01-15T07:59:57.720254315Z,-0.80,0.80,-1.80,5.00,2.00,1.20,2.40,3.00,4.80,3.60,3.60,6.20,8.80,8.00,,,,,,,,,,,,,,
1799999997729336967,2027-01-15T07:59:57.729336967Z,-3.20,-3.20,-0.80,3.60,0.60,1.40,0.60,3.80,5.00,4.00,3.20,8.00,8.60,8.00,,,,,,,,,,,,,,
1799999997738419619,2027-01-15T07:59:57.738419619Z,-2.60,-5.60,-0.60,0.80,-0.40,1.00,2.60,4.40,3.20,4.80,3.40,7.60,6.60,6.20,,,,,,,,,,,,,,
1799999997747502271,2027-01-15T07:59:57.747502271Z,-1.20,-2.40,1.00,-0.20,0.80,2.40,1.80,2.80,3.00,5.80,3.80,6.60,5.60,7.20,,,,,,,,,,,,,,
1799999997756584923,2027-01-15T07:59:57.756584923Z,0.80,0.20,1.40,0.00,1.00,3.00,2.00,2.60,4.20,5.20,3.80,5.80,6.20,7.60,,,,,,,,,,,,,,
1799999997765667575,2027-01-15T07:59:57.765667575Z,1.00,0.80,0.20,1.80,0.60,1.80,3.20,3.40,4.80,4.00,3.40,4.80,8.00,6.20,,,,,,,,,,,,,,
1799999997774750228,2027-01-15T07:59:57.774750228Z,0.80,0.60,-1.60,2.80,1.40,0.60,2.20,2.60,1.40,4.80,4.20,5.80,6.80,5.00,,,,,,,,,,,,,,
1799999997783832880,2027-01-15T07:59:57.783832880Z,1.20,-1.40,-1.80,1.60,1.20,1.20,2.20,2.80,0.00,5.00,3.80,7.40,7.40,4.60,,,,,,,,,,,,,,
1799999997792915532,2027-01-15T07:59:57.792915532Z,0.60,-2.40,-1.60,1.00,1.20,2.60,2.40,3.40,3.00,3.20,2.80,6.80,9.00,6.80,,,,,,,,,,,,,,
1799999997801998184,2027-01-15T07:59:57.801998184Z,-0.20,-1.00,-1.20,0.40,1.60,1.40,1.60,2.40,5.80,4.40,5.00,6.40,5.80,6.80,,,,,,,,,,,,,,
1799999997811080836,2027-01-15T07:59:57.811080836Z,0.80,-0.60,-0.20,-0.60,1.60,0.80,1.40,1.80,5.60,5.20,5.40,5.40,4.20,6.80,,,,,,,,,,,,,,
1799999997820163488,2027-01-15T07:59:57.820163488Z,-3.00,0.00,1.40,-1.00,2.20,2.20,1.80,2.00,4.60,5.20,3.20,4.20,7.40,8.40,,,,,,,,,,,,,,
1799999997829246140,2027-01-15T07:59:57.829246140Z,-3.40,0.80,2.40,1.60,1.80,1.80,1.80,2.40,3.40,4.00,3.20,5.00,9.20,7.60,,,,,,,,,,,,,,
1799999997838328793,2027-01-15T07:59:57.838328793Z,,-1.40,1.40,2.20,1.80,1.60,2.40,3.40,1.60,3.00,4.40,5.60,8.00,7.20,,,,,,,,,,,,,,
1799999997847411445,2027-01-15T07:59:57.847411445Z,,-3.40,-0.40,0.80,1.40,1.80,3.40,3.20,1.40,3.00,4.20,5.80,7.60,7.80,,,,,,,,,,,,,,
1799999997856494097,2027-01-15T07:59:57.856494097Z,-2.60,-2.80,0.20,0.80,-0.60,0.80,3.20,2.20,3.80,4.40,4.60,6.00,7.40,6.60,,,,,,,,,,,,,,
1799999997865576749,2027-01-15T07:59:57.865576749Z,1.60,-0.20,3.00,1.00,0.40,-0.40,2.20,1.60,5.40,5.00,7.20,5.80,7.20,5.00,,,,,,,,,,,,,,
1799999997874659401,2027-01-15T07:59:57.874659401Z,-0.80,0.40,2.40,0.80,1.20,0.00,2.40,2.40,3.80,5.80,7.40,6.00,6.60,5.80,,,,,,,,,,,,,,
1799999997883742053,2027-01-15T07:59:57.883742053Z,-2.00,0.20,0.00,-0.80,1.80,0.40,3.80,3.40,0.80,6.40,5.20,5.80,6.80,8.00,,,,,,,,,,,,,,
1799999997892824705,2027-01-15T07:59:57.892824705Z,-1.40,0.40,-0.20,-1.60,1.60,0.20,5.20,2.40,2.00,5.20,4.80,6.00,8.40,8.40,,,,,,,,,,,,,,
1799999997901907357,2027-01-15T07:59:57.901907357Z,-1.60,-1.40,-0.20,-1.60,1.60,2.40,5.40,1.00,5.00,4.80,3.40,6.40,7.40,8.00,,,,,,,,,,,,,,
1799999997910990010,2027-01-15T07:59:57.910990010Z,0.60,-1.80,-1.40,0.40,1.60,4.40,4.80,2.00,6.20,4.00,2.60,6.20,5.60,7.20,,,,,,,,,,,,,,
1799999997920072662,2027-01-15T07:59:57.920072662Z,0.60,-1.40,-0.60,1.00,2.00,3.80,3.80,4.60,3.80,3.40,3.20,5.20,6.00,6.00,,,,,,,,,,,,,,
