# spacing_uv=20.0
timestamp_ns,timestamp_iso,AF3,F7,F3,FC5,T7,P7,O1,O2,P8,T8,FC6,F4,F8,AF4,AF3_q,F7_q,F3_q,FC5_q,T7_q,P7_q,O1_q,O2_q,P8_q,T8_q,FC6_q,F4_q,F8_q,AF4_q
1799999990000000000,2027-01-15T07:59:50.000000000Z,,,,,,,,,,,,,,,,,,,,,,,,,,,,
1799999990008688098,2027-01-15T07:59:50.008688098Z,-1.38,1.23,,1.69,0.92,0.92,,1.54,,0.62,3.38,,,3.38,,,,,,,,,,,,,,
1799999990017376195,2027-01-15T07:59:50.017376195Z,1.08,2.15,0.77,3.38,1.38,1.38,2.31,0.00,2.92,1.23,3.85,3.54,3.23,4.00,,,,,,,,,,,,,,
1799999990026064292,2027-01-15T07:59:50.026064292Z,1.08,1.85,0.00,4.00,0.31,0.77,1.38,0.62,3.23,2.15,2.77,3.69,2.92,4.46,,,,,,,,,,,,,,
1799999990034752390,2027-01-15T07:59:50.034752390Z,0.00,-0.15,0.77,2.62,-1.54,0.62,0.77,2.15,2.77,3.69,3.69,4.92,4.00,5.85,,,,,,,,,,,,,,
1799999990043440487,2027-01-15T07:59:50.043440487Z,-0.46,-0.62,0.77,2.62,-0.31,0.92,1.23,2.15,2.62,4.62,4.46,4.46,4.15,6.46,,,,,,,,,,,,,,
1799999990052128584,2027-01-15T07:59:50.052128584Z,0.31,0.92,0.92,1.23,1.69,1.54,1.38,1.38,3.08,5.38,5.54,4.31,2.92,7.69,,,,,,,,,,,,,,
1799999990060816682,2027-01-15T07:59:50.060816682Z,-0.15,2.15,-0.62,1.08,0.15,1.54,0.31,0.31,2.62,4.31,3.54,6.15,2.92,6.31,,,,,,,,,,,,,,
1799999990069504779,2027-01-15T07:59:50.069504779Z,-1.69,1.08,-0.31,2.46,-0.62,1.08,0.77,1.54,1.85,4.46,4.62,6.00,3.54,4.92,,,,,,,,,,,,,,
1799999990078192876,2027-01-15T07:59:50.078192876Z,-0.92,-0.31,1.54,3.85,1.08,1.54,2.31,2.62,1.85,5.54,5.38,4.00,4.00,5.23,,,,,,,,,,,,,,
1799999990086880974,2027-01-15T07:59:50.086880974Z,0.31,-0.62,2.62,3.38,0.15,3.38,2.31,2.00,2.00,5.54,3.85,2.46,2.77,6.62,,,,,,,,,,,,,,
1799999990095569071,2027-01-15T07:59:50.095569071Z,-0.15,-0.62,2.62,2.31,-1.69,2.31,0.77,2.00,2.92,4.46,3.85,2.62,4.62,6.62,,,,,,,,,,,,,,
1799999990104257168,2027-01-15T07:59:50.104257168Z,1.23,-0.77,3.08,2.62,-0.15,-0.46,0.31,1.38,3.38,3.69,5.23,3.23,9.08,5.69,,,,,,,,,,,,,,
1799999990112945265,2027-01-15T07:59:50.112945265Z,-1.23,-1.38,1.85,1.38,0.31,0.77,2.00,0.77,3.08,3.85,4.46,3.54,8.77,5.38,,,,,,,,,,,,,,
1799999990121633363,2027-01-15T07:59:50.121633363Z,2.62,-2.31,0.92,0.15,0.15,1.85,2.46,1.69,2.92,4.00,3.69,4.15,6.77,5.54,,,,,,,,,,,,,,
1799999990130321460,2027-01-15T07:59:50.130321460Z,-3.23,-2.77,-0.15,0.00,-0.92,1.69,2.31,3.38,1.23,3.54,4.31,5.08,6.31,5.69,,,,,,,,,,,,,,
1799999990139009557,2027-01-15T07:59:50.139009557Z,-1.08,-1.38,-1.54,1.54,0.46,3.23,4.00,3.38,0.77,3.38,5.08,4.77,3.69,5.38,,,,,,,,,,,,,,
1799999990147697655,2027-01-15T07:59:50.147697655Z,-0.62,-1.23,-1.38,0.77,2.15,1.85,4.31,3.08,2.00,4.15,4.92,3.69,3.38,4.62,,,,,,,,,,,,,,
1799999990156385752,2027-01-15T07:59:50.156385752Z,-0.77,-1.08,-0.77,0.31,1.54,-0.77,3.08,4.00,2.31,4.15,4.00,3.54,4.00,3.69,,,,,,,,,,,,,,
1799999990165073849,2027-01-15T07:59:50.165073849Z,-3.85,-0.77,-1.54,0.77,-0.92,0.00,4.46,4.15,3.08,3.08,4.15,4.15,2.31,4.62,,,,,,,,,,,,,,
1799999990173761947,2027-01-15T07:59:50.173761947Z,-4.00,-2.46,-2.15,-1.38,-1.08,1.69,5.54,3.54,4.62,2.31,6.15,3.23,1.54,6.62,,,,,,,,,,,,,,
1799999990182450044,2027-01-15T07:59:50.182450044Z,-2.00,-4.46,-0.77,-2.77,1.38,0.77,3.08,3.08,4.46,1.85,7.69,2.46,2.62,6.92,,,,,,,,,,,,,,
1799999990191138141,2027-01-15T07:59:50.191138141Z,-2.31,-6.62,-0.62,-2.31,1.23,1.69,2.62,4.00,2.00,3.85,5.54,3.54,4.15,5.69,,,,,,,,,,,,,,
1799999990199826239,2027-01-15T07:59:50.199826239Z,-5.08,-6.15,-0.46,-2.46,0.62,2.46,1.38,5.08,1.54,4.92,3.38,4.15,4.15,4.77,,,,,,,,,,,,,,
1799999990208514336,2027-01-15T07:59:50.208514336Z,-4.31,-4.62,-0.15,-2.62,1.38,0.92,-2.15,5.08,2.77,3.85,0.62,3.85,4.00,3.54,,,,,,,,,,,,,,
1799999990217202433,2027-01-15T07:59:50.217202433Z,-6.15,-4.62,-1.85,-2.46,0.92,0.77,-2.62,4.46,2.15,3.69,0.46,3.69,4.77,2.15,,,,,,,,,,,,,,
1799999990225890530,2027-01-15T07:59:50.225890530Z,-6.77,-3.54,-2.46,-3.38,1.08,0.77,-0.62,4.46,1.54,2.92,2.46,4.46,3.54,2.31,,,,,,,,,,,,,,
1799999990234578628,2027-01-15T07:59:50.234578628Z,-7.54,-1.69,-1.08,-1.38,1.08,-0.46,0.77,3.85,3.38,2.46,4.00,3.85,2.77,4.62,,,,,,,,,,,,,,
1799999990243266725,2027-01-15T07:59:50.243266725Z,-7.38,-2.62,-1.38,1.23,-0.31,-0.92,0.31,1.69,4.31,3.85,3.69,2.31,4.92,6.46,,,,,,,,,,,,,,
1799999990251954822,2027-01-15T07:59:50.251954822Z,-7.38,-6.00,-3.54,1.08,-0.15,0.00,0.31,1.38,4.00,4.92,2.92,2.31,5.85,6.15,,,,,,,,,,,,,,
1799999990260642920,2027-01-15T07:59:50.260642920Z,-4.46,-6.00,-4.00,1.08,1.54,1.08,1.08,2.92,3.69,4.00,2.62,3.54,3.85,5.69,,,,,,,,,,,,,,
1799999990269331017,2027-01-15T07:59:50.269331017Z,-3.54,-4.92,-1.54,0.15,1.23,2.15,1.54,2.62,4.46,3.69,4.15,2.92,3.69,5.85,,,,,,,,,,,,,,
1799999990278019114,2027-01-15T07:59:50.278019114Z,-4.46,-2.31,-0.31,-0.77,0.46,2.00,1.38,3.38,4.62,4.00,4.46,2.77,4.46,5.23,,,,,,,,,,,,,,
1799999990286707212,2027-01-15T07:59:50.286707212Z,-3.38,0.46,0.00,-1.69,0.46,1.54,1.08,5.38,5.38,4.15,2.77,4.00,4.15,4.00,,,,,,,,,,,,,,
1799999990295395309,2027-01-15T07:59:50.295395309Z,-0.77,-0.46,-2.46,-1.69,1.23,0.92,1.38,3.54,6.15,3.69,2.31,3.69,4.92,4.15,,,,,,,,,,,,,,
1799999990304083406,2027-01-15T07:59:50.304083406Z,-0.92,-1.38,-2.77,-1.54,3.85,1.85,1.69,1.69,5.23,5.54,3.08,4.15,4.15,5.69,,,,,,,,,,,,,,
1799999990312771504,2027-01-15T07:59:50.312771504Z,-3.23,-2.62,-0.77,-1.08,4.92,4.15,1.23,3.08,2.31,6.62,3.08,6.46,4.15,4.92,,,,,,,,,,,,,,
1799999990321459601,2027-01-15T07:59:50.321459601Z,0.00,-3.23,0.62,-0.15,2.92,4.31,1.08,2.62,0.46,4.15,2.92,7.69,7.85,4.00,,,,,,,,,,,,,,
1799999990330147698,2027-01-15T07:59:50.330147698Z,0.31,-2.46,-0.77,0.00,1.23,3.38,2.92,0.77,0.77,2.31,3.85,6.00,10.00,5.38,,,,,,,,,,,,,,
1799999990338835795,2027-01-15T07:59:50.338835795Z,-1.38,-0.62,-2.62,-0.15,0.77,4.31,3.69,1.54,0.31,3.38,4.00,4.77,7.54,6.92,,,,,,,,,,,,,,
1799999990347523893,2027-01-15T07:59:50.347523893Z,2.31,0.77,-0.62,0.77,1.54,3.23,1.54,3.54,1.23,4.46,2.46,5.69,6.15,5.85,,,,,,,,,,,,,,
1799999990356211990,2027-01-15T07:59:50.356211990Z,0.31,0.46,0.46,1.54,2.00,2.15,1.85,3.69,0.62,4.15,2.77,5.69,6.77,4.77,,,,,,,,,,,,,,
1799999990364900087,2027-01-15T07:59:50.364900087Z,-0.31,0.31,0.77,2.15,2.92,1.08,2.77,4.31,0.00,3.69,4.15,5.38,7.23,5.08,,,,,,,,,,,,,,
1799999990373588185,2027-01-15T07:59:50.373588185Z,-2.31,0.62,1.23,1.85,3.38,-1.08,0.62,3.54,2.31,4.31,3.69,5.69,6.46,4.77,,,,,,,,,,,,,,
1799999990382276282,2027-01-15T07:59:50.382276282Z,3.23,-0.31,1.54,1.85,1.54,-1.23,-0.31,0.92,4.15,4.77,3.23,4.92,6.15,5.54,,,,,,,,,,,,,,
1799999990390964379,2027-01-15T07:59:50.390964379Z,0.92,0.15,-0.77,1.54,-0.46,1.08,0.00,0.00,4.31,3.69,3.54,5.23,6.62,7.38,,,,,,,,,,,,,,
1799999990399652477,2027-01-15T07:59:50.399652477Z,0.92,3.69,-1.85,0.62,1.23,2.92,-1.08,0.00,2.77,2.46,4.31,6.15,6.92,6.92,,,,,,,,,,,,,,
1799999990408340574,2027-01-15T07:59:50.408340574Z,1.08,3.54,0.46,1.08,3.85,3.08,-0.92,0.46,2.31,2.31,4.15,5.38,6.92,4.31,,,,,,,,,,,,,,
1799999990417028671,2027-01-15T07:59:50.417028671Z,0.62,1.08,2.62,2.77,3.38,2.31,0.15,1.38,4.15,2.62,3.54,4.15,5.08,3.69,,,,,,,,,,,,,,
1799999990425716769,2027-01-15T07:59:50.425716769Z,-1.08,1.54,0.77,0.62,1.54,2.31,0.46,1.69,3.69,2.15,5.23,3.08,4.15,5.08,,,,,,,,,,,,,,
1799999990434404866,2027-01-15T07:59:50.434404866Z,-1.38,1.54,-0.15,-0.62,0.92,2.46,1.23,0.77,3.23,2.31,6.00,2.77,3.08,5.23,,,,,,,,,,,,,,
1799999990443092963,2027-01-15T07:59:50.443092963Z,0.92,0.77,0.62,1.08,0.00,2.00,2.31,-0.77,2.15,2.15,3.69,2.77,-0.46,6.46,,,,,,,,,,,,,,
1799999990451781060,2027-01-15T07:59:50.451781060Z,1.38,1.08,-0.62,0.31,0.77,1.23,0.92,-1.54,2.00,2.31,2.31,4.31,1.54,7.54,,,,,,,,,,,,,,
1799999990460469158,2027-01-15T07:59:50.460469158Z,5.69,2.31,0.31,0.31,1.08,1.38,0.77,0.31,1.38,3.38,3.85,5.54,5.69,9.08,,,,,,,,,,,,,,
1799999990469157255,2027-01-15T07:59:50.469157255Z,3.38,2.92,2.46,0.62,-0.77,1.08,1.54,2.15,2.92,2.77,4.46,4.46,5.85,9.54,,,,,,,,,,,,,,
1799999990477845352,2027-01-15T07:59:50.477845352Z,2.92,2.77,3.38,-0.15,-1.38,0.92,1.69,1.23,3.85,1.38,3.38,3.38,5.08,8.00,,,,,,,,,,,,,,
1799999990486533450,2027-01-15T07:59:50.486533450Z,1.38,2.15,2.00,0.46,0.62,1.54,2.31,0.31,2.15,2.00,3.69,5.08,6.46,5.85,,,,,,,,,,,,,,
1799999990495221547,2027-01-15T07:59:50.495221547Z,0.62,0.62,1.08,1.08,2.00,1.08,3.23,1.54,1.38,2.31,4.31,7.08,7.23,3.69,,,,,,,,,,,,,,
1799999990503909644,2027-01-15T07:59:50.503909644Z,0.62,0.15,0.15,0.46,1.08,1.08,2.62,2.15,3.54,1.54,3.08,6.46,4.62,4.46,,,,,,,,,,,,,,
1799999990512597742,2027-01-15T07:59:50.512597742Z,0.77,0.46,0.15,2.00,1.08,1.23,3.69,3.38,4.46,1.69,4.00,5.54,4.00,5.23,,,,,,,,,,,,,,
1799999990521285839,2027-01-15T07:59:50.521285839Z,0.92,-0.77,-0.15,3.08,2.31,2.15,5.85,4.31,3.38,2.77,6.15,5.08,6.31,5.38,,,,,,,,,,,,,,
1799999990529973936,2027-01-15T07:59:50.529973936Z,-1.69,-1.54,0.00,0.92,2.46,2.31,5.38,2.92,3.08,3.69,5.69,4.15,5.69,6.31,,,,,,,,,,,,,,
1799999990538662034,2027-01-15T07:59:50.538662034Z,-4.00,0.62,-0.62,0.00,2.46,2.77,2.92,2.77,4.31,5.54,5.08,3.38,2.31,6.62,,,,,,,,,,,,,,
1799999990547350131,2027-01-15T07:59:50.547350131Z,-4.00,1.08,-0.77,0.77,2.00,2.15,1.54,3.69,4.92,5.08,4.00,2.77,2.77,4.77,,,,,,,,,,,,,,
1799999990556038228,2027-01-15T07:59:50.556038228Z,-3.08,-0.46,-0.31,1.08,0.77,2.62,2.62,2.92,3.38,2.92,2.77,3.08,5.69,2.77,,,,,,,,,,,,,,
1799999990564726325,2027-01-15T07:59:50.564726325Z,-3.08,-1.69,0.62,-0.31,0.46,2.92,3.54,1.54,0.92,2.92,3.54,4.31,6.92,2.00,,,,,,,,,,,,,,
1799999990573414423,2027-01-15T07:59:50.573414423Z,-2.00,-2.46,2.31,-0.62,0.31,1.54,2.00,2.31,2.15,3.08,5.38,4.77,7.08,3.85,,,,,,,,,,,,,,
1799999990582102520,2027-01-15T07:59:50.582102520Z,0.15,-3.08,2.31,-0.62,-0.62,2.00,1.23,3.08,3.23,2.92,5.38,4.46,7.54,4.77,,,,,,,,,,,,,,
1799999990590790617,2027-01-15T07:59:50.590790617Z,-3.69,-2.31,0.31,-0.46,-1.85,2.31,1.69,2.31,4.62,2.92,5.08,4.31,6.15,6.00,,,,,,,,,,,,,,
1799999990599478715,2027-01-15T07:59:50.599478715Z,-3.38,0.31,-0.31,1.69,0.31,1.08,1.08,1.85,2.92,3.85,3.85,3.38,2.31,7.38,,,,,,,,,,,,,,
1799999990608166812,2027-01-15T07:59:50.608166812Z,-3.54,0.15,0.77,2.77,1.54,2.15,2.77,3.85,3.38,4.31,1.54,3.54,2.62,6.15,,,,,,,,,,,,,,
1799999990616854909,2027-01-15T07:59:50.616854909Z,-0.77,-1.69,0.92,2.31,2.00,3.38,4.77,4.77,3.85,4.15,1.85,4.92,6.92,4.00,,,,,,,,,,,,,,
1799999990625543007,2027-01-15T07:59:50.625543007Z,-0.46,-2.77,0.15,1.23,2.46,1.23,4.15,3.69,3.23,2.92,2.77,5.69,8.62,4.31,,,,,,,,,,,,,,
1799999990634231104,2027-01-15T07:59:50.634231104Z,-2.92,-3.69,0.15,-0.31,1.69,-1.69,3.38,2.62,3.38,2.62,0.77,5.08,6.62,5.69,,,,,,,,,,,,,,
1799999990642919201,2027-01-15T07:59:50.642919201Z,-1.38,-4.31,0.31,-0.92,1.08,-0.92,4.46,2.00,3.85,3.69,0.92,4.92,6.77,4.92,,,,,,,,,,,,,,
1799999990651607299,2027-01-15T07:59:50.651607299Z,-2.00,-0.77,0.31,-0.62,1.23,1.23,4.00,2.46,5.23,2.92,3.69,4.77,4.15,4.77,,,,,,,,,,,,,,
1799999990660295396,2027-01-15T07:59:50.660295396Z,-3.23,0.31,0.46,-1.38,1.08,0.77,3.69,2.31,5.08,2.15,3.85,4.62,3.69,5.38,,,,,,,,,,,,,,
1799999990668983493,2027-01-15T07:59:50.668983493Z,-1.38,-2.00,0.46,-1.54,0.92,-1.08,2.00,2.00,2.62,2.92,2.77,4.62,2.77,6.31,,,,,,,,,,,,,,
1799999990677671590,2027-01-15T07:59:50.677671590Z,0.46,-4.46,-0.62,0.15,0.62,-0.46,1.54,2.15,1.54,3.23,3.69,4.46,2.92,5.54,,,,,,,,,,,,,,
1799999990686359688,2027-01-15T07:59:50.686359688Z,-0.15,-3.38,-1.38,-0.46,-0.92,0.62,1.38,1.69,2.31,3.54,3.69,4.46,2.15,6.15,,,,,,,,,,,,,,
1799999990695047785,2027-01-15T07:59:50.695047785Z,-2.62,-0.77,-0.77,-0.46,-0.77,-0.15,0.92,1.54,2.92,2.92,3.69,4.31,4.31,7.08,,,,,,,,,,,,,,
1799999990703735882,2027-01-15T07:59:50.703735882Z,-2.46,-0.46,-0.62,1.54,0.00,-0.77,0.77,2.15,3.54,2.15,4.15,4.15,5.23,6.15,,,,,,,,,,,,,,
1799999990712423980,2027-01-15T07:59:50.712423980Z,-1.54,-2.92,-1.54,2.15,-0.77,0.92,1.08,2.77,2.62,3.23,3.38,4.46,3.54,4.46,,,,,,,,,,,,,,
1799999990721112077,2027-01-15T07:59:50.721112077Z,-0.31,-3.08,-1.38,1.23,-0.62,2.00,1.54,3.23,1.38,4.62,3.38,4.31,4.31,3.54,,,,,,,,,,,,,,
1799999990729800174,2027-01-15T07:59:50.729800174Z,-0.15,-1.69,-0.15,0.15,0.46,2.77,3.08,2.15,2.77,4.92,4.62,3.69,5.23,4.92,,,,,,,,,,,,,,
1799999990738488272,2027-01-15T07:59:50.738488272Z,-1.38,-1.23,0.15,-0.46,1.08,2.92,2.92,1.85,3.08,3.54,4.15,4.46,5.08,5.54,,,,,,,,,,,,,,
1799999990747176369,2027-01-15T07:59:50.747176369Z,1.23,-0.77,0.46,-0.46,0.46,-0.15,1.23,2.31,2.00,1.08,2.62,6.00,6.15,6.31,,,,,,,,,,,,,,
1799999990755864466,2027-01-15T07:59:50.755864466Z,1.54,-0.31,1.54,0.31,-0.15,-2.46,1.69,2.00,2.62,0.15,2.62,5.38,7.38,5.54,,,,,,,,,,,,,,
1799999990764552563,2027-01-15T07:59:50.764552563Z,-0.77,-0.46,2.15,1.23,-0.31,0.00,3.08,2.31,3.23,1.69,2.62,4.62,5.69,5.38,,,,,,,,,,,,,,
1799999990773240661,2027-01-15T07:59:50.773240661Z,-0.15,0.15,1.08,2.15,-0.15,2.15,2.92,3.08,4.62,2.77,2.77,4.15,3.23,4.77,,,,,,,,,,,,,,
1799999990781928758,2027-01-15T07:59:50.781928758Z,-0.46,0.31,0.92,2.62,0.00,1.23,3.69,2.00,5.08,2.00,2.46,3.69,4.77,4.15,,,,,,,,,,,,,,
1799999990790616855,2027-01-15T07:59:50.790616855Z,-1.08,-0.62,1.54,2.15,0.46,0.46,5.54,1.69,3.08,1.08,1.69,3.69,7.69,4.77,,,,,,,,,,,,,,
1799999990799304953,2027-01-15T07:59:50.799304953Z,-0.31,-0.15,0.77,1.54,0.46,1.54,4.31,2.92,2.46,1.69,2.31,5.08,6.92,5.54,,,,,,,,,,,,,,
1799999990807993050,2027-01-15T07:59:50.807993050Z,-0.46,-1.38,0.15,-0.46,1.23,1.38,2.92,2.15,4.31,2.00,3.85,5.85,5.08,6.31,,,,,,,,,,,,,,
1799999990816681147,2027-01-15T07:59:50.816681147Z,-0.31,-0.31,-0.15,-0.62,0.92,0.77,3.08,2.00,3.23,1.85,3.54,5.69,3.38,5.69,,,,,,,,,,,,,,
1799999990825369245,2027-01-15T07:59:50.825369245Z,-2.31,2.15,-1.38,1.08,-1.23,0.31,3.08,2.77,1.08,2.62,2.62,5.08,1.54,3.38,,,,,,,,,,,,,,
1799999990834057342,2027-01-15T07:59:50.834057342Z,1.38,1.08,0.15,0.31,-2.31,1.23,1.08,4.31,1.85,3.69,4.15,4.92,3.08,2.31,,,,,,,,,,,,,,
1799999990842745439,2027-01-15T07:59:50.842745439Z,0.31,-0.15,0.77,-1.23,-1.23,2.62,0.62,2.00,2.00,5.23,4.77,3.85,6.00,3.85,,,,,,,,,,,,,,
1799999990851433537,2027-01-15T07:59:50.851433537Z,-0.15,-0.77,-1.85,-1.23,-0.31,2.31,1.38,0.92,2.92,5.85,3.85,3.54,5.38,5.85,,,,,,,,,,,,,,
1799999990860121634,2027-01-15T07:59:50.860121634Z,-0.31,-0.31,-2.77,0.62,-1.23,1.08,1.69,1.85,3.23,4.92,3.23,4.31,1.69,6.62,,,,,,,,,,,,,,
1799999990868809731,2027-01-15T07:59:50.868809731Z,0.31,-0.31,-1.23,1.38,-0.46,1.23,1.08,2.62,2.31,3.69,4.00,3.23,1.23,6.31,,,,,,,,,,,,,,
1799999990877497828,2027-01-15T07:59:50.877497828Z,-0.31,-1.23,0.00,0.46,1.23,1.85,-0.46,2.46,1.54,3.23,5.08,2.62,3.38,5.85,,,,,,,,,,,,,,
1799999990886185926,2027-01-15T07:59:50.886185926Z,0.46,-1.38,-0.31,0.15,1.08,-0.15,-0.46,2.77,1.69,4.31,6.31,4.46,2.46,4.92,,,,,,,,,,,,,,
1799999990894874023,2027-01-15T07:59:50.894874023Z,-0.46,-0.92,-1.23,1.23,0.62,-0.62,0.15,2.92,2.00,4.62,7.08,4.77,4.92,4.31,,,,,,,,,,,,,,
1799999990903562120,2027-01-15T07:59:50.903562120Z,-0.92,-1.38,-2.62,2.31,0.00,0.77,0.92,2.46,1.54,4.00,6.46,3.38,7.85,4.15,,,,,,,,,,,,,,
1799999990912250218,2027-01-15T07:59:50.912250218Z,-0.46,-2.15,-0.77,2.00,-0.92,-0.62,-0.15,2.46,1.69,4.15,2.77,4.62,4.77,5.08,,,,,,,,,,,,,,
1799999990920938315,2027-01-15T07:59:50.920938315Z,-0.31,-0.92,0.46,1.54,-0.62,-1.08,-0.46,2.92,2.92,4.00,2.31,6.15,3.23,5.69,,,,,,,,,,,,,,
1799999990929626412,2027-01-15T07:59:50.929626412Z,-0.46,0.62,-0.46,0.62,-1.38,1.69,1.08,3.23,3.08,2.77,4.31,5.23,4.46,6.46,,,,,,,,,,,,,,
1799999990938314510,2027-01-15T07:59:50.938314510Z,-1.69,1.69,-0.15,0.15,-0.46,3.23,2.15,1.85,1.23,2.31,3.23,3.38,2.62,6.62,,,,,,,,,,,,,,
1799999990947002607,2027-01-15T07:59:50.947002607Z,-1.54,2.46,1.23,0.92,1.85,3.23,1.69,0.00,1.23,3.54,2.00,3.54,0.62,4.92,,,,,,,,,,,,,,
1799999990955690704,2027-01-15T07:59:50.955690704Z,-1.08,3.23,1.69,1.38,2.15,4.62,1.08,0.46,4.31,4.46,2.77,4.46,3.08,4.46,,,,,,,,,,,,,,
1799999990964378802,2027-01-15T07:59:50.964378802Z,-1.85,0.00,0.92,-0.31,3.23,2.46,1.69,2.15,4.46,3.23,2.46,4.46,4.31,6.00,,,,,,,,,,,,,,
1799999990973066899,2027-01-15T07:59:50.973066899Z,-0.15,-1.85,0.46,-0.46,3.23,1.23,2.00,2.15,3.54,2.46,3.23,3.85,5.54,5.69,,,,,,,,,,,,,,
1799999990981754996,2027-01-15T07:59:50.981754996Z,0.15,-0.92,-0.92,1.23,-0.15,2.31,2.92,4.15,3.54,2.92,5.08,2.62,9.38,5.08,,,,,,,,,,,,,,
1799999990990443093,2027-01-15T07:59:50.990443093Z,-1.08,-2.31,-3.38,1.08,-1.23,3.23,3.54,4.62,3.23,2.46,4.77,3.23,7.69,5.85,,,,,,,,,,,,,,
1799999990999131191,2027-01-15T07:59:50.999131191Z,0.77,-2.15,-2.31,1.08,0.92,2.31,1.85,2.77,3.08,2.62,3.69,4.77,4.00,5.08,,,,,,,,,,,,,,
1799999991007819288,2027-01-15T07:59:51.007819288Z,0.15,-2.46,0.92,2.46,2.15,1.54,1.23,1.69,4.00,4.15,4.00,4.31,4.31,5.08,,,,,,,,,,,,,,
1799999991016507385,2027-01-15T07:59:51.016507385Z,-2.46,-2.15,0.62,2.15,1.69,1.08,2.92,1.38,3.85,4.15,3.85,3.38,6.15,5.69,,,,,,,,,,,,,,
1799999991025195483,2027-01-15T07:59:51.025195483Z,-2.15,-0.77,-1.38,-0.15,0.92,1.85,3.69,2.77,2.77,2.15,3.23,4.00,6.92,4.92,,,,,,,,,,,,,,
1799999991033883580,2027-01-15T07:59:51.033883580Z,-1.85,-1.85,-1.38,-0.62,-0.77,1.85,2.92,4.46,1.54,1.85,3.69,5.08,6.00,3.85,,,,,,,,,,,,,,
1799999991042571677,2027-01-15T07:59:51.042571677Z,-0.92,-2.46,-0.46,-1.38,2.00,-0.46,2.46,4.31,0.46,3.08,5.08,5.23,2.62,5.23,,,,,,,,,,,,,,
1799999991051259775,2027-01-15T07:59:51.051259775Z,-0.62,-1.38,0.77,-1.54,3.69,1.08,2.31,4.00,0.46,4.00,4.46,4.31,4.00,5.85,,,,,,,,,,,,,,
1799999991059947872,2027-01-15T07:59:51.059947872Z,-1.69,-1.38,1.69,0.15,2.92,3.08,3.23,3.85,1.54,4.92,2.00,3.54,9.08,4.15,,,,,,,,,,,,,,
1799999991068635969,2027-01-15T07:59:51.068635969Z,-2.15,-2.15,0.31,2.00,2.77,0.31,4.46,2.31,1.54,4.92,2.15,4.00,7.85,3.85,,,,,,,,,,,,,,
1799999991077324067,2027-01-15T07:59:51.077324067Z,-1.23,-0.92,-1.08,1.85,2.92,-0.62,4.46,1.54,0.92,4.46,4.46,3.69,4.00,3.54,,,,,,,,,,,,,,
1799999991086012164,2027-01-15T07:59:51.086012164Z,-1.38,-0.77,-1.54,-0.77,1.85,0.31,4.31,3.23,2.62,5.23,4.92,2.92,4.15,3.69,,,,,,,,,,,,,,
1799999991094700261,2027-01-15T07:59:51.094700261Z,-3.23,-2.15,-1.38,-1.69,0.46,-0.31,3.54,3.54,5.38,5.69,3.69,3.54,6.31,5.23,,,,,,,,,,,,,,
1799999991103388358,2027-01-15T07:59:51.103388358Z,0.31,-1.85,-1.08,0.62,-0.15,-0.92,2.31,0.77,6.00,4.92,3.54,4.46,7.54,6.15,,,,,,,,,,,,,,
1799999991112076456,2027-01-15T07:59:51.112076456Z,0.62,-0.31,0.46,1.38,1.54,-0.46,2.62,0.46,5.23,4.92,3.54,4.31,4.62,6.15,,,,,,,,,,,,,,
1799999991120764553,2027-01-15T07:59:51.120764553Z,-0.15,0.31,0.00,0.62,2.00,0.77,3.54,1.54,4.00,5.38,3.38,3.54,3.54,5.69,,,,,,,,,,,,,,
1799999991129452650,2027-01-15T07:59:51.129452650Z,-0.31,0.15,-2.77,0.15,1.69,2.31,3.69,2.77,2.31,6.00,3.38,3.69,2.31,4.15,,,,,,,,,,,,,,
1799999991138140748,2027-01-15T07:59:51.138140748Z,-0.15,-0.31,-3.38,0.77,2.31,3.23,2.00,2.62,2.92,4.77,3.23,5.08,5.38,4.31,,,,,,,,,,,,,,
1799999991146828845,2027-01-15T07:59:51.146828845Z,,-1.23,-1.54,1.38,1.85,3.08,2.00,3.38,4.77,4.62,4.31,6.31,4.92,4.92,,,,,,,,,,,,,,
1799999991155516942,2027-01-15T07:59:51.155516942Z,1.85,-0.62,-0.92,1.69,1.54,1.69,1.23,3.23,5.08,4.77,5.85,5.54,4.46,3.69,,,,,,,,,,,,,,
1799999991164205040,2027-01-15T07:59:51.164205040Z,0.46,0.15,-0.77,1.08,1.38,0.15,-0.77,3.38,4.15,4.00,5.38,3.54,5.85,2.77,,,,,,,,,,,,,,
1799999991172893137,2027-01-15T07:59:51.172893137Z,0.00,-0.77,0.92,0.00,0.62,0.62,-0.15,3.08,3.23,3.23,3.08,2.77,5.54,3.85,,,,,,,,,,,,,,
1799999991181581234,2027-01-15T07:59:51.181581234Z,-0.92,-1.69,1.38,-0.15,-0.15,1.54,1.54,1.23,3.08,2.77,2.15,3.38,3.85,4.15,,,,,,,,,,,,,,
1799999991190269332,2027-01-15T07:59:51.190269332Z,-0.77,-0.77,-0.77,-0.31,-0.15,2.77,2.77,2.46,1.54,3.54,3.85,4.46,4.00,4.00,,,,,,,,,,,,,,
1799999991198957429,2027-01-15T07:59:51.198957429Z,-0.31,-0.62,-0.31,-0.31,-0.46,3.23,2.77,3.08,1.23,4.62,4.77,4.62,4.46,4.15,,,,,,,,,,,,,,
1799999991207645526,2027-01-15T07:59:51.207645526Z,-1.54,0.00,0.31,1.23,-0.92,2.46,0.92,0.46,3.08,6.15,3.38,3.23,5.54,5.85,,,,,,,,,,,,,,
1799999991216333623,2027-01-15T07:59:51.216333623Z,-0.31,-1.54,-0.77,2.00,-0.92,0.62,1.23,-0.46,3.54,5.38,1.69,4.15,8.31,6.31,,,,,,,,,,,,,,
1799999991225021721,2027-01-15T07:59:51.225021721Z,-0.92,-0.62,0.92,0.31,-0.46,-0.46,2.31,0.46,2.31,4.92,2.31,6.15,8.77,5.85,,,,,,,,,,,,,,
1799999991233709818,2027-01-15T07:59:51.233709818Z,0.62,0.31,2.62,0.31,0.46,-0.92,0.62,0.15,1.08,5.23,4.77,5.38,6.92,5.38,,,,,,,,,,,,,,
1799999991242397915,2027-01-15T07:59:51.242397915Z,0.77,0.77,2.15,1.08,-0.77,-0.31,-1.23,0.00,0.92,6.62,5.85,4.00,6.92,6.15,,,,,,,,,,,,,,
1799999991251086013,2027-01-15T07:59:51.251086013Z,0.46,0.46,0.62,-0.46,-3.38,1.08,-0.62,1.23,0.77,6.46,5.69,4.15,6.31,6.31,,,,,,,,,,,,,,
1799999991259774110,2027-01-15T07:59:51.259774110Z,-1.54,1.54,-0.62,0.15,-2.62,2.31,0.15,1.38,-0.31,3.54,4.92,4.77,4.15,5.69,,,,,,,,,,,,,,
1799999991268462207,2027-01-15T07:59:51.268462207Z,0.62,0.62,-0.62,1.38,0.15,2.31,0.46,0.31,0.92,3.08,4.00,4.46,4.92,4.77,,,,,,,,,,,,,,
1799999991277150305,2027-01-15T07:59:51.277150305Z,0.77,-0.31,0.00,1.08,0.62,2.31,0.46,1.38,1.85,3.85,4.15,4.00,4.46,5.54,,,,,,,,,,,,,,
1799999991285838402,2027-01-15T07:59:51.285838402Z,1.69,0.31,1.85,0.46,-0.62,1.38,2.15,3.38,1.69,3.38,4.15,4.46,2.62,6.00,,,,,,,,,,,,,,
1799999991294526499,2027-01-15T07:59:51.294526499Z,1.54,-0.31,2.00,1.08,-0.31,1.54,3.85,3.69,2.31,4.46,3.69,5.38,5.23,4.31,,,,,,,,,,,,,,
1799999991303214597,2027-01-15T07:59:51.303214597Z,0.31,-0.46,0.15,1.08,1.08,3.69,2.92,3.85,3.69,3.54,4.77,4.15,8.46,3.08,,,,,,,,,,,,,,
1799999991311902694,2027-01-15T07:59:51.311902694Z,0.15,0.31,-1.23,0.62,1.85,4.62,0.77,4.46,4.77,2.31,4.15,3.23,6.77,4.00,,,,,,,,,,,,,,
1799999991320590791,2027-01-15T07:59:51.320590791Z,0.62,-0.31,-0.31,0.92,1.23,2.62,1.08,3.38,5.23,3.85,3.08,4.15,4.77,5.38,,,,,,,,,,,,,,
1799999991329278888,2027-01-15T07:59:51.329278888Z,0.15,-1.54,0.62,-0.15,1.23,0.62,2.92,2.00,4.31,4.31,3.85,4.92,6.31,5.85,,,,,,,,,,,,,,
1799999991337966986,2027-01-15T07:59:51.337966986Z,-1.23,-1.23,0.46,-1.23,1.85,-0.92,3.38,2.46,1.54,1.85,4.62,4.62,7.38,5.54,,,,,,,,,,,,,,
1799999991346655083,2027-01-15T07:59:51.346655083Z,-0.77,-1.08,0.15,0.46,2.00,-1.85,3.08,1.54,1.23,2.46,3.23,3.85,6.15,5.85,,,,,,,,,,,,,,
1799999991355343180,2027-01-15T07:59:51.355343180Z,-0.15,-0.92,-0.15,1.23,2.77,-1.08,2.62,1.54,2.31,3.38,2.62,3.38,4.46,6.00,,,,,,,,,,,,,,
1799999991364031278,2027-01-15T07:59:51.364031278Z,-2.46,-0.77,-1.69,1.38,3.08,0.77,2.46,4.15,4.77,4.92,4.31,2.92,2.46,5.85,,,,,,,,,,,,,,
1799999991372719375,2027-01-15T07:59:51.372719375Z,2.00,-0.62,-1.69,1.23,1.38,1.38,3.23,4.77,2.15,4.00,4.46,3.54,5.54,6.00,,,,,,,,,,,,,,
1799999991381407472,2027-01-15T07:59:51.381407472Z,-0.31,-0.46,-0.15,0.62,0.46,1.38,2.92,2.15,1.38,3.23,3.23,3.69,8.77,6.00,,,,,,,,,,,,,,
1799999991390095570,2027-01-15T07:59:51.390095570Z,-0.62,-1.69,0.00,-0.77,1.08,2.62,3.85,1.23,3.08,2.62,3.54,3.54,8.77,5.38,,,,,,,,,,,,,,
1799999991398783667,2027-01-15T07:59:51.398783667Z,2.31,-1.85,-0.77,-1.08,1.69,3.38,3.69,2.46,2.92,2.46,5.38,4.46,7.38,4.62,,,,,,,,,,,,,,
1799999991407471764,2027-01-15T07:59:51.407471764Z,1.23,-1.38,-0.62,0.00,2.92,2.62,1.08,2.77,2.15,2.15,5.38,5.23,6.31,4.62,,,,,,,,,,,,,,
1799999991416159861,2027-01-15T07:59:51.416159861Z,0.92,-1.23,0.62,0.62,3.08,1.38,0.46,1.69,3.69,2.62,4.00,4.92,5.38,5.69,,,,,,,,,,,,,,
1799999991424847959,2027-01-15T07:59:51.424847959Z,-2.15,-1.54,2.00,-0.77,1.08,0.77,2.92,3.54,4.00,3.69,3.23,4.77,5.69,5.38,,,,,,,,,,,,,,
1799999991433536056,2027-01-15T07:59:51.433536056Z,0.31,-0.31,0.92,-0.46,0.31,0.31,2.15,4.46,3.85,3.69,2.77,4.92,2.92,5.08,,,,,,,,,,,,,,
1799999991442224153,2027-01-15T07:59:51.442224153Z,0.15,1.08,-0.31,0.92,1.54,0.31,-0.31,2.15,3.38,3.08,3.08,4.92,-0.46,4.62,,,,,,,,,,,,,,
1799999991450912251,2027-01-15T07:59:51.450912251Z,-0.77,0.00,1.69,0.00,2.77,1.69,0.00,1.54,4.62,3.54,5.38,4.15,2.15,5.08,,,,,,,,,,,,,,
1799999991459600348,2027-01-15T07:59:51.459600348Z,-0.46,-0.77,0.92,0.46,1.54,1.38,1.38,2.92,3.69,3.38,5.69,4.31,6.15,4.31,,,,,,,,,,,,,,
1799999991468288445,2027-01-15T07:59:51.468288445Z,-0.46,-0.92,-1.38,2.00,-2.31,-1.08,2.46,3.23,2.92,2.62,4.31,3.85,4.92,5.08,,,,,,,,,,,,,,
1799999991476976543,2027-01-15T07:59:51.476976543Z,-2.00,-0.92,-0.15,2.77,-2.46,-0.77,1.69,3.08,4.00,2.62,5.23,2.92,1.85,6.62,,,,,,,,,,,,,,
1799999991485664640,2027-01-15T07:59:51.485664640Z,-1.85,-1.85,1.38,1.54,2.00,1.85,0.46,3.85,3.85,2.62,6.31,3.85,2.31,6.31,,,,,,,,,,,,,,
1799999991494352737,2027-01-15T07:59:51.494352737Z,0.62,-3.08,-0.46,0.00,4.15,2.62,0.46,3.38,2.92,2.31,4.77,5.38,3.69,5.08,,,,,,,,,,,,,,
1799999991503040835,2027-01-15T07:59:51.503040835Z,-0.15,-2.46,-0.46,-0.15,1.85,3.38,0.77,2.31,2.92,3.38,2.46,5.38,2.00,5.54,,,,,,,,,,,,,,
1799999991511728932,2027-01-15T07:59:51.511728932Z,1.23,-1.38,0.31,0.31,0.92,3.08,1.08,2.31,2.92,3.85,1.23,4.77,3.69,6.00,,,,,,,,,,,,,,
1799999991520417029,2027-01-15T07:59:51.520417029Z,-1.23,-0.46,0.92,1.23,2.00,0.77,1.54,1.69,3.54,2.92,1.54,4.15,6.31,5.85,,,,,,,,,,,,,,
1799999991529105126,2027-01-15T07:59:51.529105126Z,-1.23,-1.23,-1.23,1.08,2.92,0.92,2.00,2.46,3.85,2.92,3.85,3.85,4.46,5.85,,,,,,,,,,,,,,
1799999991537793224,2027-01-15T07:59:51.537793224Z,-2.00,-0.46,-1.23,0.46,1.69,2.46,3.69,3.23,3.69,3.69,5.08,4.62,6.00,5.69,,,,,,,,,,,,,,
1799999991546481321,2027-01-15T07:59:51.546481321Z,-1.85,1.23,0.00,0.62,-0.15,2.46,3.38,3.08,3.38,4.77,3.85,4.92,8.15,4.77,,,,,,,,,,,,,,
1799999991555169418,2027-01-15T07:59:51.555169418Z,0.46,0.92,-0.15,1.08,0.15,1.54,0.92,1.85,1.54,4.15,2.15,5.08,7.38,4.77,,,,,,,,,,,,,,
1799999991563857516,2027-01-15T07:59:51.563857516Z,0.62,-0.31,-1.08,0.46,0.77,2.15,0.62,1.69,0.62,3.08,2.15,5.38,6.62,6.62,,,,,,,,,,,,,,
1799999991572545613,2027-01-15T07:59:51.572545613Z,-1.85,-1.08,-1.23,-0.46,0.31,3.69,2.31,2.46,3.54,4.00,3.23,4.46,5.38,6.00,,,,,,,,,,,,,,
1799999991581233710,2027-01-15T07:59:51.581233710Z,1.08,-0.92,0.15,0.46,0.15,2.92,2.46,1.38,5.38,2.92,3.54,3.23,5.54,2.77,,,,,,,,,,,,,,
1799999991589921808,2027-01-15T07:59:51.589921808Z,-0.46,0.46,1.23,2.15,0.92,4.31,1.69,1.69,4.15,2.00,4.00,4.15,5.38,3.69,,,,,,,,,,,,,,
1799999991598609905,2027-01-15T07:59:51.598609905Z,-1.23,0.92,0.92,2.92,2.15,5.85,1.08,3.69,0.62,1.38,4.15,5.38,4.77,6.46,,,,,,,,,,,,,,
1799999991607298002,2027-01-15T07:59:51.607298002Z,-1.23,-0.46,-0.46,0.46,2.15,2.31,1.54,4.77,0.15,2.62,2.92,3.85,6.46,5.85,,,,,,,,,,,,,,
1799999991615986100,2027-01-15T07:59:51.615986100Z,0.92,0.46,-1.69,-0.62,0.46,-0.77,1.69,4.77,3.38,4.00,3.54,2.77,4.62,6.62,,,,,,,,,,,,,,
1799999991624674197,2027-01-15T07:59:51.624674197Z,1.08,0.15,-1.23,1.08,-1.38,-0.15,1.54,2.77,5.85,3.23,5.08,4.00,1.23,6.31,,,,,,,,,,,,,,
1799999991633362294,2027-01-15T07:59:51.633362294Z,0.00,-0.92,-0.15,1.69,-2.46,1.23,0.92,0.31,3.23,2.00,4.62,6.00,3.23,3.85,,,,,,,,,,,,,,
1799999991642050391,2027-01-15T07:59:51.642050391Z,0.31,0.31,0.77,1.23,-2.46,1.38,0.00,-0.15,0.62,3.69,3.23,6.00,6.62,2.31,,,,,,,,,,,,,,
1799999991650738489,2027-01-15T07:59:51.650738489Z,-1.85,0.62,2.15,3.38,-1.23,2.15,0.31,1.54,2.92,3.54,1.69,5.23,5.85,4.15,,,,,,,,,,,,,,
1799999991659426586,2027-01-15T07:59:51.659426586Z,-2.00,-0.62,1.85,2.92,0.31,2.62,0.92,2.15,3.08,3.38,1.38,4.31,5.38,5.38,,,,,,,,,,,,,,
1799999991668114683,2027-01-15T07:59:51.668114683Z,-0.15,-2.31,-0.92,-0.31,2.46,1.69,0.92,3.23,0.92,4.15,2.46,2.62,5.54,4.62,,,,,,,,,,,,,,
1799999991676802781,2027-01-15T07:59:51.676802781Z,0.00,-1.23,-0.62,-0.46,2.00,1.54,2.00,2.46,0.92,4.00,2.62,3.23,4.15,5.54,,,,,,,,,,,,,,
1799999991685490878,2027-01-15T07:59:51.685490878Z,-0.62,0.77,0.77,1.08,-0.62,2.92,2.77,0.77,1.08,2.92,2.31,4.62,4.77,6.77,,,,,,,,,,,,,,
1799999991694178975,2027-01-15T07:59:51.694178975Z,0.77,0.31,-0.15,-0.15,-1.08,4.00,2.15,1.23,2.77,3.54,3.69,4.31,5.85,6.62,,,,,,,,,,,,,,
1799999991702867073,2027-01-15T07:59:51.702867073Z,0.62,-0.77,-0.92,-2.00,0.31,3.23,1.23,1.85,4.62,3.23,4.46,3.54,4.92,5.54,,,,,,,,,,,,,,
1799999991711555170,2027-01-15T07:59:51.711555170Z,-1.69,0.31,0.15,-1.54,0.00,2.31,1.69,0.62,3.54,2.77,3.08,4.31,3.85,5.69,,,,,,,,,,,,,,
1799999991720243267,2027-01-15T07:59:51.720243267Z,-1.23,0.92,0.00,0.77,-0.92,2.00,2.46,-0.77,1.85,3.69,2.15,5.69,4.46,6.77,,,,,,,,,,,,,,
1799999991728931365,2027-01-15T07:59:51.728931365Z,0.62,-1.69,-2.00,1.54,0.00,2.46,1.38,1.08,3.23,3.69,2.15,6.46,3.54,6.31,,,,,,,,,,,,,,
1799999991737619462,2027-01-15T07:59:51.737619462Z,-0.46,-1.85,-0.92,1.69,0.77,1.23,2.31,2.31,3.38,3.23,1.69,6.31,3.38,5.38,,,,,,,,,,,,,,
1799999991746307559,2027-01-15T07:59:51.746307559Z,1.23,0.77,1.54,2.31,1.54,-1.23,5.38,2.15,2.15,3.54,1.38,5.38,3.85,4.31,,,,,,,,,,,,,,
1799999991754995656,2027-01-15T07:59:51.754995656Z,-1.23,1.69,0.92,1.69,0.62,-1.23,4.77,2.00,3.08,4.00,3.85,4.92,4.15,4.46,,,,,,,,,,,,,,
1799999991763683754,2027-01-15T07:59:51.763683754Z,0.92,0.92,-0.46,0.92,1.38,1.38,2.92,1.85,3.38,3.85,4.92,6.00,1.69,5.23,,,,,,,,,,,,,,
1799999991772371851,2027-01-15T07:59:51.772371851Z,0.77,0.31,-0.31,0.15,1.54,3.38,3.54,0.31,3.08,2.15,4.15,6.31,2.00,6.00,,,,,,,,,,,,,,
1799999991781059948,2027-01-15T07:59:51.781059948Z,-1.38,0.77,0.46,0.00,1.54,2.92,3.54,0.00,3.69,1.38,3.54,4.62,6.62,6.62,,,,,,,,,,,,,,
1799999991789748046,2027-01-15T07:59:51.789748046Z,-0.92,-0.31,0.15,1.54,2.46,2.77,2.62,1.85,3.23,3.69,3.38,3.08,8.77,6.46,,,,,,,,,,,,,,
1799999991798436143,2027-01-15T07:59:51.798436143Z,-0.46,-0.62,-0.77,2.92,2.46,3.23,3.23,2.92,2.15,5.23,3.85,3.69,6.31,6.00,,,,,,,,,,,,,,
1799999991807124240,2027-01-15T07:59:51.807124240Z,-1.38,-1.08,-0.46,1.38,2.46,2.31,3.38,3.08,1.08,4.00,4.62,4.77,6.15,7.23,,,,,,,,,,,,,,
1799999991815812338,2027-01-15T07:59:51.815812338Z,0.77,0.15,0.31,0.62,2.31,1.85,3.23,3.23,1.54,2.62,4.15,4.62,7.08,7.54,,,,,,,,,,,,,,
1799999991824500435,2027-01-15T07:59:51.824500435Z,0.77,2.00,1.38,1.23,1.38,0.00,2.77,3.08,3.85,1.85,4.31,3.85,6.62,6.62,,,,,,,,,,,,,,
1799999991833188532,2027-01-15T07:59:51.833188532Z,-1.85,1.23,0.46,1.23,0.46,-0.31,2.31,2.92,4.77,2.62,6.31,4.00,6.31,5.08,,,,,,,,,,,,,,
1799999991841876630,2027-01-15T07:59:51.841876630Z,-2.00,0.15,-0.46,2.00,0.31,2.00,2.15,2.62,3.23,3.54,6.92,3.54,6.92,4.46,,,,,,,,,,,,,,
1799999991850564727,2027-01-15T07:59:51.850564727Z,0.77,0.15,-1.38,1.38,1.08,3.08,2.00,2.77,2.15,4.31,5.23,3.23,6.46,4.00,,,,,,,,,,,,,,
1799999991859252824,2027-01-15T07:59:51.859252824Z,0.62,-1.38,-0.46,0.46,0.92,0.31,1.85,3.08,2.77,4.92,3.69,3.69,5.08,3.85,,,,,,,,,,,,,,
1799999991867940921,2027-01-15T07:59:51.867940921Z,-0.15,-5.08,2.00,0.15,0.92,-0.77,1.85,2.00,3.69,3.69,2.77,4.62,4.31,4.46,,,,,,,,,,,,,,
1799999991876629019,2027-01-15T07:59:51.876629019Z,0.92,-4.77,2.77,-0.62,1.69,1.85,1.23,0.77,3.38,1.38,3.23,5.69,5.85,5.23,,,,,,,,,,,,,,
1799999991885317116,2027-01-15T07:59:51.885317116Z,1.85,-0.62,0.46,-0.15,0.31,2.00,1.85,3.08,1.85,1.54,4.62,5.69,7.23,4.46,,,,,,,,,,,,,,
1799999991894005213,2027-01-15T07:59:51.894005213Z,-1.69,0.62,-0.31,0.00,0.77,2.62,2.31,2.46,2.00,2.31,4.31,5.23,6.00,4.00,,,,,,,,,,,,,,
1799999991902693311,2027-01-15T07:59:51.902693311Z,-4.00,-0.92,0.62,-0.15,2.62,3.69,2.00,-0.46,2.77,3.38,3.54,4.46,4.31,4.62,,,,,,,,,,,,,,
1799999991911381408,2027-01-15T07:59:51.911381408Z,-2.00,-2.77,0.15,-0.15,1.23,0.77,1.69,0.77,2.46,2.77,4.46,5.38,6.31,6.15,,,,,,,,,,,,,,
1799999991920069505,2027-01-15T07:59:51.920069505Z,-1.69,-2.92,-0.46,0.77,0.31,-0.62,0.92,2.31,3.08,3.85,4.46,4.92,6.31,6.15,,,,,,,,,,,,,,
1799999991928757603,2027-01-15T07:59:51.928757603Z,-2.77,-0.31,-0.31,0.62,1.08,0.00,0.15,2.00,3.38,5.69,4.15,4.46,3.54,5.38,,,,,,,,,,,,,,
1799999991937445700,2027-01-15T07:59:51.937445700Z,0.15,1.69,0.92,0.00,1.85,-0.92,0.15,1.23,3.08,5.08,5.23,4.77,2.77,5.69,,,,,,,,,,,,,,
1799999991946133797,2027-01-15T07:59:51.946133797Z,0.77,0.62,2.00,0.62,3.08,-0.15,0.92,0.92,4.00,2.92,5.69,4.62,4.92,5.85,,,,,,,,,,,,,,
1799999991954821895,2027-01-15T07:59:51.954821895Z,-0.62,0.62,1.54,1.69,3.38,0.92,2.00,2.15,5.38,2.46,4.77,3.69,5.23,5.38,,,,,,,,,,,,,,
1799999991963509992,2027-01-15T07:59:51.963509992Z,-2.00,0.00,-0.46,0.92,2.31,0.31,3.08,3.08,3.08,2.62,4.15,2.92,4.62,3.54,,,,,,,,,,,,,,
1799999991972198089,2027-01-15T07:59:51.972198089Z,-2.00,-0.31,-1.23,0.92,1.54,0.46,2.46,2.92,1.85,2.46,4.15,2.92,4.62,2.92,,,,,,,,,,,,,,
1799999991980886186,2027-01-15T07:59:51.980886186Z,0.92,-1.85,-0.31,1.69,1.54,0.77,1.23,2.46,1.23,2.62,3.38,3.08,4.31,3.08,,,,,,,,,,,,,,
1799999991989574284,2027-01-15T07:59:51.989574284Z,0.62,-0.15,0.15,0.62,1.38,0.00,2.15,2.00,1.38,3.85,3.23,2.92,4.00,6.15,,,,,,,,,,,,,,
1799999991998262381,2027-01-15T07:59:51.998262381Z,0.31,-0.62,-0.62,-0.15,1.23,-0.15,3.54,1.08,0.46,3.54,2.92,3.08,4.92,6.77,,,,,,,,,,,,,,
1799999992006950478,2027-01-15T07:59:52.006950478Z,0.31,-2.31,-0.92,0.15,1.38,-1.23,4.15,0.77,2.00,3.38,2.62,2.77,4.31,5.54,,,,,,,,,,,,,,
1799999992015638576,2027-01-15T07:59:52.015638576Z,-1.85,-1.54,0.15,1.54,1.08,-1.08,3.38,-0.62,4.31,4.31,3.54,3.08,3.23,5.23,,,,,,,,,,,,,,
1799999992024326673,2027-01-15T07:59:52.024326673Z,-3.08,0.62,-0.62,1.38,1.08,0.92,2.62,-1.54,4.00,5.08,4.77,3.85,3.69,5.69,,,,,,,,,,,,,,
1799999992033014770,2027-01-15T07:59:52.033014770Z,-1.54,-0.15,-2.31,-0.92,1.85,1.54,2.77,0.31,2.77,4.92,4.92,3.38,3.85,5.54,,,,,,,,,,,,,,
1799999992041702868,2027-01-15T07:59:52.041702868Z,1.54,-3.08,-0.92,-2.00,0.62,-0.31,1.85,2.00,2.46,3.54,3.69,3.85,4.00,5.08,,,,,,,,,,,,,,
1799999992050390965,2027-01-15T07:59:52.050390965Z,0.00,-2.15,0.46,-1.38,-0.31,-0.15,0.77,1.69,1.69,3.23,3.08,3.38,4.46,5.54,,,,,,,,,,,,,,
1799999992059079062,2027-01-15T07:59:52.059079062Z,-1.54,0.62,0.62,-1.08,-0.15,1.23,0.46,1.23,1.85,3.54,2.77,2.92,5.54,6.00,,,,,,,,,,,,,,
1799999992067767159,2027-01-15T07:59:52.067767159Z,-2.62,0.31,-0.77,-1.08,-0.77,1.54,2.15,2.00,3.85,1.85,2.46,4.62,6.15,4.92,,,,,,,,,,,,,,
1799999992076455257,2027-01-15T07:59:52.076455257Z,-1.85,-0.31,-0.15,-0.31,0.00,2.00,2.77,2.46,4.15,1.38,1.54,6.15,4.77,3.85,,,,,,,,,,,,,,
1799999992085143354,2027-01-15T07:59:52.085143354Z,-1.23,-0.62,1.08,0.46,1.08,1.69,0.46,2.62,3.85,4.00,3.08,5.69,3.85,4.77,,,,,,,,,,,,,,
1799999992093831451,2027-01-15T07:59:52.093831451Z,-0.46,-1.38,1.08,0.92,0.77,1.23,-0.46,2.31,4.15,5.69,6.77,4.77,5.08,6.46,,,,,,,,,,,,,,
1799999992102519549,2027-01-15T07:59:52.102519549Z,-0.62,-0.92,0.31,0.46,0.31,2.00,2.77,1.23,2.77,4.00,7.85,4.92,6.15,5.54,,,,,,,,,,,,,,
1799999992111207646,2027-01-15T07:59:52.111207646Z,-1.08,0.62,0.46,0.46,0.15,3.69,0.92,2.00,2.15,2.15,4.77,5.38,4.46,5.08,,,,,,,,,,,,,,
1799999992119895743,2027-01-15T07:59:52.119895743Z,-2.00,0.15,0.46,0.46,-0.15,3.69,-0.77,2.77,2.00,1.85,3.38,5.08,3.54,5.54,,,,,,,,,,,,,,
1799999992128583841,2027-01-15T07:59:52.128583841Z,-2.00,-0.46,0.62,0.31,-0.31,3.23,1.85,2.62,1.08,3.23,3.23,4.00,2.77,6.31,,,,,,,,,,,,,,
1799999992137271938,2027-01-15T07:59:52.137271938Z,0.31,1.54,0.15,0.31,0.15,3.08,4.31,3.69,1.69,3.54,2.46,2.92,3.54,4.62,,,,,,,,,,,,,,
1799999992145960035,2027-01-15T07:59:52.145960035Z,0.62,2.62,0.46,0.00,0.31,0.77,2.92,4.46,3.23,2.46,3.08,2.62,3.23,4.92,,,,,,,,,,,,,,
1799999992154648133,2027-01-15T07:59:52.154648133Z,-0.92,1.08,0.00,-0.92,-0.15,1.38,1.54,2.92,4.46,2.92,3.38,4.31,3.69,4.46,,,,,,,,,,,,,,
1799999992163336230,2027-01-15T07:59:52.163336230Z,-1.23,-2.46,-1.38,-1.08,-0.46,2.31,1.38,1.08,3.08,4.46,2.77,5.38,4.62,4.92,,,,,,,,,,,,,,
1799999992172024327,2027-01-15T07:59:52.172024327Z,0.62,-2.46,-1.08,-0.31,-0.62,-0.31,0.77,2.31,0.77,4.15,2.77,4.00,5.08,6.77,,,,,,,,,,,,,,
1799999992180712424,2027-01-15T07:59:52.180712424Z,0.15,0.62,1.23,-0.31,-0.15,-1.23,0.15,3.38,0.92,3.23,3.08,2.31,4.62,5.08,,,,,,,,,,,,,,
1799999992189400522,2027-01-15T07:59:52.189400522Z,0.00,-0.77,0.92,-1.54,0.46,1.54,1.38,1.54,3.08,4.15,3.38,3.54,4.46,4.15,,,,,,,,,,,,,,
1799999992198088619,2027-01-15T07:59:52.198088619Z,1.23,-1.38,0.00,-1.23,0.31,2.46,2.62,2.31,4.46,4.92,3.08,4.46,4.62,4.62,,,,,,,,,,,,,,
1799999992206776716,2027-01-15T07:59:52.206776716Z,0.46,-1.08,-0.92,0.77,0.31,0.77,3.69,4.31,3.85,5.08,3.38,4.31,4.77,6.92,,,,,,,,,,,,,,
1799999992215464814,2027-01-15T07:59:52.215464814Z,0.46,-2.46,-2.92,1.54,0.31,-0.31,3.08,3.08,1.54,4.15,4.31,4.00,5.38,5.38,,,,,,,,,,,,,,
1799999992224152911,2027-01-15T07:59:52.224152911Z,-0.62,-1.85,-2.15,2.31,-0.15,1.38,2.00,2.46,2.15,2.46,4.62,4.15,5.85,4.77,,,,,,,,,,,,,,
1799999992232841008,2027-01-15T07:59:52.232841008Z,1.23,-1.54,0.15,2.15,0.62,4.31,1.69,3.23,4.15,0.92,4.15,4.92,5.38,5.38,,,,,,,,,,,,,,
1799999992241529106,2027-01-15T07:59:52.241529106Z,-0.92,-2.00,0.46,-0.15,0.77,3.85,1.54,2.77,3.85,1.08,4.15,5.38,4.77,6.31,,,,,,,,,,,,,,
1799999992250217203,2027-01-15T07:59:52.250217203Z,-1.54,-1.54,-0.31,-0.92,-0.15,1.69,1.23,2.31,3.85,2.62,4.00,4.77,4.77,5.23,,,,,,,,,,,,,,
1799999992258905300,2027-01-15T07:59:52.258905300Z,-2.77,-0.92,0.31,1.69,-0.62,0.15,2.00,2.92,4.62,3.38,3.85,4.92,4.46,3.69,,,,,,,,,,,,,,
1799999992267593398,2027-01-15T07:59:52.267593398Z,-1.38,0.00,-0.31,1.69,-0.31,1.08,3.54,3.69,3.38,2.62,3.54,4.62,3.54,4.31,,,,,,,,,,,,,,
1799999992276281495,2027-01-15T07:59:52.276281495Z,0.00,1.08,-0.92,0.46,-0.15,1.54,2.92,3.85,2.62,3.54,3.23,4.46,2.31,4.31,,,,,,,,,,,,,,
1799999992284969592,2027-01-15T07:59:52.284969592Z,-1.23,1.69,0.31,0.46,0.00,0.00,2.00,3.85,3.54,3.69,3.38,4.31,0.92,3.38,,,,,,,,,,,,,,
1799999992293657689,2027-01-15T07:59:52.293657689Z,1.38,-1.38,0.31,-0.62,-0.15,-0.62,3.54,3.38,4.15,1.38,3.38,5.85,1.69,3.38,,,,,,,,,,,,,,
1799999992302345787,2027-01-15T07:59:52.302345787Z,-0.15,-1.38,-0.31,-0.46,0.92,1.54,4.15,3.08,3.69,0.92,2.00,4.46,1.38,4.15,,,,,,,,,,,,,,
1799999992311033884,2027-01-15T07:59:52.311033884Z,-0.31,-0.92,1.23,0.46,1.23,2.92,3.23,2.92,2.31,2.62,1.54,3.38,2.62,5.85,,,,,,,,,,,,,,
1799999992319721981,2027-01-15T07:59:52.319721981Z,-1.69,-2.00,2.15,1.08,0.31,2.31,2.62,3.23,0.62,3.69,3.08,4.77,4.31,6.62,,,,,,,,,,,,,,
1799999992328410079,2027-01-15T07:59:52.328410079Z,-2.77,-3.23,-0.31,1.38,0.31,2.77,3.38,4.46,0.92,3.08,4.46,5.85,5.23,6.31,,,,,,,,,,,,,,
1799999992337098176,2027-01-15T07:59:52.337098176Z,1.54,-2.00,-2.77,2.46,1.38,3.23,4.46,4.77,2.31,1.69,4.62,5.69,6.00,7.23,,,,,,,,,,,,,,
1799999992345786273,2027-01-15T07:59:52.345786273Z,0.92,-0.62,-1.38,1.54,1.69,1.85,3.54,1.38,2.62,1.54,4.46,6.31,5.69,6.62,,,,,,,,,,,,,,
1799999992354474371,2027-01-15T07:59:52.354474371Z,0.46,-0.77,-0.31,1.23,1.54,1.23,3.23,0.15,2.00,2.00,4.46,6.00,5.69,5.69,,,,,,,,,,,,,,
1799999992363162468,2027-01-15T07:59:52.363162468Z,-1.38,-0.46,0.31,0.92,1.85,1.54,2.46,1.54,1.08,2.92,4.00,4.62,5.54,5.85,,,,,,,,,,,,,,
1799999992371850565,2027-01-15T07:59:52.371850565Z,0.46,-1.08,-1.08,1.85,1.23,1.69,1.54,2.15,1.54,4.00,4.00,3.69,5.23,6.31,,,,,,,,,,,,,,
1799999992380538663,2027-01-15T07:59:52.380538663Z,-0.62,-1.69,-1.08,1.23,-0.15,1.08,0.77,0.77,3.38,4.77,4.92,4.31,6.92,6.92,,,,,,,,,,,,,,
1799999992389226760,2027-01-15T07:59:52.389226760Z,-1.08,-1.38,-0.92,0.15,-0.31,0.15,1.85,1.85,4.00,5.08,6.31,5.08,7.38,6.00,,,,,,,,,,,,,,
1799999992397914857,2027-01-15T07:59:52.397914857Z,-0.92,0.15,-0.31,0.00,1.23,0.15,2.15,3.08,2.92,4.00,8.46,4.62,6.31,4.62,,,,,,,,,,,,,,
1799999992406602954,2027-01-15T07:59:52.406602954Z,-0.15,-0.15,0.77,2.00,3.08,0.77,1.38,2.31,2.62,3.08,8.46,4.62,7.08,4.31,,,,,,,,,,,,,,
1799999992415291052,2027-01-15T07:59:52.415291052Z,-0.46,-0.46,1.38,3.08,2.92,0.46,2.00,2.15,2.46,4.62,4.46,5.54,6.92,4.46,,,,,,,,,,,,,,
1799999992423979149,2027-01-15T07:59:52.423979149Z,0.00,1.69,-0.31,1.38,2.92,0.46,2.15,3.69,1.38,6.15,3.23,5.23,4.62,4.92,,,,,,,,,,,,,,
1799999992432667246,2027-01-15T07:59:52.432667246Z,0.46,0.15,-1.08,2.31,1.38,0.15,2.31,2.00,1.38,5.38,3.69,5.23,2.15,5.23,,,,,,,,,,,,,,
1799999992441355344,2027-01-15T07:59:52.441355344Z,-1.08,-3.54,-1.54,2.77,-2.00,0.46,2.92,0.15,3.08,4.62,3.54,5.23,0.77,6.15,,,,,,,,,,,,,,
1799999992450043441,2027-01-15T07:59:52.450043441Z,-0.31,-2.62,-1.38,1.85,-0.62,1.69,2.00,2.15,5.38,6.15,5.38,3.69,4.00,6.00,,,,,,,,,,,,,,
1799999992458731538,2027-01-15T07:59:52.458731538Z,-0.15,-0.62,-1.69,4.15,2.62,1.38,1.69,2.62,5.69,4.92,6.62,3.23,8.46,5.23,,,,,,,,,,,,,,
1799999992467419636,2027-01-15T07:59:52.467419636Z,-0.62,0.46,-2.15,2.00,2.31,3.08,2.62,1.08,4.31,3.08,4.62,4.31,8.00,4.15,,,,,,,,,,,,,,
1799999992476107733,2027-01-15T07:59:52.476107733Z,-0.77,1.08,-0.46,-2.00,1.08,5.23,2.15,0.46,4.00,3.54,2.77,3.69,5.85,2.92,,,,,,,,,,,,,,
1799999992484795830,2027-01-15T07:59:52.484795830Z,-0.46,-0.15,1.54,-1.69,1.08,4.00,0.77,1.85,3.69,4.46,2.62,3.08,6.00,2.46,,,,,,,,,,,,,,
1799999992493483928,2027-01-15T07:59:52.493483928Z,-1.69,-1.85,0.92,0.15,0.31,0.77,1.54,3.38,2.77,4.00,1.85,4.92,5.69,4.00,,,,,,,,,,,,,,
1799999992502172025,2027-01-15T07:59:52.502172025Z,0.15,-1.38,0.77,1.54,0.92,-1.23,2.15,2.15,2.00,3.23,3.54,4.00,6.46,5.69,,,,,,,,,,,,,,
1799999992510860122,2027-01-15T07:59:52.510860122Z,0.31,-1.38,1.08,1.54,1.38,-1.38,2.00,0.92,2.15,3.38,4.46,2.77,7.23,6.00,,,,,,,,,,,,,,
1799999992519548219,2027-01-15T07:59:52.519548219Z,-0.62,0.31,0.15,-0.46,1.85,-2.15,2.00,1.38,3.38,3.54,5.54,3.85,6.31,5.69,,,,,,,,,,,,,,
1799999992528236317,2027-01-15T07:59:52.528236317Z,-0.31,1.85,-0.77,-0.62,2.15,-1.54,1.08,0.77,4.00,3.69,3.69,3.54,6.77,6.00,,,,,,,,,,,,,,
1799999992536924414,2027-01-15T07:59:52.536924414Z,2.62,1.54,2.00,2.15,1.38,0.31,0.62,1.54,3.08,5.08,2.77,3.38,7.23,6.31,,,,,,,,,,,,,,
1799999992545612511,2027-01-15T07:59:52.545612511Z,3.23,-0.77,2.62,1.85,0.15,1.85,2.46,3.08,3.23,5.85,2.62,3.38,6.31,6.31,,,,,,,,,,,,,,
1799999992554300609,2027-01-15T07:59:52.554300609Z,-1.23,-2.46,0.62,0.92,-0.92,1.54,3.85,2.31,3.85,5.08,1.85,2.92,5.08,6.46,,,,,,,,,,,,,,
1799999992562988706,2027-01-15T07:59:52.562988706Z,-0.62,-2.00,0.00,2.15,-0.92,0.92,4.31,1.54,4.31,4.31,1.85,4.00,4.00,5.54,,,,,,,,,,,,,,
1799999992571676803,2027-01-15T07:59:52.571676803Z,1.69,-1.23,-0.31,1.23,0.00,1.85,3.69,2.31,5.08,2.31,3.38,4.31,3.69,4.77,,,,,,,,,,,,,,
1799999992580364901,2027-01-15T07:59:52.580364901Z,-0.62,-1.69,-0.92,0.31,0.62,2.15,1.38,1.85,3.38,2.00,3.38,3.38,5.08,5.23,,,,,,,,,,,,,,
1799999992589052998,2027-01-15T07:59:52.589052998Z,0.00,-1.69,-0.46,1.23,0.62,1.23,2.00,1.23,2.62,2.31,2.31,3.85,6.31,4.77,,,,,,,,,,,,,,
1799999992597741095,2027-01-15T07:59:52.597741095Z,-0.77,-1.08,1.23,2.00,0.46,0.00,3.85,1.38,2.46,4.92,0.92,4.31,5.85,4.31,,,,,,,,,,,,,,
1799999992606429193,2027-01-15T07:59:52.606429193Z,-4.62,0.15,1.23,0.15,0.92,2.15,2.62,2.15,3.23,6.46,3.69,3.08,5.08,5.08,,,,,,,,,,,,,,
1799999992615117290,2027-01-15T07:59:52.615117290Z,-2.15,-0.31,-0.31,-1.08,1.69,3.08,1.54,3.23,2.92,6.77,3.85,4.00,6.00,4.62,,,,,,,,,,,,,,
1799999992623805387,2027-01-15T07:59:52.623805387Z,-0.31,-1.38,-0.62,-0.31,1.23,1.54,0.46,4.15,3.08,5.38,2.31,5.54,7.69,3.85,,,,,,,,,,,,,,
1799999992632493484,2027-01-15T07:59:52.632493484Z,-0.31,-1.69,0.92,0.15,1.23,-0.15,0.46,3.85,5.08,5.08,2.31,4.77,6.77,3.85,,,,,,,,,,,,,,
1799999992641181582,2027-01-15T07:59:52.641181582Z,-1.54,-0.77,1.08,0.92,1.69,0.15,1.69,2.92,6.92,4.15,3.23,3.54,5.23,4.15,,,,,,,,,,,,,,
1799999992649869679,2027-01-15T07:59:52.649869679Z,0.15,-1.38,-0.15,1.23,1.38,1.38,1.54,4.15,5.85,2.92,2.31,4.15,4.46,3.38,,,,,,,,,,,,,,
1799999992658557776,2027-01-15T07:59:52.658557776Z,2.00,-2.00,-0.15,1.08,1.38,1.08,1.08,3.69,4.62,3.08,2.46,4.92,4.00,3.85,,,,,,,,,,,,,,
1799999992667245874,2027-01-15T07:59:52.667245874Z,-2.15,-0.62,0.00,0.92,0.46,0.31,1.38,1.08,3.85,2.77,5.69,4.92,2.62,5.23,,,,,,,,,,,,,,
1799999992675933971,2027-01-15T07:59:52.675933971Z,-1.08,0.92,0.15,1.38,-0.92,1.38,0.62,0.92,2.77,2.15,7.38,2.46,3.38,4.92,,,,,,,,,,,,,,
1799999992684622068,2027-01-15T07:59:52.684622068Z,-0.31,-0.77,0.15,0.15,-1.69,2.15,0.92,2.15,2.31,2.77,5.54,1.85,4.62,4.62,,,,,,,,,,,,,,
1799999992693310166,2027-01-15T07:59:52.693310166Z,-0.46,-1.85,-0.15,-1.23,-0.62,1.54,1.85,2.00,1.85,3.23,4.31,4.15,4.77,5.54,,,,,,,,,,,,,,
1799999992701998263,2027-01-15T07:59:52.701998263Z,-0.46,-0.31,-0.31,-2.00,1.08,2.00,2.00,0.77,1.08,3.23,4.92,5.08,3.69,4.77,,,,,,,,,,,,,,
1799999992710686360,2027-01-15T07:59:52.710686360Z,-0.92,-1.38,-0.92,-1.08,2.31,3.38,1.69,0.31,1.23,2.92,3.85,4.00,3.85,3.23,,,,,,,,,,,,,,
1799999992719374457,2027-01-15T07:59:52.719374457Z,-3.08,-2.15,-1.38,0.46,2.00,2.92,2.00,1.85,1.23,2.77,2.92,3.54,4.77,4.77,,,,,,,,,,,,,,
1799999992728062555,2027-01-15T07:59:52.728062555Z,-2.92,-0.31,0.46,0.15,1.38,2.46,0.77,4.31,3.54,2.62,3.85,3.23,4.31,7.23,,,,,,,,,,,,,,
1799999992736750652,2027-01-15T07:59:52.736750652Z,-0.31,0.46,0.31,0.62,-0.62,1.54,0.62,4.62,4.77,2.31,4.46,2.77,4.31,7.23,,,,,,,,,,,,,,
1799999992745438749,2027-01-15T07:59:52.745438749Z,-0.15,0.62,-1.38,0.77,-2.15,0.62,2.77,4.92,3.38,2.15,4.46,3.38,4.92,7.23,,,,,,,,,,,,,,
1799999992754126847,2027-01-15T07:59:52.754126847Z,1.23,1.54,-0.31,-0.77,0.92,2.00,4.00,5.38,1.38,2.92,3.54,4.77,5.08,7.23,,,,,,,,,,,,,,
1799999992762814944,2027-01-15T07:59:52.762814944Z,-0.77,-0.31,1.08,-1.08,2.15,2.92,3.08,3.69,0.46,3.08,2.46,5.54,5.38,6.15,,,,,,,,,,,,,,
1799999992771503041,2027-01-15T07:59:52.771503041Z,-1.23,-1.54,1.23,-0.31,0.31,1.23,2.15,2.00,2.46,3.85,2.00,4.62,4.62,5.08,,,,,,,,,,,,,,
1799999992780191139,2027-01-15T07:59:52.780191139Z,-0.77,1.23,1.85,0.00,1.08,-0.15,1.69,1.69,5.54,4.15,2.46,3.69,3.85,4.77,,,,,,,,,,,,,,
1799999992788879236,2027-01-15T07:59:52.788879236Z,-1.23,2.15,0.31,1.08,2.62,0.77,1.69,2.77,4.77,2.46,3.08,4.15,4.15,5.54,,,,,,,,,,,,,,
1799999992797567333,2027-01-15T07:59:52.797567333Z,-3.69,0.15,-2.00,2.62,1.38,2.15,1.08,4.15,0.46,1.69,4.31,5.23,3.85,5.38,,,,,,,,,,,,,,
1799999992806255431,2027-01-15T07:59:52.806255431Z,-2.46,-1.08,-1.54,1.08,-0.15,2.00,1.85,2.00,0.92,2.92,3.54,4.92,4.77,6.15,,,,,,,,,,,,,,
1799999992814943528,2027-01-15T07:59:52.814943528Z,0.31,-1.69,-0.92,-0.46,0.92,1.54,2.31,1.38,2.46,3.69,2.62,4.15,5.38,6.31,,,,,,,,,,,,,,
1799999992823631625,2027-01-15T07:59:52.823631625Z,-0.46,-1.85,0.62,-0.62,2.62,2.31,2.46,1.69,1.54,3.69,1.85,3.69,5.69,5.08,,,,,,,,,,,,,,
1799999992832319722,2027-01-15T07:59:52.832319722Z,-2.15,0.31,0.46,1.69,1.38,2.62,2.31,3.38,0.46,2.62,4.77,5.08,5.69,4.62,,,,,,,,,,,,,,
1799999992841007820,2027-01-15T07:59:52.841007820Z,-1.85,-0.15,-0.46,2.31,0.31,1.38,2.15,3.54,1.54,3.54,6.00,6.15,6.77,5.08,,,,,,,,,,,,,,
1799999992849695917,2027-01-15T07:59:52.849695917Z,-2.00,-2.15,-2.46,1.23,1.08,-0.31,0.46,2.62,3.08,5.54,4.62,5.54,5.85,4.31,,,,,,,,,,,,,,
1799999992858384014,2027-01-15T07:59:52.858384014Z,0.00,-0.46,-2.00,1.69,2.15,0.15,-0.77,1.54,2.62,5.23,4.31,4.77,3.38,5.23,,,,,,,,,,,,,,
1799999992867072112,2027-01-15T07:59:52.867072112Z,0.62,0.31,0.62,-0.15,1.38,2.31,0.15,2.00,1.54,4.62,4.92,4.92,2.31,6.46,,,,,,,,,,,,,,
1799999992875760209,2027-01-15T07:59:52.875760209Z,1.08,-1.08,1.54,-2.31,0.77,3.54,0.62,0.77,1.38,5.54,3.85,5.08,2.31,5.69,,,,,,,,,,,,,,
1799999992884448306,2027-01-15T07:59:52.884448306Z,1.08,0.31,-0.46,-0.77,2.46,2.92,0.92,0.31,3.08,4.77,2.46,4.00,0.46,6.00,,,,,,,,,,,,,,
1799999992893136404,2027-01-15T07:59:52.893136404Z,-0.77,0.31,-1.08,-0.31,1.69,3.08,1.54,0.62,4.15,3.69,2.77,3.54,2.46,6.15,,,,,,,,,,,,,,
1799999992901824501,2027-01-15T07:59:52.901824501Z,-1.54,-1.69,-2.62,-1.69,0.92,2.62,2.92,2.00,4.15,3.08,3.38,4.31,5.85,3.85,,,,,,,,,,,,,,
1799999992910512598,2027-01-15T07:59:52.910512598Z,-2.62,-1.85,-2.31,-0.31,2.00,0.77,1.08,0.62,2.46,2.15,2.31,5.85,5.23,3.23,,,,,,,,,,,,,,
1799999992919200696,2027-01-15T07:59:52.919200696Z,0.15,-2.00,-0.15,0.00,-0.62,0.92,-0.92,0.62,1.69,2.15,2.77,7.38,6.46,4.62,,,,,,,,,,,,,,
1799999992927888793,2027-01-15T07:59:52.927888793Z,0.46,-2.46,0.46,-1.69,-2.62,2.00,-0.31,1.23,2.92,3.08,4.46,5.69,7.08,5.85,,,,,,,,,,,,,,
1799999992936576890,2027-01-15T07:59:52.936576890Z,-0.31,-0.62,0.62,-1.54,-0.31,0.77,1.54,1.23,2.62,3.85,3.69,2.92,5.38,6.62,,,,,,,,,,,,,,
1799999992945264987,2027-01-15T07:59:52.945264987Z,0.62,2.00,1.69,0.15,1.23,0.15,1.69,1.38,1.85,3.69,2.77,3.54,4.77,6.62,,,,,,,,,,,,,,
1799999992953953085,2027-01-15T07:59:52.953953085Z,0.77,2.92,2.31,0.92,0.62,1.69,0.46,2.15,2.46,3.23,5.08,5.38,6.00,6.00,,,,,,,,,,,,,,
1799999992962641182,2027-01-15T07:59:52.962641182Z,-1.54,-0.77,0.92,-0.46,0.46,1.69,0.46,3.69,3.85,4.46,6.15,4.77,5.54,6.00,,,,,,,,,,,,,,
1799999992971329279,2027-01-15T07:59:52.971329279Z,1.23,-2.62,0.15,-0.46,0.77,1.23,1.54,4.31,4.15,4.31,6.46,3.38,6.15,6.31,,,,,,,,,,,,,,
1799999992980017377,2027-01-15T07:59:52.980017377Z,0.92,-3.85,-1.08,0.31,1.85,1.38,3.38,3.54,3.23,2.31,6.92,2.77,7.54,5.69,,,,,,,,,,,,,,
1799999992988705474,2027-01-15T07:59:52.988705474Z,0.77,-2.31,-1.08,-0.31,1.85,0.00,4.15,2.46,1.38,3.23,5.23,4.00,6.62,5.08,,,,,,,,,,,,,,
1799999992997393571,2027-01-15T07:59:52.997393571Z,-1.85,-1.23,-0.31,0.62,2.15,-1.85,3.08,2.31,1.38,6.15,4.77,5.23,6.00,5.38,,,,,,,,,,,,,,
1799999993006081669,2027-01-15T07:59:53.006081669Z,-0.15,-2.00,-0.15,2.00,3.38,-0.15,3.23,3.08,2.15,6.31,6.00,5.23,5.54,5.38,,,,,,,,,,,,,,
1799999993014769766,2027-01-15T07:59:53.014769766Z,0.15,-0.92,-1.23,1.69,2.00,3.08,2.46,1.69,2.62,4.00,4.77,4.46,5.08,5.85,,,,,,,,,,,,,,
1799999993023457863,2027-01-15T07:59:53.023457863Z,0.77,0.46,-1.38,1.69,0.46,3.69,1.08,0.92,3.85,2.92,2.92,4.62,4.46,6.46,,,,,,,,,,,,,,
1799999993032145961,2027-01-15T07:59:53.032145961Z,-0.62,-0.46,-0.46,1.85,1.54,3.08,2.31,2.92,2.92,2.62,3.69,5.38,4.92,5.69,,,,,,,,,,,,,,
1799999993040834058,2027-01-15T07:59:53.040834058Z,-1.69,-0.31,0.15,0.46,0.77,2.00,2.31,2.00,1.38,2.15,5.23,4.31,6.62,4.92,,,,,,,,,,,,,,
1799999993049522155,2027-01-15T07:59:53.049522155Z,0.00,-0.46,0.92,1.08,0.31,1.54,1.85,1.08,2.15,2.46,4.92,3.85,6.00,5.23,,,,,,,,,,,,,,
1799999993058210252,2027-01-15T07:59:53.058210252Z,-0.77,-1.08,1.69,2.15,1.69,1.38,2.31,3.23,4.62,3.69,3.85,3.23,4.46,5.54,,,,,,,,,,,,,,
1799999993066898350,2027-01-15T07:59:53.066898350Z,-0.62,-0.77,1.54,0.15,1.85,0.77,2.92,4.15,3.69,4.92,3.54,3.54,5.38,5.23,,,,,,,,,,,,,,
1799999993075586447,2027-01-15T07:59:53.075586447Z,0.46,-0.62,1.08,-1.23,1.38,0.46,2.00,3.38,2.77,3.85,2.62,4.46,5.23,5.08,,,,,,,,,,,,,,
1799999993084274544,2027-01-15T07:59:53.084274544Z,0.31,-0.31,0.92,-1.08,1.69,1.54,1.38,2.15,2.62,2.77,2.00,5.69,4.77,5.69,,,,,,,,,,,,,,
1799999993092962642,2027-01-15T07:59:53.092962642Z,-0.15,-0.77,0.77,-0.62,1.38,1.69,2.31,0.92,3.54,4.92,2.92,5.54,5.23,6.62,,,,,,,,,,,,,,
1799999993101650739,2027-01-15T07:59:53.101650739Z,0.15,-0.46,0.31,-0.15,0.77,2.00,3.38,2.00,2.92,5.23,4.00,4.46,5.23,6.15,,,,,,,,,,,,,,
1799999993110338836,2027-01-15T07:59:53.110338836Z,1.69,0.77,-0.15,-0.92,1.38,3.38,3.38,4.31,1.54,2.00,3.38,3.38,4.31,4.77,,,,,,,,,,,,,,
1799999993119026934,2027-01-15T07:59:53.119026934Z,-1.08,-1.54,-1.38,0.00,0.31,2.46,2.62,4.31,2.31,1.85,2.31,3.69,4.31,3.69,,,,,,,,,,,,,,
1799999993127715031,2027-01-15T07:59:53.127715031Z,0.15,-2.15,-1.23,0.77,-0.15,1.54,2.92,3.08,3.23,3.08,2.31,4.31,4.92,4.15,,,,,,,,,,,,,,
1799999993136403128,2027-01-15T07:59:53.136403128Z,0.77,0.46,0.62,2.15,1.08,0.62,3.85,1.85,3.08,3.69,2.62,5.38,6.15,5.38,,,,,,,,,,,,,,
1799999993145091226,2027-01-15T07:59:53.145091226Z,-0.15,-0.46,-0.62,1.85,0.92,-0.62,2.92,1.23,3.08,5.08,3.08,5.69,6.31,5.38,,,,,,,,,,,,,,
1799999993153779323,2027-01-15T07:59:53.153779323Z,-0.62,-1.23,-2.92,1.23,0.77,0.15,1.38,2.46,3.38,6.15,2.77,6.15,5.38,5.23,,,,,,,,,,,,,,
1799999993162467420,2027-01-15T07:59:53.162467420Z,0.15,-0.15,-2.31,0.77,0.00,2.31,2.00,2.92,3.08,5.08,2.15,6.00,4.31,4.77,,,,,,,,,,,,,,
1799999993171155517,2027-01-15T07:59:53.171155517Z,1.08,0.46,-0.62,0.15,-0.46,2.62,1.69,1.23,1.69,3.08,2.31,4.92,4.15,5.08,,,,,,,,,,,,,,
1799999993179843615,2027-01-15T07:59:53.179843615Z,0.77,1.08,0.00,-0.31,0.31,2.00,-0.31,1.69,2.00,2.15,2.46,4.15,4.62,6.00,,,,,,,,,,,,,,
1799999993188531712,2027-01-15T07:59:53.188531712Z,-1.08,-0.15,0.62,-0.62,0.31,0.62,0.15,4.15,2.77,2.92,3.85,4.00,4.92,4.77,,,,,,,,,,,,,,
1799999993197219809,2027-01-15T07:59:53.197219809Z,-1.54,-0.92,0.77,-0.46,-0.77,0.31,0.92,3.85,2.77,3.85,4.31,4.15,5.08,4.00,,,,,,,,,,,,,,
1799999993205907907,2027-01-15T07:59:53.205907907Z,-1.69,-0.46,1.69,0.62,-2.31,1.38,1.69,1.85,5.23,4.92,3.08,3.38,5.54,5.38,,,,,,,,,,,,,,
1799999993214596004,2027-01-15T07:59:53.214596004Z,-0.31,-1.23,0.92,1.85,-1.38,1.08,3.23,1.08,5.08,4.77,2.31,3.85,5.69,6.00,,,,,,,,,,,,,,
1799999993223284101,2027-01-15T07:59:53.223284101Z,-0.92,-2.15,1.08,2.00,-0.77,1.23,2.46,0.15,2.77,4.15,3.38,4.92,4.46,5.08,,,,,,,,,,,,,,
1799999993231972199,2027-01-15T07:59:53.231972199Z,-2.92,-1.08,1.85,0.31,-0.31,3.08,1.85,0.31,3.08,4.15,3.23,4.77,3.54,4.15,,,,,,,,,,,,,,
1799999993240660296,2027-01-15T07:59:53.240660296Z,-2.15,0.00,0.62,-1.38,0.31,3.23,2.92,-0.15,2.77,4.46,1.23,3.69,4.77,4.46,,,,,,,,,,,,,,
1799999993249348393,2027-01-15T07:59:53.249348393Z,-0.92,-0.62,-0.46,0.00,0.46,1.23,2.77,1.85,0.92,4.00,0.31,3.69,6.15,4.46,,,,,,,,,,,,,,
1799999993258036491,2027-01-15T07:59:53.258036491Z,-0.46,0.31,2.15,2.31,0.62,0.62,2.46,4.62,0.77,3.08,2.46,4.77,5.38,4.15,,,,,,,,,,,,,,
1799999993266724588,2027-01-15T07:59:53.266724588Z,-0.62,-0.31,0.77,2.15,0.31,2.46,4.15,4.15,3.08,2.15,3.08,4.46,4.62,4.92,,,,,,,,,,,,,,
1799999993275412685,2027-01-15T07:59:53.275412685Z,0.46,-0.92,-0.77,1.69,0.77,1.23,4.46,3.23,4.62,1.54,2.92,3.54,5.08,5.08,,,,,,,,,,,,,,
1799999993284100782,2027-01-15T07:59:53.284100782Z,0.31,-0.46,0.15,1.54,1.54,-0.92,2.77,2.00,4.62,-0.31,4.62,1.69,4.62,4.31,,,,,,,,,,,,,,
1799999993292788880,2027-01-15T07:59:53.292788880Z,-0.92,-1.38,0.46,0.46,0.46,0.77,2.15,-0.77,2.46,-0.77,5.85,1.69,1.23,5.08,,,,,,,,,,,,,,
1799999993301476977,2027-01-15T07:59:53.301476977Z,-1.08,-0.77,-0.77,0.31,-1.38,3.38,1.69,-1.54,2.15,1.69,5.08,3.38,-1.69,6.31,,,,,,,,,,,,,,
1799999993310165074,2027-01-15T07:59:53.310165074Z,-0.15,0.15,-0.62,0.31,-1.08,5.38,0.77,-0.15,4.00,4.15,4.31,4.77,1.85,6.15,,,,,,,,,,,,,,
1799999993318853172,2027-01-15T07:59:53.318853172Z,-0.46,0.15,0.31,0.62,0.31,5.08,0.46,-0.31,4.00,5.69,4.46,4.15,7.38,7.38,,,,,,,,,,,,,,
1799999993327541269,2027-01-15T07:59:53.327541269Z,-3.08,-0.62,-0.31,1.08,0.31,3.54,2.00,0.62,2.62,6.92,3.69,2.62,7.54,9.38,,,,,,,,,,,,,,
1799999993336229366,2027-01-15T07:59:53.336229366Z,0.77,-0.31,-0.31,1.85,0.31,2.46,2.00,1.69,2.00,6.15,2.92,2.46,5.85,8.00,,,,,,,,,,,,,,
1799999993344917464,2027-01-15T07:59:53.344917464Z,0.92,-0.31,1.54,1.38,2.15,1.54,1.08,1.69,1.38,4.15,2.31,4.31,6.77,5.69,,,,,,,,,,,,,,
1799999993353605561,2027-01-15T07:59:53.353605561Z,1.08,-1.08,1.08,0.62,1.69,1.23,1.23,2.00,1.23,4.00,2.62,5.08,6.77,5.69,,,,,,,,,,,,,,
1799999993362293658,2027-01-15T07:59:53.362293658Z,-0.77,-0.77,-1.08,0.15,0.31,1.54,2.15,3.38,1.69,3.85,3.38,5.23,7.08,4.92,,,,,,,,,,,,,,
1799999993370981755,2027-01-15T07:59:53.370981755Z,-2.46,0.46,-1.38,1.38,1.08,1.08,2.77,3.85,1.23,3.38,3.38,3.54,4.31,4.46,,,,,,,,,,,,,,
1799999993379669853,2027-01-15T07:59:53.379669853Z,-2.46,0.92,-1.23,1.69,0.92,1.38,4.46,2.62,2.77,4.00,3.69,4.31,0.15,4.92,,,,,,,,,,,,,,
1799999993388357950,2027-01-15T07:59:53.388357950Z,-0.15,0.62,-1.69,-0.46,0.46,2.00,3.85,1.54,4.77,3.85,4.31,5.85,2.00,5.54,,,,,,,,,,,,,,
1799999993397046047,2027-01-15T07:59:53.397046047Z,0.46,1.54,-0.77,-1.69,1.69,2.62,0.92,2.62,4.00,2.92,3.08,5.54,5.85,5.69,,,,,,,,,,,,,,
1799999993405734145,2027-01-15T07:59:53.405734145Z,1.08,0.46,0.15,-0.92,3.69,2.92,-0.15,4.92,2.77,3.38,3.08,4.00,4.92,4.77,,,,,,,,,,,,,,
1799999993414422242,2027-01-15T07:59:53.414422242Z,0.31,-0.15,0.62,-0.92,3.54,2.31,2.00,5.08,2.46,4.62,5.38,3.54,3.85,4.15,,,,,,,,,,,,,,
1799999993423110339,2027-01-15T07:59:53.423110339Z,-0.46,1.23,0.92,0.00,2.77,0.92,1.23,3.54,2.46,4.31,5.54,4.31,4.77,4.77,,,,,,,,,,,,,,
1799999993431798437,2027-01-15T07:59:53.431798437Z,0.00,-0.46,0.62,0.62,2.15,0.92,0.62,2.77,2.46,4.62,4.77,4.62,4.77,5.08,,,,,,,,,,,,,,
1799999993440486534,2027-01-15T07:59:53.440486534Z,-2.92,-3.54,0.00,0.92,0.00,2.15,2.62,1.85,1.85,3.38,5.23,4.62,5.38,4.31,,,,,,,,,,,,,,
1799999993449174631,2027-01-15T07:59:53.449174631Z,-1.23,-1.54,0.00,0.31,-0.62,2.31,4.62,2.31,2.31,0.15,4.62,4.31,6.15,4.77,,,,,,,,,,,,,,
1799999993457862729,2027-01-15T07:59:53.457862729Z,-0.92,2.15,-0.31,2.31,0.31,1.38,5.08,2.15,4.31,0.92,4.31,4.46,5.38,6.46,,,,,,,,,,,,,,
1799999993466550826,2027-01-15T07:59:53.466550826Z,-1.08,2.31,-0.77,1.85,0.92,0.46,4.77,0.92,5.54,3.85,2.92,4.77,4.31,7.23,,,,,,,,,,,,,,
1799999993475238923,2027-01-15T07:59:53.475238923Z,0.46,1.69,-1.08,-0.62,1.38,0.31,3.38,1.69,4.46,3.85,1.23,4.31,4.92,5.54,,,,,,,,,,,,,,
1799999993483927020,2027-01-15T07:59:53.483927020Z,0.92,2.62,-0.31,-0.77,0.92,0.62,1.08,3.54,2.46,2.15,1.54,3.69,6.00,4.15,,,,,,,,,,,,,,
1799999993492615118,2027-01-15T07:59:53.492615118Z,1.23,0.00,0.31,0.77,0.46,0.77,-0.77,3.38,2.00,1.38,2.62,4.46,5.23,4.92,,,,,,,,,,,,,,
1799999993501303215,2027-01-15T07:59:53.501303215Z,-1.08,-3.23,-0.77,1.08,1.23,1.38,0.77,3.54,1.08,0.15,4.15,5.85,5.85,4.15,,,,,,,,,,,,,,
1799999993509991312,2027-01-15T07:59:53.509991312Z,-1.08,-2.31,-0.31,1.85,1.23,1.54,1.38,3.69,1.08,0.46,4.77,5.69,3.85,4.00,,,,,,,,,,,,,,
1799999993518679410,2027-01-15T07:59:53.518679410Z,1.08,0.00,0.15,1.85,0.46,0.77,1.69,2.77,3.38,3.54,6.00,5.23,-0.15,3.23,,,,,,,,,,,,,,
1799999993527367507,2027-01-15T07:59:53.527367507Z,-2.46,0.15,-1.54,0.15,-0.46,0.00,1.85,1.54,3.69,5.23,4.62,5.54,2.00,4.00,,,,,,,,,,,,,,
1799999993536055604,2027-01-15T07:59:53.536055604Z,-0.31,1.85,-1.54,0.46,-0.77,-0.62,2.62,0.46,1.85,4.46,3.54,6.00,5.85,3.54,,,,,,,,,,,,,,
1799999993544743702,2027-01-15T07:59:53.544743702Z,0.31,0.92,-0.46,2.00,0.00,0.46,2.46,0.00,2.62,5.54,3.23,5.69,4.46,4.15,,,,,,,,,,,,,,
1799999993553431799,2027-01-15T07:59:53.553431799Z,-0.31,0.15,0.00,2.62,0.77,2.00,2.00,1.38,5.23,6.31,4.00,4.77,3.38,5.54,,,,,,,,,,,,,,
1799999993562119896,2027-01-15T07:59:53.562119896Z,-0.46,-0.92,0.00,1.85,1.38,0.77,1.69,2.92,5.23,3.38,4.31,4.77,5.69,6.62,,,,,,,,,,,,,,
1799999993570807994,2027-01-15T07:59:53.570807994Z,-0.77,-4.00,-0.62,1.38,1.54,-1.08,1.69,1.54,2.92,1.85,3.69,5.08,6.62,7.38,,,,,,,,,,,,,,
1799999993579496091,2027-01-15T07:59:53.579496091Z,-0.62,-2.77,0.00,-0.46,1.38,-0.46,3.23,2.31,3.23,3.85,4.31,4.00,5.69,7.08,,,,,,,,,,,,,,
1799999993588184188,2027-01-15T07:59:53.588184188Z,1.08,-0.62,0.92,-0.62,0.77,-0.15,3.08,2.77,2.31,3.38,4.77,4.15,5.85,6.92,,,,,,,,,,,,,,
1799999993596872285,2027-01-15T07:59:53.596872285Z,-4.00,-2.00,1.38,0.00,1.08,-0.31,0.62,3.69,0.62,2.92,4.15,3.85,6.92,5.85,,,,,,,,,,,,,,
1799999993605560383,2027-01-15T07:59:53.605560383Z,-2.92,-2.31,1.85,0.46,2.00,2.15,-0.31,2.46,3.08,4.31,3.85,3.08,7.08,3.85,,,,,,,,,,,,,,
1799999993614248480,2027-01-15T07:59:53.614248480Z,-0.62,-1.54,3.08,-0.31,2.00,4.62,0.92,1.54,3.69,3.69,4.15,4.92,5.69,4.00,,,,,,,,,,,,,,
1799999993622936577,2027-01-15T07:59:53.622936577Z,0.31,-1.54,2.15,1.38,2.00,3.69,1.69,1.54,0.92,4.62,4.31,5.69,4.46,5.69,,,,,,,,,,,,,,
1799999993631624675,2027-01-15T07:59:53.631624675Z,1.38,-1.54,0.00,3.69,1.23,1.85,1.08,2.31,0.62,6.00,4.00,4.31,4.77,5.69,,,,,,,,,,,,,,
1799999993640312772,2027-01-15T07:59:53.640312772Z,0.77,-1.08,0.92,2.62,-0.15,1.54,1.69,3.08,2.00,5.85,3.54,4.62,5.38,4.92,,,,,,,,,,,,,,
1799999993649000869,2027-01-15T07:59:53.649000869Z,0.00,-1.54,0.92,0.46,-0.62,2.92,2.92,2.92,1.38,5.69,3.85,5.69,5.23,4.15,,,,,,,,,,,,,,
1799999993657688967,2027-01-15T07:59:53.657688967Z,-1.69,-1.23,-1.38,1.38,0.77,1.54,3.69,1.23,3.23,5.54,4.77,4.00,5.38,3.85,,,,,,,,,,,,,,
1799999993666377064,2027-01-15T07:59:53.666377064Z,-2.77,-1.23,-0.15,1.54,1.54,0.62,4.00,1.23,3.85,4.62,4.15,4.15,5.54,4.31,,,,,,,,,,,,,,
1799999993675065161,2027-01-15T07:59:53.675065161Z,-1.08,-0.62,0.00,0.46,2.92,0.00,3.38,2.62,4.15,2.77,2.62,6.15,5.08,5.23,,,,,,,,,,,,,,
1799999993683753259,2027-01-15T07:59:53.683753259Z,-0.46,-1.85,-2.77,0.31,2.77,1.69,1.69,2.62,2.46,2.77,3.08,5.38,5.85,5.08,,,,,,,,,,,,,,
1799999993692441356,2027-01-15T07:59:53.692441356Z,0.00,-2.31,-0.31,-0.77,1.85,2.31,2.15,0.77,2.15,4.00,3.38,4.15,7.23,4.46,,,,,,,,,,,,,,
1799999993701129453,2027-01-15T07:59:53.701129453Z,-0.46,-1.08,2.31,-1.38,1.85,2.00,3.69,-0.31,3.54,3.38,4.00,2.62,6.92,3.69,,,,,,,,,,,,,,
1799999993709817550,2027-01-15T07:59:53.709817550Z,-0.77,-1.23,0.62,-0.62,2.31,1.69,2.92,2.62,4.46,2.31,5.08,1.54,5.23,4.31,,,,,,,,,,,,,,
1799999993718505648,2027-01-15T07:59:53.718505648Z,-0.46,-0.62,-0.31,-0.46,0.77,1.69,1.38,4.62,3.08,3.38,4.92,2.92,5.23,5.08,,,,,,,,,,,,,,
1799999993727193745,2027-01-15T07:59:53.727193745Z,1.54,-0.92,0.15,-0.15,-0.62,2.00,1.23,1.85,2.46,3.08,4.46,5.08,5.38,6.31,,,,,,,,,,,,,,
1799999993735881842,2027-01-15T07:59:53.735881842Z,-0.77,-1.38,-0.15,0.00,-0.62,2.15,1.54,0.46,1.38,2.92,4.46,4.62,5.38,6.31,,,,,,,,,,,,,,
1799999993744569940,2027-01-15T07:59:53.744569940Z,-0.62,-1.08,-0.62,-0.15,-0.92,2.15,2.46,1.69,1.08,2.77,2.92,3.69,6.46,6.31,,,,,,,,,,,,,,
1799999993753258037,2027-01-15T07:59:53.753258037Z,-0.77,-1.85,0.31,-1.08,-0.31,1.69,2.00,3.54,3.08,3.85,3.08,4.62,3.69,5.69,,,,,,,,,,,,,,
1799999993761946134,2027-01-15T07:59:53.761946134Z,0.62,-2.00,0.46,-0.62,0.00,1.85,1.08,4.31,4.62,4.00,4.92,4.92,-1.08,6.77,,,,,,,,,,,,,,
1799999993770634232,2027-01-15T07:59:53.770634232Z,0.15,-1.85,-1.23,-0.77,-0.77,0.92,2.15,3.54,4.00,3.54,4.62,5.38,1.69,6.31,,,,,,,,,,,,,,
1799999993779322329,2027-01-15T07:59:53.779322329Z,-2.77,-2.31,-3.54,0.00,-0.15,-0.31,3.54,2.31,3.23,2.15,2.92,6.15,7.54,5.38,,,,,,,,,,,,,,
1799999993788010426,2027-01-15T07:59:53.788010426Z,-3.23,-1.23,-3.69,0.92,1.08,-0.46,2.15,2.46,3.69,1.85,4.15,4.77,7.08,4.77,,,,,,,,,,,,,,
1799999993796698524,2027-01-15T07:59:53.796698524Z,1.38,-0.62,-0.62,1.54,1.54,0.15,-0.46,2.46,3.85,2.92,6.92,3.85,2.15,4.92,,,,,,,,,,,,,,
1799999993805386621,2027-01-15T07:59:53.805386621Z,-0.15,-2.77,0.00,0.15,0.46,1.23,1.54,2.62,2.92,2.15,4.62,6.31,2.92,4.46,,,,,,,,,,,,,,
1799999993814074718,2027-01-15T07:59:53.814074718Z,1.85,-1.38,-0.62,-0.15,0.62,1.69,3.08,2.92,4.00,4.15,2.92,4.77,3.85,4.46,,,,,,,,,,,,,,
1799999993822762815,2027-01-15T07:59:53.822762815Z,-1.38,0.00,0.00,0.00,1.23,2.31,1.08,3.69,4.31,6.77,4.92,1.69,4.92,6.46,,,,,,,,,,,,,,
1799999993831450913,2027-01-15T07:59:53.831450913Z,-2.00,-1.08,0.46,-0.62,-0.15,0.92,1.23,2.77,1.69,5.23,4.77,3.23,5.23,5.85,,,,,,,,,,,,,,
1799999993840139010,2027-01-15T07:59:53.840139010Z,-0.31,2.00,1.08,0.46,-2.00,-0.46,2.15,1.38,2.77,4.31,2.15,4.62,6.92,2.77,,,,,,,,,,,,,,
1799999993848827107,2027-01-15T07:59:53.848827107Z,-0.31,2.00,1.08,0.92,-1.69,-0.62,2.31,1.23,3.85,4.46,2.15,5.08,6.00,3.69,,,,,,,,,,,,,,
1799999993857515205,2027-01-15T07:59:53.857515205Z,-0.77,-1.38,-0.31,-0.46,0.31,-0.15,1.38,1.08,1.54,3.54,4.31,5.38,4.15,6.31,,,,,,,,,,,,,,
1799999993866203302,2027-01-15T07:59:53.866203302Z,-0.31,-2.92,-1.38,-1.38,1.85,-0.46,1.38,0.15,0.46,3.69,4.31,4.92,4.46,6.15,,,,,,,,,,,,,,
1799999993874891399,2027-01-15T07:59:53.874891399Z,0.00,-1.23,-0.92,0.00,1.08,-0.77,2.31,1.08,2.00,4.31,2.62,4.00,4.92,5.23,,,,,,,,,,,,,,
1799999993883579497,2027-01-15T07:59:53.883579497Z,-1.54,-0.77,-0.62,2.15,0.92,0.92,2.00,2.31,4.62,2.77,2.77,3.54,4.46,4.62,,,,,,,,,,,,,,
1799999993892267594,2027-01-15T07:59:53.892267594Z,-1.54,0.15,-1.23,3.08,1.85,2.15,2.62,2.31,5.54,3.85,4.00,3.69,3.08,4.46,,,,,,,,,,,,,,
1799999993900955691,2027-01-15T07:59:53.900955691Z,-0.92,1.69,-0.92,2.92,2.77,2.15,4.00,3.23,4.77,5.69,4.62,3.85,1.23,5.54,,,,,,,,,,,,,,
1799999993909643789,2027-01-15T07:59:53.909643789Z,-1.23,1.08,1.38,0.77,1.38,2.15,3.23,3.54,5.54,3.54,1.38,4.46,3.85,5.23,,,,,,,,,,,,,,
1799999993918331886,2027-01-15T07:59:53.918331886Z,-1.08,0.46,2.62,-1.54,1.69,1.69,2.77,2.31,4.77,1.23,1.54,4.92,7.38,5.23,,,,,,,,,,,,,,
1799999993927019983,2027-01-15T07:59:53.927019983Z,-1.23,-0.31,1.23,-2.00,3.38,1.38,3.38,2.31,2.62,2.15,4.92,5.08,6.00,6.31,,,,,,,,,,,,,,
1799999993935708080,2027-01-15T07:59:53.935708080Z,0.62,0.31,-0.31,0.77,2.62,0.92,3.08,2.62,2.31,3.85,4.62,4.92,4.31,6.77,,,,,,,,,,,,,,
1799999993944396178,2027-01-15T07:59:53.944396178Z,0.92,1.08,-0.92,2.62,1.38,0.00,2.46,1.85,3.69,4.62,2.31,4.92,6.31,5.85,,,,,,,,,,,,,,
1799999993953084275,2027-01-15T07:59:53.953084275Z,-1.23,0.15,-0.92,1.69,2.00,-0.31,2.00,0.77,4.31,4.46,2.46,4.46,6.46,4.77,,,,,,,,,,,,,,
1799999993961772372,2027-01-15T07:59:53.961772372Z,-0.46,-1.23,-0.15,0.77,1.08,1.08,2.92,1.54,3.54,3.69,4.00,2.92,4.00,5.85,,,,,,,,,,,,,,
1799999993970460470,2027-01-15T07:59:53.970460470Z,-0.31,-0.92,0.46,0.31,0.77,2.31,3.23,2.31,3.69,2.77,4.31,2.31,3.23,6.15,,,,,,,,,,,,,,
1799999993979148567,2027-01-15T07:59:53.979148567Z,-2.31,-0.77,0.15,-0.77,2.00,2.31,3.08,2.46,4.77,1.69,3.69,2.92,1.23,6.15,,,,,,,,,,,,,,
1799999993987836664,2027-01-15T07:59:53.987836664Z,-1.23,-2.31,-0.46,0.46,2.31,1.38,1.38,2.92,5.38,2.15,3.23,3.85,3.38,4.46,,,,,,,,,,,,,,
1799999993996524762,2027-01-15T07:59:53.996524762Z,-0.77,-2.62,0.15,1.38,1.69,0.62,1.38,2.31,4.62,2.15,2.46,4.92,7.69,3.54,,,,,,,,,,,,,,
1799999994005212859,2027-01-15T07:59:54.005212859Z,-1.69,-1.54,0.92,-0.15,-0.15,0.77,2.31,1.69,3.54,1.85,2.15,4.31,8.15,4.00,,,,,,,,,,,,,,
1799999994013900956,2027-01-15T07:59:54.013900956Z,-1.69,-0.31,2.31,-0.92,-0.62,-0.15,2.92,1.54,2.46,2.46,3.85,3.23,6.15,5.38,,,,,,,,,,,,,,
1799999994022589053,2027-01-15T07:59:54.022589053Z,0.00,0.62,2.31,0.15,1.69,0.00,2.46,2.31,2.46,2.46,4.15,2.92,6.00,5.23,,,,,,,,,,,,,,
1799999994031277151,2027-01-15T07:59:54.031277151Z,0.15,1.08,0.15,0.62,2.31,2.00,1.69,2.77,3.38,2.46,1.69,2.15,5.54,3.54,,,,,,,,,,,,,,
1799999994039965248,2027-01-15T07:59:54.039965248Z,-0.46,0.31,0.92,1.08,1.85,2.31,1.23,1.69,3.85,3.08,3.38,3.38,5.54,4.46,,,,,,,,,,,,,,
1799999994048653345,2027-01-15T07:59:54.048653345Z,-0.62,0.46,1.08,1.38,1.85,1.69,0.92,2.92,4.15,2.92,5.23,4.31,4.62,5.38,,,,,,,,,,,,,,
1799999994057341443,2027-01-15T07:59:54.057341443Z,-0.92,0.15,-1.85,1.08,-1.38,1.69,1.69,5.38,4.77,1.69,4.15,6.15,3.38,4.62,,,,,,,,,,,,,,
1799999994066029540,2027-01-15T07:59:54.066029540Z,-1.54,-0.62,-2.00,0.77,-3.54,1.08,2.92,4.46,3.85,0.00,3.23,5.38,4.92,4.92,,,,,,,,,,,,,,
1799999994074717637,2027-01-15T07:59:54.074717637Z,1.08,1.08,0.15,2.00,-0.92,0.46,2.62,4.46,1.69,-0.62,2.46,4.46,3.23,6.00,,,,,,,,,,,,,,
1799999994083405735,2027-01-15T07:59:54.083405735Z,1.23,1.54,0.31,2.31,1.85,1.08,1.54,3.85,0.62,2.46,1.38,4.62,0.77,5.08,,,,,,,,,,,,,,
1799999994092093832,2027-01-15T07:59:54.092093832Z,-1.54,-0.15,-1.38,1.23,0.77,1.69,0.92,2.31,1.38,6.00,1.85,5.69,3.85,4.15,,,,,,,,,,,,,,
1799999994100781929,2027-01-15T07:59:54.100781929Z,0.77,0.15,-2.92,0.00,0.62,2.62,1.85,1.23,1.23,6.77,3.54,6.00,8.62,5.38,,,,,,,,,,,,,,
1799999994109470027,2027-01-15T07:59:54.109470027Z,0.92,1.08,-2.31,-1.23,2.77,3.85,2.46,2.31,0.46,6.00,3.85,4.92,7.69,5.38,,,,,,,,,,,,,,
1799999994118158124,2027-01-15T07:59:54.118158124Z,-0.15,0.46,-0.77,-1.23,2.15,1.85,1.08,3.85,1.69,4.92,4.31,4.92,5.54,4.92,,,,,,,,,,,,,,
1799999994126846221,2027-01-15T07:59:54.126846221Z,0.46,0.31,-0.77,-0.62,1.54,0.62,-0.15,2.77,2.00,3.54,4.46,5.23,5.69,4.92,,,,,,,,,,,,,,
1799999994135534318,2027-01-15T07:59:54.135534318Z,-1.08,0.15,0.31,0.46,1.69,2.15,-0.31,1.08,0.31,1.38,4.92,4.92,6.92,4.77,,,,,,,,,,,,,,
1799999994144222416,2027-01-15T07:59:54.144222416Z,-0.62,-1.54,2.15,0.92,0.15,2.77,0.46,1.69,0.31,1.38,3.38,4.31,7.23,5.69,,,,,,,,,,,,,,
1799999994152910513,2027-01-15T07:59:54.152910513Z,-0.31,-1.85,-0.62,2.46,0.92,2.77,-0.15,1.54,3.38,2.62,4.15,4.62,5.54,7.54,,,,,,,,,,,,,,
1799999994161598610,2027-01-15T07:59:54.161598610Z,0.15,-0.46,-3.08,1.54,2.31,2.46,-1.23,1.85,4.46,3.54,4.31,5.54,5.54,8.00,,,,,,,,,,,,,,
1799999994170286708,2027-01-15T07:59:54.170286708Z,-0.92,-0.31,-0.77,-1.54,1.69,2.15,-0.46,3.08,2.77,2.92,3.38,6.15,5.23,7.38,,,,,,,,,,,,,,
1799999994178974805,2027-01-15T07:59:54.178974805Z,-1.38,-1.08,0.62,-1.85,0.15,2.77,0.46,3.08,3.23,2.31,4.00,6.77,1.85,7.69,,,,,,,,,,,,,,
1799999994187662902,2027-01-15T07:59:54.187662902Z,-1.69,-2.00,-2.15,-0.15,-0.77,2.31,0.15,3.08,5.54,3.08,4.31,6.62,1.08,7.69,,,,,,,,,,,,,,
1799999994196351000,2027-01-15T07:59:54.196351000Z,-2.31,-1.85,-1.23,0.92,0.00,0.62,1.38,4.00,4.92,3.38,3.85,5.38,4.62,6.15,,,,,,,,,,,,,,
1799999994205039097,2027-01-15T07:59:54.205039097Z,-1.38,-2.15,-0.92,1.08,-0.62,1.08,1.23,4.15,3.69,3.08,4.00,4.92,5.69,5.54,,,,,,,,,,,,,,
1799999994213727194,2027-01-15T07:59:54.213727194Z,-1.38,-2.92,-1.85,1.08,-1.54,2.46,-0.62,3.08,1.69,3.38,4.92,4.46,2.62,5.23,,,,,,,,,,,,,,
1799999994222415292,2027-01-15T07:59:54.222415292Z,1.08,-1.85,0.62,1.85,-0.62,2.00,0.62,1.38,1.85,4.31,5.38,2.92,1.69,6.15,,,,,,,,,,,,,,
1799999994231103389,2027-01-15T07:59:54.231103389Z,1.38,0.15,1.69,3.38,0.46,2.31,2.31,-0.15,1.23,4.31,5.69,1.85,4.92,7.08,,,,,,,,,,,,,,
1799999994239791486,2027-01-15T07:59:54.239791486Z,-1.85,-0.31,0.15,3.23,1.38,3.08,1.54,0.92,1.08,3.54,4.77,2.62,7.54,6.62,,,,,,,,,,,,,,
1799999994248479583,2027-01-15T07:59:54.248479583Z,-3.08,-2.31,-0.92,1.38,1.69,2.77,0.31,2.92,1.08,4.15,4.15,4.31,6.62,4.46,,,,,,,,,,,,,,
1799999994257167681,2027-01-15T07:59:54.257167681Z,-3.38,-0.31,0.00,0.92,0.92,1.08,1.38,2.77,1.23,5.23,4.62,4.92,5.38,4.00,,,,,,,,,,,,,,
1799999994265855778,2027-01-15T07:59:54.265855778Z,-1.23,0.77,-0.77,0.46,1.38,1.23,3.38,2.00,3.23,2.15,3.23,4.62,4.77,4.46,,,,,,,,,,,,,,
1799999994274543875,2027-01-15T07:59:54.274543875Z,-1.54,-0.46,-1.08,0.62,0.15,1.69,3.38,2.62,3.85,0.77,2.77,4.62,5.69,4.92,,,,,,,,,,,,,,
1799999994283231973,2027-01-15T07:59:54.283231973Z,-0.92,-2.77,0.92,1.54,-1.38,1.54,1.85,4.15,1.54,3.85,3.85,3.85,6.77,6.62,,,,,,,,,,,,,,
1799999994291920070,2027-01-15T07:59:54.291920070Z,0.77,-1.23,0.92,1.54,-0.46,1.69,2.31,3.23,0.92,4.92,3.23,3.38,6.15,6.00,,,,,,,,,,,,,,
1799999994300608167,2027-01-15T07:59:54.300608167Z,-0.31,-0.31,-0.15,0.46,0.15,2.46,2.46,2.46,2.62,3.38,3.54,3.54,5.69,3.85,,,,,,,,,,,,,,
1799999994309296265,2027-01-15T07:59:54.309296265Z,-1.38,0.00,0.15,-0.31,0.31,2.31,1.38,1.38,3.23,3.38,3.85,2.15,5.23,3.23,,,,,,,,,,,,,,
1799999994317984362,2027-01-15T07:59:54.317984362Z,-0.46,0.31,1.08,0.62,-0.15,1.69,2.31,0.31,1.54,4.31,2.62,2.92,4.77,3.85,,,,,,,,,,,,,,
1799999994326672459,2027-01-15T07:59:54.326672459Z,-0.31,-1.23,1.85,0.77,-0.46,1.08,3.69,0.62,1.08,3.85,2.31,5.54,6.00,4.46,,,,,,,,,,,,,,
1799999994335360557,2027-01-15T07:59:54.335360557Z,-0.77,-1.85,1.38,0.31,0.62,0.31,3.08,2.31,2.00,2.62,3.08,6.00,5.69,5.38,,,,,,,,,,,,,,
1799999994344048654,2027-01-15T07:59:54.344048654Z,-1.08,-0.46,0.62,2.00,0.77,1.08,2.92,1.23,1.38,2.46,3.69,4.92,3.69,4.77,,,,,,,,,,,,,,
1799999994352736751,2027-01-15T07:59:54.352736751Z,-0.62,0.62,0.62,2.77,1.54,0.77,3.38,0.62,2.46,2.62,3.85,4.92,5.85,6.15,,,,,,,,,,,,,,
1799999994361424848,2027-01-15T07:59:54.361424848Z,-1.69,2.00,0.31,0.92,3.08,0.77,2.77,0.46,3.69,2.77,4.77,4.00,8.77,7.54,,,,,,,,,,,,,,
1799999994370112946,2027-01-15T07:59:54.370112946Z,-1.08,2.31,0.31,0.00,2.46,3.38,2.31,-0.77,2.31,3.54,5.69,4.00,6.15,5.54,,,,,,,,,,,,,,
1799999994378801043,2027-01-15T07:59:54.378801043Z,-1.08,1.08,0.00,0.77,1.38,3.85,2.62,-0.77,1.08,3.54,5.08,5.69,5.08,5.08,,,,,,,,,,,,,,
1799999994387489140,2027-01-15T07:59:54.387489140Z,-3.08,-1.69,0.31,0.92,0.92,1.23,2.31,1.85,2.62,3.85,3.85,6.15,6.31,5.38,,,,,,,,,,,,,,
1799999994396177238,2027-01-15T07:59:54.396177238Z,2.15,-2.77,1.38,0.00,0.77,-0.77,1.23,2.15,3.85,4.92,3.69,4.46,6.15,3.69,,,,,,,,,,,,,,
1799999994404865335,2027-01-15T07:59:54.404865335Z,1.38,-1.85,0.92,-1.38,0.00,-1.08,2.46,0.92,2.92,4.77,4.31,3.08,5.69,2.00,,,,,,,,,,,,,,
1799999994413553432,2027-01-15T07:59:54.413553432Z,-0.92,-0.62,0.77,-2.46,0.31,0.77,4.62,1.38,2.62,4.00,4.00,3.54,6.62,2.46,,,,,,,,,,,,,,
1799999994422241530,2027-01-15T07:59:54.422241530Z,-1.08,-0.46,-0.31,-0.92,0.62,2.00,3.69,2.62,4.31,5.23,3.69,4.15,6.77,3.85,,,,,,,,,,,,,,
1799999994430929627,2027-01-15T07:59:54.430929627Z,-0.15,-0.62,-0.46,-0.15,0.46,1.54,2.46,3.69,4.31,4.46,4.46,3.23,6.62,4.92,,,,,,,,,,,,,,
1799999994439617724,2027-01-15T07:59:54.439617724Z,-0.46,-1.38,-1.54,-1.23,0.00,0.62,2.15,4.92,3.23,2.62,5.69,2.46,5.69,5.69,,,,,,,,,,,,,,
1799999994448305822,2027-01-15T07:59:54.448305822Z,0.46,-1.38,-1.38,-0.46,0.15,1.38,1.08,3.69,4.46,3.38,4.62,4.46,5.08,6.46,,,,,,,,,,,,,,
1799999994456993919,2027-01-15T07:59:54.456993919Z,0.31,-2.31,-1.08,1.38,2.00,1.54,1.85,2.31,4.31,3.85,3.85,6.00,4.15,5.38,,,,,,,,,,,,,,
1799999994465682016,2027-01-15T07:59:54.465682016Z,-0.31,-1.54,-1.08,0.77,2.92,0.92,2.62,2.31,2.31,3.23,3.23,4.77,4.46,3.08,,,,,,,,,,,,,,
1799999994474370113,2027-01-15T07:59:54.474370113Z,-1.54,1.69,-0.46,-0.31,1.23,0.62,1.69,1.85,0.46,3.69,2.46,3.23,5.69,2.31,,,,,,,,,,,,,,
1799999994483058211,2027-01-15T07:59:54.483058211Z,-1.08,1.69,0.62,0.31,0.77,-0.15,1.85,2.15,1.69,3.69,3.54,3.85,5.85,4.00,,,,,,,,,,,,,,
1799999994491746308,2027-01-15T07:59:54.491746308Z,-2.92,-1.85,0.15,1.08,1.85,-1.85,2.31,2.77,3.54,2.31,6.00,4.46,4.62,5.38,,,,,,,,,,,,,,
1799999994500434405,2027-01-15T07:59:54.500434405Z,-1.85,-1.69,-1.08,1.38,1.23,0.00,3.08,3.08,4.00,2.46,6.31,3.38,3.38,6.00,,,,,,,,,,,,,,
1799999994509122503,2027-01-15T07:59:54.509122503Z,1.23,-0.15,0.46,0.92,1.08,1.08,3.23,3.08,3.85,2.77,5.85,3.54,3.23,6.00,,,,,,,,,,,,,,
1799999994517810600,2027-01-15T07:59:54.517810600Z,-0.31,-0.62,1.23,-0.15,1.23,1.85,2.15,1.85,4.77,3.23,6.00,3.38,4.31,4.62,,,,,,,,,,,,,,
1799999994526498697,2027-01-15T07:59:54.526498697Z,-0.31,-0.15,-0.31,0.15,1.69,1.69,1.38,0.77,4.92,3.54,4.46,2.92,5.23,4.00,,,,,,,,,,,,,,
1799999994535186795,2027-01-15T07:59:54.535186795Z,1.38,0.00,1.69,0.77,0.62,1.23,1.23,1.54,3.38,4.15,3.69,4.62,6.00,4.62,,,,,,,,,,,,,,
1799999994543874892,2027-01-15T07:59:54.543874892Z,1.69,-2.15,2.62,0.46,-1.23,0.00,1.08,2.46,2.15,4.15,4.46,4.31,5.38,5.69,,,,,,,,,,,,,,
1799999994552562989,2027-01-15T07:59:54.552562989Z,-0.92,-2.77,0.15,1.69,-0.77,0.46,1.54,2.46,1.54,3.54,4.15,2.46,4.46,6.77,,,,,,,,,,,,,,
1799999994561251087,2027-01-15T07:59:54.561251087Z,-0.46,-0.77,-0.46,2.31,1.08,1.85,1.85,2.77,0.92,3.08,3.38,3.08,4.00,7.08,,,,,,,,,,,,,,
1799999994569939184,2027-01-15T07:59:54.569939184Z,0.46,-0.31,0.77,0.77,0.92,1.38,1.23,4.15,2.31,3.23,3.23,3.85,3.85,5.54,,,,,,,,,,,,,,
1799999994578627281,2027-01-15T07:59:54.578627281Z,-1.69,-0.31,0.77,0.00,-0.77,1.23,4.00,3.08,4.00,4.62,4.15,3.69,3.85,4.00,,,,,,,,,,,,,,
1799999994587315378,2027-01-15T07:59:54.587315378Z,-1.08,-0.62,0.15,-0.46,-0.77,0.62,2.62,1.69,3.54,5.23,4.00,4.00,4.46,3.85,,,,,,,,,,,,,,
1799999994596003476,2027-01-15T07:59:54.596003476Z,1.54,-2.31,-1.38,-1.23,-1.54,0.15,-2.00,2.31,2.92,4.31,2.46,4.00,6.00,4.77,,,,,,,,,,,,,,
1799999994604691573,2027-01-15T07:59:54.604691573Z,-3.23,-2.92,-2.92,-0.46,-1.85,1.69,0.31,3.23,3.69,3.54,2.46,3.08,6.31,5.54,,,,,,,,,,,,,,
1799999994613379670,2027-01-15T07:59:54.613379670Z,0.31,-1.08,-1.08,-0.77,0.31,2.92,4.15,4.62,3.08,3.54,4.00,4.00,5.23,6.15,,,,,,,,,,,,,,
1799999994622067768,2027-01-15T07:59:54.622067768Z,-0.15,0.46,1.54,0.00,0.31,3.23,2.92,5.08,3.54,4.77,3.69,5.69,4.77,5.85,,,,,,,,,,,,,,
1799999994630755865,2027-01-15T07:59:54.630755865Z,-0.31,0.00,0.46,1.85,-1.38,2.62,0.77,4.00,3.69,3.69,2.15,6.00,4.31,5.69,,,,,,,,,,,,,,
1799999994639443962,2027-01-15T07:59:54.639443962Z,-0.77,-0.92,-1.54,1.38,0.62,1.54,1.23,2.77,2.92,1.08,2.62,4.31,1.38,6.00,,,,,,,,,,,,,,
1799999994648132060,2027-01-15T07:59:54.648132060Z,-0.15,-0.92,-1.08,-0.62,2.77,2.00,3.38,1.38,3.38,1.69,2.92,3.23,0.46,5.23,,,,,,,,,,,,,,
1799999994656820157,2027-01-15T07:59:54.656820157Z,0.15,0.46,0.31,0.15,1.54,2.31,4.92,2.46,2.92,4.00,3.38,4.46,5.23,4.77,,,,,,,,,,,,,,
1799999994665508254,2027-01-15T07:59:54.665508254Z,0.92,0.77,-0.92,-0.62,1.85,1.85,3.54,2.77,2.46,4.00,3.54,4.92,6.00,5.08,,,,,,,,,,,,,,
1799999994674196351,2027-01-15T07:59:54.674196351Z,1.69,1.54,-2.62,-2.31,2.62,0.15,0.62,2.77,1.38,3.85,2.77,5.69,3.85,5.38,,,,,,,,,,,,,,
1799999994682884449,2027-01-15T07:59:54.682884449Z,-0.77,-0.15,-0.31,-0.92,1.54,0.46,-0.46,2.92,1.38,4.62,2.62,5.23,6.00,4.77,,,,,,,,,,,,,,
1799999994691572546,2027-01-15T07:59:54.691572546Z,-0.31,-1.69,1.38,0.62,1.08,1.69,0.92,3.38,3.69,5.85,2.31,3.85,5.38,5.08,,,,,,,,,,,,,,
1799999994700260643,2027-01-15T07:59:54.700260643Z,-0.62,0.15,0.62,1.69,1.23,3.38,2.00,2.62,4.15,6.31,2.62,4.00,3.69,5.69,,,,,,,,,,,,,,
1799999994708948741,2027-01-15T07:59:54.708948741Z,-0.92,2.15,-0.62,1.54,1.23,3.69,1.69,2.92,3.23,4.77,5.08,4.46,3.85,6.92,,,,,,,,,,,,,,
1799999994717636838,2027-01-15T07:59:54.717636838Z,0.31,1.54,-0.15,2.31,1.38,2.46,0.77,2.46,2.77,4.15,6.77,3.69,4.15,8.92,,,,,,,,,,,,,,
1799999994726324935,2027-01-15T07:59:54.726324935Z,-0.77,-0.77,0.46,2.92,0.46,1.23,-0.31,0.92,1.38,5.08,4.46,3.85,4.15,9.23,,,,,,,,,,,,,,
1799999994735013033,2027-01-15T07:59:54.735013033Z,0.00,-1.85,0.31,0.62,0.15,1.08,0.92,1.23,1.69,4.15,2.31,4.62,4.92,6.46,,,,,,,,,,,,,,
1799999994743701130,2027-01-15T07:59:54.743701130Z,1.85,-0.77,0.46,-0.46,0.77,1.38,1.69,1.85,2.31,3.38,2.46,4.46,4.92,4.92,,,,,,,,,,,,,,
1799999994752389227,2027-01-15T07:59:54.752389227Z,-0.92,0.46,1.08,-1.69,1.54,2.31,2.77,2.92,3.69,1.38,2.92,4.62,5.85,3.85,,,,,,,,,,,,,,
1799999994761077325,2027-01-15T07:59:54.761077325Z,-0.62,0.77,1.38,-0.46,0.77,2.46,1.54,2.31,2.62,0.46,2.92,4.62,6.31,4.00,,,,,,,,,,,,,,
1799999994769765422,2027-01-15T07:59:54.769765422Z,2.15,1.08,1.23,0.62,0.92,1.85,1.38,1.08,2.15,-0.15,5.08,4.46,6.92,5.38,,,,,,,,,,,,,,
1799999994778453519,2027-01-15T07:59:54.778453519Z,1.23,0.15,0.92,1.54,1.85,0.92,2.46,1.23,2.77,0.77,5.54,5.38,7.38,5.85,,,,,,,,,,,,,,
1799999994787141616,2027-01-15T07:59:54.787141616Z,-2.62,-2.77,0.62,1.23,2.15,0.15,3.23,3.23,1.54,2.77,3.69,5.08,5.54,4.31,,,,,,,,,,,,,,
1799999994795829714,2027-01-15T07:59:54.795829714Z,-2.15,-2.92,0.31,0.46,2.00,-0.92,4.00,4.77,-0.46,4.15,2.62,4.46,4.15,3.38,,,,,,,,,,,,,,
1799999994804517811,2027-01-15T07:59:54.804517811Z,1.23,-2.31,-0.15,0.92,2.31,1.38,3.54,2.62,1.38,3.23,3.54,5.08,5.23,3.38,,,,,,,,,,,,,,
1799999994813205908,2027-01-15T07:59:54.813205908Z,0.00,-2.15,0.46,0.62,2.31,2.62,2.31,1.54,2.92,2.00,4.15,4.92,5.69,3.38,,,,,,,,,,,,,,
1799999994821894006,2027-01-15T07:59:54.821894006Z,0.77,-0.92,1.08,0.62,2.92,1.54,-0.46,0.31,2.92,0.77,3.85,4.92,5.23,3.54,,,,,,,,,,,,,,
1799999994830582103,2027-01-15T07:59:54.830582103Z,-1.69,-1.54,0.00,1.38,1.85,-0.92,0.00,1.54,2.46,3.38,3.23,5.38,5.08,4.15,,,,,,,,,,,,,,
1799999994839270200,2027-01-15T07:59:54.839270200Z,-2.15,-1.85,-1.38,0.77,-0.77,-0.31,1.08,1.85,2.77,4.62,3.38,4.77,4.15,5.69,,,,,,,,,,,,,,
1799999994847958298,2027-01-15T07:59:54.847958298Z,-2.15,-1.08,-1.85,1.23,-0.31,1.38,2.00,2.77,4.00,3.54,3.54,4.62,4.00,6.15,,,,,,,,,,,,,,
1799999994856646395,2027-01-15T07:59:54.856646395Z,0.00,-1.85,-0.31,2.00,2.31,0.62,2.77,4.15,4.46,4.77,2.46,5.38,4.92,4.92,,,,,,,,,,,,,,
1799999994865334492,2027-01-15T07:59:54.865334492Z,-0.31,-3.38,0.15,-0.31,2.62,-0.15,3.54,4.31,3.54,6.77,1.85,5.23,6.31,3.69,,,,,,,,,,,,,,
1799999994874022590,2027-01-15T07:59:54.874022590Z,-0.92,-2.62,-1.54,-1.85,1.08,1.38,3.23,3.38,2.92,4.92,3.23,4.46,7.08,3.23,,,,,,,,,,,,,,
1799999994882710687,2027-01-15T07:59:54.882710687Z,0.62,-0.92,-0.46,0.00,1.54,0.77,2.62,3.69,2.31,4.31,5.38,4.00,5.54,4.92,,,,,,,,,,,,,,
1799999994891398784,2027-01-15T07:59:54.891398784Z,-0.77,-0.62,0.46,-0.31,2.00,0.92,2.62,3.54,1.23,4.62,6.31,5.54,4.31,5.54,,,,,,,,,,,,,,
1799999994900086881,2027-01-15T07:59:54.900086881Z,-3.54,-1.54,1.23,-0.62,1.38,3.38,1.38,2.15,0.31,2.77,6.15,7.38,4.15,4.92,,,,,,,,,,,,,,
1799999994908774979,2027-01-15T07:59:54.908774979Z,-0.92,-1.85,0.31,1.54,2.15,3.54,0.77,0.31,2.92,3.69,3.69,6.46,3.38,4.00,,,,,,,,,,,,,,
1799999994917463076,2027-01-15T07:59:54.917463076Z,-0.46,-1.38,1.54,1.38,2.31,2.31,1.85,-0.15,5.85,6.00,2.31,4.77,3.23,4.62,,,,,,,,,,,,,,
1799999994926151173,2027-01-15T07:59:54.926151173Z,-0.62,-1.85,0.62,-0.31,1.23,0.77,2.31,1.85,4.46,4.77,2.00,4.15,4.00,6.46,,,,,,,,,,,,,,
1799999994934839271,2027-01-15T07:59:54.934839271Z,-1.08,-1.08,-2.00,0.15,0.62,-0.77,1.85,2.15,1.85,2.62,1.69,4.15,5.23,6.15,,,,,,,,,,,,,,
1799999994943527368,2027-01-15T07:59:54.943527368Z,-1.54,-1.23,-2.77,0.92,1.23,0.00,2.00,0.77,2.92,1.85,2.31,4.46,6.31,3.85,,,,,,,,,,,,,,
1799999994952215465,2027-01-15T07:59:54.952215465Z,-0.77,-1.69,-1.85,0.15,1.23,1.85,3.38,0.92,3.85,2.46,3.38,5.85,5.69,4.15,,,,,,,,,,,,,,
1799999994960903563,2027-01-15T07:59:54.960903563Z,-1.54,0.31,-1.54,0.77,0.15,2.46,3.23,1.08,3.23,5.08,4.31,5.08,6.15,6.31,,,,,,,,,,,,,,
1799999994969591660,2027-01-15T07:59:54.969591660Z,0.46,2.62,0.62,1.54,-0.15,1.69,2.62,1.08,3.23,6.00,4.00,4.46,6.46,7.38,,,,,,,,,,,,,,
1799999994978279757,2027-01-15T07:59:54.978279757Z,0.46,2.00,2.00,1.54,-2.00,1.08,1.69,1.85,2.77,3.38,3.08,5.38,5.08,6.31,,,,,,,,,,,,,,
1799999994986967855,2027-01-15T07:59:54.986967855Z,-0.92,-0.77,-0.92,0.46,-1.85,1.38,2.31,2.77,2.15,2.31,2.77,4.62,4.15,4.62,,,,,,,,,,,,,,
1799999994995655952,2027-01-15T07:59:54.995655952Z,-0.62,-1.23,-2.62,0.00,0.15,2.00,1.85,3.54,3.23,3.38,3.23,2.77,3.54,4.77,,,,,,,,,,,,,,
1799999995004344049,2027-01-15T07:59:55.004344049Z,-0.15,0.00,-1.38,1.85,0.77,2.31,0.92,3.54,2.15,2.77,5.23,2.92,3.23,4.77,,,,,,,,,,,,,,
1799999995013032146,2027-01-15T07:59:55.013032146Z,-0.62,-0.77,1.08,4.15,0.15,2.77,-0.15,2.92,0.77,2.77,7.23,3.69,2.92,3.54,,,,,,,,,,,,,,
1799999995021720244,2027-01-15T07:59:55.021720244Z,-0.92,-1.85,1.69,2.62,0.92,2.31,0.00,2.00,2.15,4.92,5.85,2.46,2.15,4.77,,,,,,,,,,,,,,
1799999995030408341,2027-01-15T07:59:55.030408341Z,-1.54,-0.77,0.31,-0.62,0.92,1.38,1.38,1.85,4.46,5.85,3.38,3.38,2.62,5.85,,,,,,,,,,,,,,
1799999995039096438,2027-01-15T07:59:55.039096438Z,-2.31,-0.77,-0.15,-1.23,0.92,1.69,3.08,2.77,3.85,3.23,3.69,5.08,4.62,4.62,,,,,,,,,,,,,,
1799999995047784536,2027-01-15T07:59:55.047784536Z,0.92,-0.92,-0.31,-0.92,1.08,1.85,3.54,2.92,2.62,2.46,4.46,4.92,5.08,5.69,,,,,,,,,,,,,,
1799999995056472633,2027-01-15T07:59:55.056472633Z,0.31,0.31,0.31,-0.15,0.46,0.92,3.85,2.15,2.46,4.46,4.00,3.69,4.31,7.08,,,,,,,,,,,,,,
1799999995065160730,2027-01-15T07:59:55.065160730Z,0.00,0.92,1.85,0.62,0.77,0.15,4.15,1.23,4.46,4.77,4.77,3.08,4.00,5.69,,,,,,,,,,,,,,
1799999995073848828,2027-01-15T07:59:55.073848828Z,1.69,1.23,0.46,0.00,1.08,1.08,2.77,1.23,4.92,2.92,5.54,2.46,3.23,6.31,,,,,,,,,,,,,,
1799999995082536925,2027-01-15T07:59:55.082536925Z,0.92,-1.08,-1.38,-0.46,0.31,2.15,2.15,2.31,3.38,2.15,4.46,4.31,3.23,6.77,,,,,,,,,,,,,,
1799999995091225022,2027-01-15T07:59:55.091225022Z,-0.46,-2.92,-0.62,-0.31,0.31,1.69,3.38,2.31,3.38,3.69,2.77,5.23,4.15,5.23,,,,,,,,,,,,,,
1799999995099913120,2027-01-15T07:59:55.099913120Z,-0.92,-2.31,0.00,-0.62,1.23,1.38,4.62,1.85,4.46,4.92,3.08,4.00,5.85,5.08,,,,,,,,,,,,,,
1799999995108601217,2027-01-15T07:59:55.108601217Z,-0.77,-2.31,-0.92,0.31,1.38,1.85,4.31,2.46,4.00,3.85,3.08,3.38,6.77,6.92,,,,,,,,,,,,,,
1799999995117289314,2027-01-15T07:59:55.117289314Z,-0.77,-2.92,0.31,0.46,0.15,0.92,2.46,2.00,3.08,4.15,0.92,4.15,5.69,6.46,,,,,,,,,,,,,,
1799999995125977411,2027-01-15T07:59:55.125977411Z,0.15,-0.62,-0.15,0.46,0.00,1.38,1.23,2.00,3.38,4.46,2.77,4.31,4.77,5.69,,,,,,,,,,,,,,
1799999995134665509,2027-01-15T07:59:55.134665509Z,-1.85,2.46,-1.85,0.15,0.77,2.62,0.00,2.77,4.00,2.46,4.92,4.00,4.77,4.62,,,,,,,,,,,,,,
1799999995143353606,2027-01-15T07:59:55.143353606Z,-2.62,1.54,-0.62,1.23,0.62,2.46,-0.15,2.62,3.08,1.85,1.85,4.31,4.31,2.77,,,,,,,,,,,,,,
1799999995152041703,2027-01-15T07:59:55.152041703Z,1.38,-0.15,-0.46,1.38,1.08,2.00,1.69,2.92,2.77,3.08,1.23,5.54,4.46,2.00,,,,,,,,,,,,,,
1799999995160729801,2027-01-15T07:59:55.160729801Z,0.31,0.62,-1.54,1.23,2.15,1.08,2.62,3.23,3.38,3.69,3.54,5.23,5.38,3.54,,,,,,,,,,,,,,
1799999995169417898,2027-01-15T07:59:55.169417898Z,0.31,1.23,-1.38,1.85,2.62,0.15,1.38,2.31,2.92,2.00,4.62,3.38,6.62,5.54,,,,,,,,,,,,,,
1799999995178105995,2027-01-15T07:59:55.178105995Z,0.15,-0.15,-0.15,3.08,2.92,0.46,0.31,1.08,1.38,0.00,4.15,3.85,6.46,6.92,,,,,,,,,,,,,,
1799999995186794093,2027-01-15T07:59:55.186794093Z,-0.15,-1.08,0.15,1.69,3.08,1.69,0.92,1.69,1.38,0.92,3.69,5.38,5.23,5.23,,,,,,,,,,,,,,
1799999995195482190,2027-01-15T07:59:55.195482190Z,-4.77,0.92,1.23,0.00,1.38,1.38,1.69,4.00,3.08,2.77,3.69,4.46,4.46,3.85,,,,,,,,,,,,,,
1799999995204170287,2027-01-15T07:59:55.204170287Z,-3.54,0.15,1.08,0.15,0.31,1.85,3.23,3.54,3.08,2.77,2.62,3.69,4.46,3.85,,,,,,,,,,,,,,
1799999995212858385,2027-01-15T07:59:55.212858385Z,-0.31,-1.69,-0.62,1.23,0.77,3.69,4.77,2.46,2.15,3.23,1.08,3.54,4.77,3.54,,,,,,,,,,,,,,
1799999995221546482,2027-01-15T07:59:55.221546482Z,0.15,-1.38,-1.54,0.92,0.00,2.62,2.77,3.69,3.69,4.15,1.54,3.38,4.15,4.62,,,,,,,,,,,,,,
1799999995230234579,2027-01-15T07:59:55.230234579Z,,-2.31,-1.85,0.92,-0.31,1.23,0.46,2.46,4.77,2.92,2.62,4.46,3.69,7.23,,,,,,,,,,,,,,
1799999995238922676,2027-01-15T07:59:55.238922676Z,-1.38,-1.69,-1.08,0.77,1.23,2.00,0.77,0.77,3.23,2.00,3.85,4.15,4.77,7.08,,,,,,,,,,,,,,
1799999995247610774,2027-01-15T07:59:55.247610774Z,-3.69,-1.38,0.00,0.46,2.46,1.69,2.15,1.23,1.23,3.38,3.23,2.77,6.00,4.77,,,,,,,,,,,,,,
1799999995256298871,2027-01-15T07:59:55.256298871Z,-1.85,-2.31,-0.15,-0.31,1.54,0.00,2.92,0.46,1.54,3.54,2.31,3.85,6.15,4.62,,,,,,,,,,,,,,
1799999995264986968,2027-01-15T07:59:55.264986968Z,-0.31,-0.62,0.62,1.08,0.31,1.38,1.54,0.92,3.23,1.69,3.54,5.23,5.38,6.31,,,,,,,,,,,,,,
1799999995273675066,2027-01-15T07:59:55.273675066Z,0.92,0.00,1.23,1.23,0.46,2.31,1.08,1.85,3.54,1.85,4.46,4.92,4.77,6.31,,,,,,,,,,,,,,
1799999995282363163,2027-01-15T07:59:55.282363163Z,-1.69,-1.69,2.15,1.85,0.00,1.08,0.92,2.31,3.08,2.92,3.85,4.31,4.62,4.77,,,,,,,,,,,,,,
1799999995291051260,2027-01-15T07:59:55.291051260Z,0.00,-1.08,0.00,1.23,0.15,1.69,2.31,1.85,2.31,2.77,4.15,5.38,6.62,3.69,,,,,,,,,,,,,,
1799999995299739358,2027-01-15T07:59:55.299739358Z,0.15,-0.77,0.00,1.54,0.00,2.31,1.54,1.38,2.77,3.23,3.38,4.92,6.77,4.31,,,,,,,,,,,,,,
1799999995308427455,2027-01-15T07:59:55.308427455Z,0.46,-0.46,1.08,0.92,0.00,0.62,0.62,1.85,3.85,4.00,2.00,4.77,5.08,5.38,,,,,,,,,,,,,,
1799999995317115552,2027-01-15T07:59:55.317115552Z,1.08,1.38,2.15,0.92,-0.15,-0.15,1.85,2.62,2.15,4.46,2.00,4.62,4.77,4.92,,,,,,,,,,,,,,
1799999995325803650,2027-01-15T07:59:55.325803650Z,0.46,1.54,1.23,0.92,-1.38,0.92,2.46,3.23,-0.15,3.69,2.62,4.62,5.85,5.08,,,,,,,,,,,,,,
1799999995334491747,2027-01-15T07:59:55.334491747Z,-0.15,-0.15,0.62,0.00,-0.62,1.23,0.77,2.62,1.38,3.54,1.85,6.00,5.54,5.54,,,,,,,,,,,,,,
1799999995343179844,2027-01-15T07:59:55.343179844Z,1.23,-2.62,1.08,0.00,1.69,1.23,1.08,0.62,3.38,5.08,4.31,5.85,5.69,4.31,,,,,,,,,,,,,,
1799999995351867941,2027-01-15T07:59:55.351867941Z,0.92,-1.38,0.92,0.46,1.38,1.08,2.15,0.31,3.38,3.69,5.54,5.38,5.85,6.46,,,,,,,,,,,,,,
1799999995360556039,2027-01-15T07:59:55.360556039Z,-0.15,1.54,0.92,0.62,0.15,0.15,2.46,1.85,3.69,1.08,5.23,6.00,5.23,9.38,,,,,,,,,,,,,,
1799999995369244136,2027-01-15T07:59:55.369244136Z,,0.31,1.54,-0.15,0.46,-0.15,0.00,3.38,2.62,2.77,6.62,5.23,4.00,7.38,,,,,,,,,,,,,,
1799999995377932233,2027-01-15T07:59:55.377932233Z,-1.23,-1.54,-0.46,-1.23,-0.15,0.15,-0.46,2.15,2.31,5.08,6.46,4.00,4.62,5.54,,,,,,,,,,,,,,
1799999995386620331,2027-01-15T07:59:55.386620331Z,-0.77,-0.77,-0.46,-2.46,-0.15,0.00,0.77,1.85,2.46,3.54,4.00,3.69,5.85,6.62,,,,,,,,,,,,,,
1799999995395308428,2027-01-15T07:59:55.395308428Z,-0.46,0.92,2.46,-1.85,0.62,0.31,0.62,2.46,1.08,0.92,2.62,3.38,5.69,6.77,,,,,,,,,,,,,,
1799999995403996525,2027-01-15T07:59:55.403996525Z,0.62,-0.62,1.08,-1.23,1.38,1.08,1.08,1.85,0.15,2.46,1.54,2.92,5.08,4.62,,,,,,,,,,,,,,
1799999995412684623,2027-01-15T07:59:55.412684623Z,-2.00,-1.69,-1.54,-1.69,1.38,1.85,2.15,1.69,0.46,5.38,0.46,3.85,6.00,4.31,,,,,,,,,,,,,,
1799999995421372720,2027-01-15T07:59:55.421372720Z,-1.23,0.46,-0.31,0.00,2.00,0.15,2.46,3.08,0.15,5.69,2.00,4.00,5.69,5.85,,,,,,,,,,,,,,
1799999995430060817,2027-01-15T07:59:55.430060817Z,-1.08,0.00,0.92,0.77,0.92,-0.31,2.77,3.69,0.92,5.23,2.62,3.23,5.54,5.54,,,,,,,,,,,,,,
1799999995438748914,2027-01-15T07:59:55.438748914Z,-1.08,-0.62,0.15,0.77,-0.31,0.00,2.46,2.92,3.54,5.23,3.38,2.31,4.62,4.15,,,,,,,,,,,,,,
1799999995447437012,2027-01-15T07:59:55.447437012Z,-0.46,1.08,-0.46,0.00,0.46,0.62,0.62,2.31,5.69,4.46,5.54,4.62,5.08,4.62,,,,,,,,,,,,,,
1799999995456125109,2027-01-15T07:59:55.456125109Z,3.08,-0.31,0.15,2.15,1.54,-0.62,-0.77,2.00,5.54,2.77,5.54,5.85,4.15,5.85,,,,,,,,,,,,,,
1799999995464813206,2027-01-15T07:59:55.464813206Z,-2.15,-1.54,0.31,2.15,2.00,-1.08,1.08,1.85,4.92,2.77,6.77,4.92,3.23,6.92,,,,,,,,,,,,,,
1799999995473501304,2027-01-15T07:59:55.473501304Z,-1.69,1.54,-0.77,0.77,1.23,0.31,3.85,2.15,4.62,3.54,9.38,5.38,3.54,6.15,,,,,,,,,,,,,,
1799999995482189401,2027-01-15T07:59:55.482189401Z,-0.31,2.92,-1.23,1.08,-0.46,2.15,5.08,3.38,3.69,2.77,7.85,6.92,4.00,4.92,,,,,,,,,,,,,,
1799999995490877498,2027-01-15T07:59:55.490877498Z,-0.15,-0.15,0.15,2.00,-0.62,3.38,3.85,3.38,3.54,2.92,3.69,6.15,4.00,4.77,,,,,,,,,,,,,,
1799999995499565596,2027-01-15T07:59:55.499565596Z,-0.46,-0.77,-0.15,2.15,0.92,2.15,1.54,1.69,3.38,3.85,3.38,4.46,4.62,5.54,,,,,,,,,,,,,,
1799999995508253693,2027-01-15T07:59:55.508253693Z,-0.92,0.00,-0.46,2.77,1.08,1.08,1.38,2.00,3.23,4.31,3.85,4.62,4.62,6.31,,,,,,,,,,,,,,
1799999995516941790,2027-01-15T07:59:55.516941790Z,-1.08,-0.62,-0.15,2.46,0.77,-0.15,3.08,2.92,3.54,3.69,3.85,4.15,3.69,6.62,,,,,,,,,,,,,,
1799999995525629888,2027-01-15T07:59:55.525629888Z,-0.46,-2.31,1.08,0.15,1.08,-2.46,3.38,1.85,3.08,1.08,2.62,2.92,3.69,6.00,,,,,,,,,,,,,,
1799999995534317985,2027-01-15T07:59:55.534317985Z,-0.31,-1.08,0.46,-0.92,0.46,-2.46,2.46,1.38,2.62,0.46,3.69,2.92,5.38,6.46,,,,,,,,,,,,,,
1799999995543006082,2027-01-15T07:59:55.543006082Z,1.54,0.15,0.77,1.38,-0.62,-0.15,3.38,2.46,3.23,2.92,5.08,3.08,6.00,7.85,,,,,,,,,,,,,,
1799999995551694179,2027-01-15T07:59:55.551694179Z,-2.62,-0.15,0.77,4.00,-0.46,1.08,4.77,3.23,4.31,3.54,4.31,3.54,4.00,7.23,,,,,,,,,,,,,,
1799999995560382277,2027-01-15T07:59:55.560382277Z,-1.69,-0.77,-0.92,3.08,1.23,2.31,3.85,2.92,4.46,3.23,3.23,3.69,3.23,4.92,,,,,,,,,,,,,,
1799999995569070374,2027-01-15T07:59:55.569070374Z,0.62,-1.08,-1.69,1.08,2.15,4.00,2.00,2.31,3.23,4.46,3.23,3.69,4.31,3.08,,,,,,,,,,,,,,
1799999995577758471,2027-01-15T07:59:55.577758471Z,0.62,-2.77,-0.62,0.15,0.46,3.23,1.08,1.38,2.62,5.54,3.54,3.69,1.38,4.15,,,,,,,,,,,,,,
1799999995586446569,2027-01-15T07:59:55.586446569Z,-1.38,-2.31,-0.15,0.15,-0.31,2.15,0.31,1.85,2.92,4.92,4.00,3.69,1.85,5.38,,,,,,,,,,,,,,
1799999995595134666,2027-01-15T07:59:55.595134666Z,-1.23,-0.15,-0.62,0.46,0.92,1.69,0.00,3.85,3.54,3.23,4.15,4.46,5.69,7.54,,,,,,,,,,,,,,
1799999995603822763,2027-01-15T07:59:55.603822763Z,-1.38,-0.77,-0.46,0.00,2.46,3.08,2.31,4.31,4.15,2.62,2.15,5.08,4.92,5.38,,,,,,,,,,,,,,
1799999995612510861,2027-01-15T07:59:55.612510861Z,-2.92,-2.15,0.15,-0.15,1.08,4.15,3.23,3.23,3.38,3.23,2.00,3.69,3.69,5.38,,,,,,,,,,,,,,
1799999995621198958,2027-01-15T07:59:55.621198958Z,-2.77,-1.38,-0.46,0.92,-0.77,4.00,2.46,2.15,2.15,2.77,3.54,3.23,4.62,6.62,,,,,,,,,,,,,,
1799999995629887055,2027-01-15T07:59:55.629887055Z,-1.38,0.92,-0.92,1.69,0.31,3.38,3.23,1.38,0.92,2.92,4.15,4.46,5.69,6.77,,,,,,,,,,,,,,
1799999995638575153,2027-01-15T07:59:55.638575153Z,-0.92,0.46,0.00,1.08,1.38,2.62,4.31,2.15,0.62,4.15,3.69,4.92,5.38,6.62,,,,,,,,,,,,,,
1799999995647263250,2027-01-15T07:59:55.647263250Z,-0.92,-2.62,0.15,0.46,0.77,2.00,3.23,4.15,2.31,3.85,3.85,4.31,4.15,5.85,,,,,,,,,,,,,,
1799999995655951347,2027-01-15T07:59:55.655951347Z,1.85,-2.62,0.77,0.46,0.46,2.00,1.69,3.69,3.69,2.62,5.08,4.46,5.38,4.92,,,,,,,,,,,,,,
1799999995664639444,2027-01-15T07:59:55.664639444Z,-0.77,-0.92,0.62,0.46,0.77,2.00,1.85,2.77,3.54,2.31,4.46,4.15,6.00,5.85,,,,,,,,,,,,,,
1799999995673327542,2027-01-15T07:59:55.673327542Z,-2.62,-0.92,0.15,0.31,1.08,0.77,2.00,2.46,2.92,3.54,2.15,4.31,4.62,7.08,,,,,,,,,,,,,,
1799999995682015639,2027-01-15T07:59:55.682015639Z,-2.46,-0.62,-0.15,-0.15,0.62,1.08,2.15,4.31,4.00,4.62,2.46,5.54,4.92,6.00,,,,,,,,,,,,,,
1799999995690703736,2027-01-15T07:59:55.690703736Z,-1.23,0.00,-1.38,0.15,0.46,2.62,2.92,3.54,3.85,4.92,4.62,4.77,5.85,5.08,,,,,,,,,,,,,,
1799999995699391834,2027-01-15T07:59:55.699391834Z,-1.23,-0.62,-2.31,0.31,1.38,2.00,3.38,1.69,3.23,4.15,4.62,3.69,6.15,4.77,,,,,,,,,,,,,,
1799999995708079931,2027-01-15T07:59:55.708079931Z,1.38,-2.31,-2.15,0.15,1.85,0.46,4.00,2.31,2.77,3.54,2.92,4.46,5.69,5.54,,,,,,,,,,,,,,
1799999995716768028,2027-01-15T07:59:55.716768028Z,1.69,-2.00,-0.46,0.92,0.92,0.77,3.69,3.23,2.00,2.92,2.92,4.77,5.69,5.85,,,,,,,,,,,,,,
1799999995725456126,2027-01-15T07:59:55.725456126Z,2.15,-0.77,0.46,0.15,0.62,1.85,2.15,2.77,1.54,3.38,4.00,3.69,5.54,4.31,,,,,,,,,,,,,,
1799999995734144223,2027-01-15T07:59:55.734144223Z,0.00,-0.31,-1.23,-1.69,0.77,2.00,-0.46,2.46,2.92,4.46,3.85,4.15,6.31,4.62,,,,,,,,,,,,,,
1799999995742832320,2027-01-15T07:59:55.742832320Z,0.77,-0.62,-1.85,-1.54,0.92,2.00,0.00,2.46,4.00,4.77,3.54,4.77,6.31,5.08,,,,,,,,,,,,,,
1799999995751520418,2027-01-15T07:59:55.751520418Z,0.92,-1.08,-0.15,-1.08,0.92,3.08,3.23,1.08,5.08,3.69,3.85,4.46,3.85,4.15,,,,,,,,,,,,,,
1799999995760208515,2027-01-15T07:59:55.760208515Z,0.92,-1.38,1.69,-2.15,-0.15,3.23,3.23,0.31,4.00,2.77,4.92,2.77,2.15,4.00,,,,,,,,,,,,,,
1799999995768896612,2027-01-15T07:59:55.768896612Z,-0.92,-0.62,1.08,-1.69,-0.77,1.69,0.77,1.69,0.31,3.23,6.31,1.23,3.69,5.23,,,,,,,,,,,,,,
1799999995777584709,2027-01-15T07:59:55.777584709Z,-1.38,0.46,-0.77,0.46,0.15,0.92,-0.62,3.23,-1.54,3.69,6.46,2.31,4.31,4.92,,,,,,,,,,,,,,
1799999995786272807,2027-01-15T07:59:55.786272807Z,-2.62,0.31,-0.92,2.00,1.08,2.46,0.00,2.92,1.38,2.46,6.00,4.31,3.38,3.54,,,,,,,,,,,,,,
1799999995794960904,2027-01-15T07:59:55.794960904Z,0.92,0.92,0.00,2.00,1.23,3.23,0.46,0.77,3.38,2.62,7.23,5.69,4.15,3.69,,,,,,,,,,,,,,
1799999995803649001,2027-01-15T07:59:55.803649001Z,1.54,0.46,-0.77,2.31,1.38,1.38,0.92,0.92,2.00,3.08,4.77,5.08,4.92,4.15,,,,,,,,,,,,,,
1799999995812337099,2027-01-15T07:59:55.812337099Z,2.00,-0.46,-0.77,0.92,1.38,0.92,1.69,1.54,2.77,2.92,3.38,4.62,4.77,4.92,,,,,,,,,,,,,,
1799999995821025196,2027-01-15T07:59:55.821025196Z,-0.31,-1.08,0.00,-0.92,1.23,2.31,2.92,1.23,3.23,2.46,3.69,5.08,4.31,6.15,,,,,,,,,,,,,,
1799999995829713293,2027-01-15T07:59:55.829713293Z,-0.62,0.46,0.00,0.31,1.23,2.46,2.92,0.46,1.54,3.85,3.85,5.23,3.38,5.23,,,,,,,,,,,,,,
1799999995838401391,2027-01-15T07:59:55.838401391Z,-2.62,1.69,-1.54,1.69,1.08,2.00,3.85,1.38,2.92,2.92,3.23,5.23,3.85,2.92,,,,,,,,,,,,,,
1799999995847089488,2027-01-15T07:59:55.847089488Z,0.46,0.15,-2.77,0.92,1.69,1.23,4.00,2.31,3.54,2.00,3.85,5.69,5.54,1.85,,,,,,,,,,,,,,
1799999995855777585,2027-01-15T07:59:55.855777585Z,0.77,-0.92,-0.31,1.23,0.77,1.23,2.00,2.00,1.38,3.38,4.15,5.69,5.69,2.77,,,,,,,,,,,,,,
1799999995864465683,2027-01-15T07:59:55.864465683Z,0.46,0.00,1.23,0.77,-0.77,2.00,0.92,2.46,2.15,4.31,4.46,4.92,4.62,4.00,,,,,,,,,,,,,,
1799999995873153780,2027-01-15T07:59:55.873153780Z,-0.31,-0.15,-0.77,-0.46,0.31,2.46,0.62,3.85,3.69,3.08,5.38,3.38,5.23,4.62,,,,,,,,,,,,,,
1799999995881841877,2027-01-15T07:59:55.881841877Z,-0.15,-1.85,-0.46,0.00,0.62,2.15,0.31,4.77,4.15,4.46,4.00,2.46,4.77,6.00,,,,,,,,,,,,,,
1799999995890529974,2027-01-15T07:59:55.890529974Z,1.23,-0.77,0.00,0.15,0.46,1.54,2.77,4.31,4.15,5.38,3.08,2.62,4.62,6.31,,,,,,,,,,,,,,
1799999995899218072,2027-01-15T07:59:55.899218072Z,-0.46,1.85,-1.69,2.31,1.85,0.77,5.54,2.62,3.85,3.54,3.69,3.23,5.69,5.54,,,,,,,,,,,,,,
1799999995907906169,2027-01-15T07:59:55.907906169Z,-0.62,0.92,-1.54,4.92,1.69,0.92,1.85,2.31,3.85,2.77,2.62,4.77,7.54,6.46,,,,,,,,,,,,,,
1799999995916594266,2027-01-15T07:59:55.916594266Z,-2.46,-3.23,-0.46,3.54,0.15,1.08,0.15,3.08,4.00,3.23,2.15,6.31,7.38,6.15,,,,,,,,,,,,,,
1799999995925282364,2027-01-15T07:59:55.925282364Z,-2.46,-5.54,-0.31,0.62,-0.62,0.77,1.85,3.69,2.31,4.00,2.31,6.00,5.54,4.62,,,,,,,,,,,,,,
1799999995933970461,2027-01-15T07:59:55.933970461Z,-0.92,-2.46,-0.15,-0.31,0.62,1.69,1.08,2.00,0.92,4.92,2.31,5.08,3.54,5.69,,,,,,,,,,,,,,
1799999995942658558,2027-01-15T07:59:55.942658558Z,-0.62,0.46,1.38,-0.46,1.69,3.08,0.62,1.08,2.00,5.23,3.08,5.23,4.31,6.77,,,,,,,,,,,,,,
1799999995951346656,2027-01-15T07:59:55.951346656Z,-0.77,-0.15,2.31,-0.15,0.77,2.77,2.15,2.46,4.46,4.00,2.77,4.31,6.15,5.69,,,,,,,,,,,,,,
1799999995960034753,2027-01-15T07:59:55.960034753Z,1.38,0.62,0.15,1.69,0.46,1.23,2.31,2.62,2.00,3.69,2.92,4.46,6.00,3.69,,,,,,,,,,,,,,
1799999995968722850,2027-01-15T07:59:55.968722850Z,0.92,-0.62,-1.54,2.00,0.92,1.08,1.85,2.31,0.62,3.85,2.62,4.77,6.00,3.54,,,,,,,,,,,,,,
1799999995977410948,2027-01-15T07:59:55.977410948Z,0.77,-2.46,-1.38,0.77,0.92,2.46,1.69,2.62,1.85,2.31,2.00,5.38,7.69,5.08,,,,,,,,,,,,,,
1799999995986099045,2027-01-15T07:59:55.986099045Z,-0.77,-1.08,-1.54,0.92,1.38,1.54,1.08,1.69,4.62,2.15,3.85,4.62,6.31,5.54,,,,,,,,,,,,,,
1799999995994787142,2027-01-15T07:59:55.994787142Z,-0.77,0.00,-0.92,0.15,1.08,-0.31,0.62,0.77,4.77,4.46,5.54,5.23,2.62,4.15,,,,,,,,,,,,,,
1799999996003475239,2027-01-15T07:59:56.003475239Z,0.62,-0.77,0.15,-1.54,1.23,0.62,0.92,1.23,3.85,5.54,4.15,4.15,2.46,5.38,,,,,,,,,,,,,,
1799999996012163337,2027-01-15T07:59:56.012163337Z,-2.46,0.15,1.54,-1.23,1.85,2.00,1.23,1.38,3.54,4.31,1.85,2.92,6.31,6.92,,,,,,,,,,,,,,
1799999996020851434,2027-01-15T07:59:56.020851434Z,-3.23,1.08,2.62,1.38,1.54,1.69,1.38,1.69,2.46,2.92,2.00,3.54,7.85,6.31,,,,,,,,,,,,,,
1799999996029539531,2027-01-15T07:59:56.029539531Z,,-1.23,1.69,2.15,1.54,1.54,2.00,2.62,0.46,1.85,3.23,4.15,6.62,5.69,,,,,,,,,,,,,,
1799999996038227629,2027-01-15T07:59:56.038227629Z,-2.62,-2.77,0.62,0.77,-0.15,0.77,2.62,2.15,2.00,2.77,3.23,4.46,6.00,5.08,,,,,,,,,,,,,,
1799999996046915726,2027-01-15T07:59:56.046915726Z,1.54,-0.92,2.00,1.08,-0.62,0.15,2.15,1.23,3.08,3.23,5.23,4.46,6.00,4.31,,,,,,,,,,,,,,
1799999996055603823,2027-01-15T07:59:56.055603823Z,1.69,0.92,4.15,0.92,0.92,-0.62,1.08,0.77,4.46,4.00,7.54,4.62,5.54,2.92,,,,,,,,,,,,,,
1799999996064291921,2027-01-15T07:59:56.064291921Z,-2.46,-0.62,2.15,-0.77,2.31,0.46,1.69,2.00,2.00,5.23,5.69,4.62,4.62,4.62,,,,,,,,,,,,,,
1799999996072980018,2027-01-15T07:59:56.072980018Z,-1.85,0.15,0.15,-1.08,1.38,0.15,3.23,2.62,-0.15,5.38,4.15,4.46,5.38,6.31,,,,,,,,,,,,,,
1799999996081668115,2027-01-15T07:59:56.081668115Z,-1.38,0.15,-0.15,-1.85,1.08,0.00,4.77,1.54,1.23,4.15,3.69,4.62,7.08,6.92,,,,,,,,,,,,,,
1799999996090356212,2027-01-15T07:59:56.090356212Z,-1.38,-1.54,-0.15,-1.85,1.23,2.00,4.92,0.15,4.15,3.85,2.31,4.92,6.15,6.31,,,,,,,,,,,,,,
1799999996099044310,2027-01-15T07:59:56.099044310Z,0.62,-2.00,-1.38,0.15,1.38,4.15,4.31,1.23,4.92,3.08,1.38,4.62,4.46,5.69,,,,,,,,,,,,,,
1799999996107732407,2027-01-15T07:59:56.107732407Z,0.62,-1.69,-1.69,1.69,2.00,4.62,4.46,3.85,3.08,2.15,1.69,4.15,4.77,4.77,,,,,,,,,,,,,,
1799999996116420504,2027-01-15T07:59:56.116420504Z,-1.23,-1.08,0.00,0.00,1.08,3.23,2.92,3.54,1.85,2.46,2.62,3.54,4.00,3.85,,,,,,,,,,,,,,
1799999996125108602,2027-01-15T07:59:56.125108602Z,-1.85,-1.38,-0.62,-0.77,0.62,3.23,1.38,2.31,2.62,2.46,3.08,3.54,3.69,4.00,,,,,,,,,,,,,,
1799999996133796699,2027-01-15T07:59:56.133796699Z,-1.85,-2.31,-2.15,0.31,1.38,3.69,0.31,3.08,4.77,2.46,3.38,4.31,5.69,4.92,,,,,,,,,,,,,,
1799999996142484796,2027-01-15T07:59:56.142484796Z,-4.31,-1.08,-1.38,-0.31,1.85,2.15,1.38,4.15,5.69,2.15,3.23,5.23,6.77,5.69,,,,,,,,,,,,,,
1799999996151172894,2027-01-15T07:59:56.151172894Z,0.00,0.46,-0.77,-0.46,1.54,0.46,2.92,2.92,5.38,2.46,3.08,4.77,5.69,5.38,,,,,,,,,,,,,,
1799999996159860991,2027-01-15T07:59:56.159860991Z,0.62,-0.46,-1.08,0.77,1.38,-0.15,1.85,1.38,4.15,3.54,3.85,3.54,5.54,4.46,,,,,,,,,,,,,,
1799999996168549088,2027-01-15T07:59:56.168549088Z,0.92,-1.38,-2.15,0.62,1.08,-0.31,0.00,2.15,4.46,3.38,5.38,4.15,5.69,4.62,,,,,,,,,,,,,,
1799999996177237186,2027-01-15T07:59:56.177237186Z,0.92,-0.62,-1.08,-0.15,0.62,0.15,-0.15,2.92,5.85,3.23,5.54,4.62,5.38,5.08,,,,,,,,,,,,,,
1799999996185925283,2027-01-15T07:59:56.185925283Z,0.00,-0.31,0.77,0.00,0.77,1.08,0.92,2.62,4.46,4.46,4.92,2.92,5.85,3.69,,,,,,,,,,,,,,
1799999996194613380,2027-01-15T07:59:56.194613380Z,-0.31,1.08,0.46,0.62,0.31,0.31,1.23,2.62,2.62,4.62,6.77,2.62,4.77,5.85,,,,,,,,,,,,,,
1799999996203301477,2027-01-15T07:59:56.203301477Z,0.62,1.38,-0.15,0.46,0.62,0.62,1.54,2.77,2.62,4.31,5.38,3.23,4.46,7.23,,,,,,,,,,,,,,
1799999996211989575,2027-01-15T07:59:56.211989575Z,-0.31,0.46,-1.08,0.46,1.08,2.46,2.46,1.85,1.08,3.69,2.00,3.08,6.15,5.69,,,,,,,,,,,,,,
1799999996220677672,2027-01-15T07:59:56.220677672Z,0.00,-0.77,-1.69,0.46,-0.46,2.00,3.38,0.77,2.00,4.00,2.62,4.46,6.31,6.46,,,,,,,,,,,,,,
1799999996229365769,2027-01-15T07:59:56.229365769Z,0.46,-0.77,-1.54,0.00,-0.46,1.08,3.23,1.23,2.92,4.77,4.31,5.85,4.77,6.92,,,,,,,,,,,,,,
1799999996238053867,2027-01-15T07:59:56.238053867Z,0.31,1.69,-0.62,0.46,0.62,1.38,1.54,0.31,1.54,2.92,4.31,6.15,3.54,4.00,,,,,,,,,,,,,,
1799999996246741964,2027-01-15T07:59:56.246741964Z,-0.92,2.77,0.15,2.46,-0.46,0.77,0.62,0.46,2.00,0.46,3.54,5.08,4.00,3.08,,,,,,,,,,,,,,
1799999996255430061,2027-01-15T07:59:56.255430061Z,0.31,1.23,0.77,3.85,-1.69,0.62,1.54,2.15,4.31,1.38,4.00,4.62,4.15,5.54,,,,,,,,,,,,,,
1799999996264118159,2027-01-15T07:59:56.264118159Z,-0.46,-0.46,1.08,2.31,-0.46,1.69,2.00,2.31,4.77,3.08,4.77,5.54,3.54,5.54,,,,,,,,,,,,,,
1799999996272806256,2027-01-15T07:59:56.272806256Z,-1.38,-0.77,1.69,0.62,0.62,1.54,1.23,1.38,3.08,2.77,5.54,6.00,3.69,4.46,,,,,,,,,,,,,,
1799999996281494353,2027-01-15T07:59:56.281494353Z,-0.92,-1.23,1.23,0.46,0.31,1.85,1.69,1.38,3.23,3.38,5.54,6.00,4.15,4.77,,,,,,,,,,,,,,
1799999996290182451,2027-01-15T07:59:56.290182451Z,0.15,-0.62,0.62,0.46,0.92,3.23,3.08,2.15,3.08,4.15,5.38,6.15,4.62,6.15,,,,,,,,,,,,,,
1799999996298870548,2027-01-15T07:59:56.298870548Z,-0.15,1.23,1.54,0.77,3.38,2.31,4.46,2.00,0.77,3.08,4.15,5.38,4.62,5.85,,,,,,,,,,,,,,
1799999996307558645,2027-01-15T07:59:56.307558645Z,-0.62,0.92,2.31,1.23,2.92,0.62,4.62,1.38,-1.08,3.38,2.46,3.69,4.77,5.85,,,,,,,,,,,,,,
1799999996316246742,2027-01-15T07:59:56.316246742Z,-0.46,-0.31,2.00,1.08,-0.15,0.77,3.69,1.85,-0.31,4.62,2.00,2.15,5.08,6.62,,,,,,,,,,,,,,
1799999996324934840,2027-01-15T07:59:56.324934840Z,-0.62,0.15,0.31,0.62,-0.31,1.69,3.54,1.38,2.00,3.85,3.08,2.77,4.62,7.23,,,,,,,,,,,,,,
1799999996333622937,2027-01-15T07:59:56.333622937Z,-0.62,0.46,-0.77,1.69,0.31,1.23,3.69,0.46,3.69,3.23,4.00,4.92,4.15,7.85,,,,,,,,,,,,,,
1799999996342311034,2027-01-15T07:59:56.342311034Z,0.62,-1.54,0.00,1.23,-2.62,2.00,4.15,1.85,3.08,4.46,3.23,6.00,4.00,6.77,,,,,,,,,,,,,,
1799999996350999132,2027-01-15T07:59:56.350999132Z,0.00,-1.54,0.62,0.31,-1.69,2.46,2.77,2.31,2.46,3.85,3.08,4.92,2.31,5.85,,,,,,,,,,,,,,
1799999996359687229,2027-01-15T07:59:56.359687229Z,-0.46,0.92,0.46,-0.77,0.15,2.31,1.23,2.31,2.62,2.00,3.38,3.23,0.77,3.38,,,,,,,,,,,,,,
1799999996368375326,2027-01-15T07:59:56.368375326Z,-1.23,2.46,-1.23,0.92,-1.08,2.15,3.23,3.85,2.46,2.31,4.00,3.23,3.69,2.77,,,,,,,,,,,,,,
1799999996377063424,2027-01-15T07:59:56.377063424Z,-0.77,0.92,-2.00,1.85,0.92,2.15,2.77,3.54,2.46,2.62,3.38,3.08,5.85,2.77,,,,,,,,,,,,,,
1799999996385751521,2027-01-15T07:59:56.385751521Z,-2.31,-2.46,-1.54,0.46,2.62,2.00,0.00,2.00,4.92,2.15,4.15,2.00,6.15,5.23,,,,,,,,,,,,,,
1799999996394439618,2027-01-15T07:59:56.394439618Z,-2.31,-2.77,-1.23,0.92,2.31,2.15,-0.77,2.00,5.69,2.77,5.08,3.54,6.77,6.77,,,,,,,,,,,,,,
1799999996403127716,2027-01-15T07:59:56.403127716Z,-1.38,-1.54,-0.62,3.23,2.00,2.15,1.23,4.46,3.08,4.00,4.00,6.77,6.31,5.38,,,,,,,,,,,,,,
1799999996411815813,2027-01-15T07:59:56.411815813Z,-0.62,-1.54,0.77,3.54,1.69,1.69,2.77,4.62,2.77,3.38,3.69,6.46,5.69,4.62,,,,,,,,,,,,,,
1799999996420503910,2027-01-15T07:59:56.420503910Z,0.46,-0.62,1.38,0.92,2.00,1.23,2.46,1.54,3.08,3.54,4.15,3.85,6.77,4.77,,,,,,,,,,,,,,
1799999996429192007,2027-01-15T07:59:56.429192007Z,-2.92,0.00,0.92,-0.46,2.00,0.77,2.15,1.23,2.62,4.00,3.69,2.77,7.08,4.77,,,,,,,,,,,,,,
1799999996437880105,2027-01-15T07:59:56.437880105Z,-2.31,-0.31,0.46,-0.31,1.85,0.31,2.31,3.23,1.38,3.54,2.46,3.54,6.15,5.54,,,,,,,,,,,,,,
1799999996446568202,2027-01-15T07:59:56.446568202Z,0.46,-0.62,1.38,0.31,1.85,0.46,2.62,2.92,2.77,4.46,3.08,3.38,5.54,4.92,,,,,,,,,,,,,,
1799999996455256299,2027-01-15T07:59:56.455256299Z,0.46,0.92,2.15,0.31,1.38,0.46,2.31,1.85,2.92,4.92,2.15,3.23,4.00,4.62,,,,,,,,,,,,,,
1799999996463944397,2027-01-15T07:59:56.463944397Z,0.00,0.92,1.38,-0.31,2.15,1.85,1.69,1.54,3.54,4.15,3.23,4.46,3.23,5.85,,,,,,,,,,,,,,
1799999996472632494,2027-01-15T07:59:56.472632494Z,0.77,-0.46,0.15,-0.62,0.62,2.46,0.00,2.92,4.46,4.15,4.62,5.54,5.08,6.31,,,,,,,,,,,,,,
1799999996481320591,2027-01-15T07:59:56.481320591Z,-0.46,-1.85,0.46,-0.15,-2.46,0.77,-0.62,2.15,4.00,5.08,3.85,4.77,6.77,5.69,,,,,,,,,,,,,,
1799999996490008689,2027-01-15T07:59:56.490008689Z,-0.77,-1.69,0.77,0.77,-2.46,0.15,1.38,0.31,3.69,4.46,4.00,3.38,6.00,5.08,,,,,,,,,,,,,,
1799999996498696786,2027-01-15T07:59:56.498696786Z,-2.00,-1.23,-0.15,0.00,0.31,1.38,0.62,2.15,4.92,2.77,4.62,3.69,5.85,4.46,,,,,,,,,,,,,,
1799999996507384883,2027-01-15T07:59:56.507384883Z,-2.15,-1.23,0.15,-0.31,1.38,1.08,-0.31,2.92,5.08,2.46,3.38,4.62,6.15,4.77,,,,,,,,,,,,,,
1799999996516072981,2027-01-15T07:59:56.516072981Z,2.00,-2.00,1.23,0.77,2.62,1.54,1.08,2.15,4.62,2.46,1.85,5.38,6.46,6.00,,,,,,,,,,,,,,
1799999996524761078,2027-01-15T07:59:56.524761078Z,1.23,-2.15,0.92,-0.31,2.46,3.23,0.31,4.46,4.77,2.31,4.31,5.08,5.38,6.31,,,,,,,,,,,,,,
1799999996533449175,2027-01-15T07:59:56.533449175Z,-1.69,-2.31,0.77,-1.23,1.54,2.00,-0.77,5.08,4.15,3.54,6.00,5.38,4.00,5.69,,,,,,,,,,,,,,
1799999996542137272,2027-01-15T07:59:56.542137272Z,-1.54,-1.85,-0.62,-0.46,2.15,1.08,1.08,3.23,3.69,4.15,4.77,5.54,4.00,5.08,,,,,,,,,,,,,,
1799999996550825370,2027-01-15T07:59:56.550825370Z,-1.38,-0.77,-2.15,0.92,2.15,3.08,3.08,2.00,4.15,3.69,3.69,4.77,4.46,5.08,,,,,,,,,,,,,,
1799999996559513467,2027-01-15T07:59:56.559513467Z,-1.38,-0.15,-2.62,1.38,1.08,2.92,2.62,2.31,3.85,3.85,2.92,4.31,4.15,4.46,,,,,,,,,,,,,,
1799999996568201564,2027-01-15T07:59:56.568201564Z,-0.92,-0.77,-2.00,0.46,0.46,0.15,1.38,3.23,2.62,4.77,1.85,4.46,4.92,4.92,,,,,,,,,,,,,,
1799999996576889662,2027-01-15T07:59:56.576889662Z,-0.77,-1.23,-0.46,0.92,1.08,1.85,1.69,3.38,2.00,4.00,2.00,3.85,6.15,4.46,,,,,,,,,,,,,,
1799999996585577759,2027-01-15T07:59:56.585577759Z,0.77,-0.92,0.15,0.46,1.54,2.00,2.00,2.92,2.46,3.54,3.08,4.00,5.54,4.46,,,,,,,,,,,,,,
1799999996594265856,2027-01-15T07:59:56.594265856Z,-1.38,0.00,-0.46,-1.08,1.85,-0.92,1.85,1.85,2.92,4.62,4.77,4.92,4.15,5.69,,,,,,,,,,,,,,
1799999996602953954,2027-01-15T07:59:56.602953954Z,-1.85,0.15,0.00,-0.46,1.38,0.46,3.23,1.69,1.38,5.23,3.69,4.62,4.15,7.38,,,,,,,,,,,,,,
1799999996611642051,2027-01-15T07:59:56.611642051Z,-1.38,-0.62,0.00,0.77,1.69,2.31,3.69,2.15,1.08,3.85,0.77,4.15,3.23,5.38,,,,,,,,,,,,,,
1799999996620330148,2027-01-15T07:59:56.620330148Z,1.38,-2.00,-1.69,0.46,1.54,1.38,1.08,2.15,3.23,2.15,1.08,4.46,3.54,3.85,,,,,,,,,,,,,,
1799999996629018246,2027-01-15T07:59:56.629018246Z,-0.92,-2.62,-3.38,0.62,1.08,0.00,-0.92,2.62,4.46,1.38,3.08,4.92,5.38,4.62,,,,,,,,,,,,,,
1799999996637706343,2027-01-15T07:59:56.637706343Z,-0.46,-1.38,-3.08,0.92,1.38,0.46,0.77,3.38,2.62,2.00,3.08,4.62,4.62,4.31,,,,,,,,,,,,,,
1799999996646394440,2027-01-15T07:59:56.646394440Z,2.46,0.00,-1.85,-0.15,1.08,1.69,2.31,3.69,0.92,2.77,2.62,4.62,3.38,3.38,,,,,,,,,,,,,,
1799999996655082537,2027-01-15T07:59:56.655082537Z,2.31,0.46,-0.77,-0.77,1.38,1.54,1.23,1.69,0.92,2.46,3.38,4.15,5.08,4.77,,,,,,,,,,,,,,
1799999996663770635,2027-01-15T07:59:56.663770635Z,-0.77,0.46,0.00,0.46,1.69,0.92,1.08,1.54,1.08,3.08,3.85,3.23,6.31,5.69,,,,,,,,,,,,,,
1799999996672458732,2027-01-15T07:59:56.672458732Z,-0.62,-0.15,0.31,1.69,2.00,0.00,2.46,2.77,1.69,4.62,3.54,2.00,5.69,4.46,,,,,,,,,,,,,,
1799999996681146829,2027-01-15T07:59:56.681146829Z,1.38,-0.62,-0.92,-0.31,2.62,-0.15,4.31,1.38,2.31,4.31,4.15,4.00,5.69,3.85,,,,,,,,,,,,,,
1799999996689834927,2027-01-15T07:59:56.689834927Z,-0.62,-2.00,-0.46,-1.69,2.31,1.54,4.77,0.15,1.69,3.38,5.08,6.00,5.08,4.46,,,,,,,,,,,,,,
1799999996698523024,2027-01-15T07:59:56.698523024Z,-0.15,-1.08,1.23,-1.08,0.46,2.31,3.23,1.23,0.62,3.54,5.23,5.85,4.77,4.46,,,,,,,,,,,,,,
1799999996707211121,2027-01-15T07:59:56.707211121Z,0.31,0.00,1.38,-1.08,-0.46,1.38,4.15,1.69,-0.15,4.92,4.31,5.08,5.23,4.92,,,,,,,,,,,,,,
1799999996715899219,2027-01-15T07:59:56.715899219Z,0.00,-0.62,1.69,0.00,0.92,2.00,5.38,0.46,0.46,4.92,3.85,5.08,5.69,5.85,,,,,,,,,,,,,,
1799999996724587316,2027-01-15T07:59:56.724587316Z,-0.15,-1.23,2.92,0.62,1.54,2.77,4.31,1.23,1.69,3.54,2.92,5.23,5.23,5.85,,,,,,,,,,,,,,
1799999996733275413,2027-01-15T07:59:56.733275413Z,1.23,0.00,1.54,1.38,1.08,2.00,3.23,1.38,2.31,3.85,3.08,5.23,4.46,5.08,,,,,,,,,,,,,,
1799999996741963510,2027-01-15T07:59:56.741963510Z,0.15,0.46,0.77,1.38,1.54,1.69,2.31,2.00,2.31,3.54,3.23,4.92,4.77,4.92,,,,,,,,,,,,,,
1799999996750651608,2027-01-15T07:59:56.750651608Z,1.08,0.15,0.62,0.00,1.08,1.23,0.62,4.46,1.54,2.15,2.31,4.15,5.23,4.92,,,,,,,,,,,,,,
1799999996759339705,2027-01-15T07:59:56.759339705Z,1.54,0.15,0.62,0.31,-1.08,-0.15,0.77,4.77,1.23,2.77,3.23,3.54,4.77,5.08,,,,,,,,,,,,,,
1799999996768027802,2027-01-15T07:59:56.768027802Z,1.23,0.62,-0.31,1.54,-0.15,-2.00,1.69,2.15,2.00,4.00,4.46,4.31,5.85,4.31,,,,,,,,,,,,,,
1799999996776715900,2027-01-15T07:59:56.776715900Z,-0.77,1.23,-0.92,0.92,0.77,-2.46,2.62,1.85,2.92,4.77,3.54,5.69,6.46,4.62,,,,,,,,,,,,,,
1799999996785403997,2027-01-15T07:59:56.785403997Z,-0.77,0.31,-0.46,1.08,-0.92,-1.69,3.85,3.69,4.31,5.08,3.54,6.00,5.54,5.69,,,,,,,,,,,,,,
1799999996794092094,2027-01-15T07:59:56.794092094Z,-1.08,0.92,0.31,2.92,-0.77,-2.15,4.15,2.77,4.92,4.15,5.23,4.92,5.38,5.85,,,,,,,,,,,,,,
1799999996802780192,2027-01-15T07:59:56.802780192Z,0.77,1.85,0.46,2.77,0.77,-0.77,2.62,1.69,4.00,2.92,4.77,3.85,5.38,4.77,,,,,,,,,,,,,,
1799999996811468289,2027-01-15T07:59:56.811468289Z,-0.31,0.31,1.08,0.15,1.23,0.15,1.23,3.69,2.15,4.00,2.31,3.23,4.92,3.38,,,,,,,,,,,,,,
1799999996820156386,2027-01-15T07:59:56.820156386Z,0.31,0.62,1.23,-0.77,1.23,0.15,1.69,3.38,1.85,4.77,2.46,3.08,4.92,4.15,,,,,,,,,,,,,,
1799999996828844484,2027-01-15T07:59:56.828844484Z,0.46,1.69,0.31,0.15,1.08,1.85,1.85,1.69,3.38,4.00,4.46,4.46,5.08,6.15,,,,,,,,,,,,,,
1799999996837532581,2027-01-15T07:59:56.837532581Z,-2.00,0.62,-0.46,2.15,0.77,1.38,1.23,2.77,4.00,4.15,4.62,5.23,4.62,6.15,,,,,,,,,,,,,,
1799999996846220678,2027-01-15T07:59:56.846220678Z,-0.46,0.46,-0.46,1.54,1.38,-0.62,2.77,2.92,2.62,4.92,3.69,3.23,4.77,5.08,,,,,,,,,,,,,,
1799999996854908775,2027-01-15T07:59:56.854908775Z,0.00,-1.23,0.15,0.31,1.69,0.77,3.69,2.00,3.23,4.46,3.54,2.62,5.69,5.38,,,,,,,,,,,,,,
1799999996863596873,2027-01-15T07:59:56.863596873Z,0.62,-4.77,1.23,-0.77,1.54,1.85,3.08,1.85,4.15,3.08,4.92,4.00,5.69,5.54,,,,,,,,,,,,,,
1799999996872284970,2027-01-15T07:59:56.872284970Z,-2.77,-5.23,1.69,-0.62,0.92,-1.38,2.31,1.85,2.62,2.62,6.46,3.69,5.08,5.08,,,,,,,,,,,,,,
1799999996880973067,2027-01-15T07:59:56.880973067Z,-0.77,-1.69,0.62,0.15,1.38,0.31,2.31,1.08,2.92,2.62,5.54,4.31,5.54,6.15,,,,,,,,,,,,,,
1799999996889661165,2027-01-15T07:59:56.889661165Z,-2.46,-0.46,-0.15,0.15,1.23,2.00,2.46,0.62,3.69,2.62,4.77,4.46,4.92,5.69,,,,,,,,,,,,,,
1799999996898349262,2027-01-15T07:59:56.898349262Z,-2.92,-2.15,0.00,0.46,-0.62,1.23,1.38,2.15,4.77,4.46,4.15,3.54,3.38,4.92,,,,,,,,,,,,,,
1799999996907037359,2027-01-15T07:59:56.907037359Z,0.92,-3.85,1.54,0.31,-2.00,1.85,-0.46,4.15,5.54,4.31,5.23,5.08,3.38,5.69,,,,,,,,,,,,,,
1799999996915725457,2027-01-15T07:59:56.915725457Z,0.46,-2.92,1.85,0.46,-1.23,3.85,0.77,3.54,4.77,1.85,4.92,6.00,4.77,5.23,,,,,,,,,,,,,,
1799999996924413554,2027-01-15T07:59:56.924413554Z,-4.15,-1.85,-0.15,0.92,0.77,2.62,2.92,1.69,4.15,1.54,4.62,4.77,5.69,5.08,,,,,,,,,,,,,,
1799999996933101651,2027-01-15T07:59:56.933101651Z,1.54,-0.46,-1.85,0.62,1.08,0.62,2.62,2.46,5.08,3.08,6.15,4.15,5.23,6.31,,,,,,,,,,,,,,
1799999996941789749,2027-01-15T07:59:56.941789749Z,-0.31,-0.46,-1.69,0.15,-0.15,2.00,2.31,3.69,4.15,2.77,5.23,4.46,5.08,6.92,,,,,,,,,,,,,,
1799999996950477846,2027-01-15T07:59:56.950477846Z,-0.92,-1.69,-0.62,0.62,-0.31,3.54,2.46,1.38,0.77,1.85,2.31,4.15,5.38,6.62,,,,,,,,,,,,,,
1799999996959165943,2027-01-15T07:59:56.959165943Z,-3.08,-1.85,0.46,0.00,1.08,1.85,1.54,2.15,0.77,2.92,2.00,3.85,4.00,5.54,,,,,,,,,,,,,,
1799999996967854040,2027-01-15T07:59:56.967854040Z,-3.23,-1.23,1.23,0.31,1.38,2.46,1.23,3.38,1.54,3.23,1.85,3.38,3.08,5.08,,,,,,,,,,,,,,
1799999996976542138,2027-01-15T07:59:56.976542138Z,-2.77,-1.38,0.31,0.77,0.46,4.15,0.62,1.69,0.92,2.62,2.00,4.00,3.38,4.31,,,,,,,,,,,,,,
1799999996985230235,2027-01-15T07:59:56.985230235Z,-1.23,-2.46,-1.23,-0.46,0.92,2.31,0.77,2.92,4.00,3.08,3.69,5.54,4.00,4.46,,,,,,,,,,,,,,
1799999996993918332,2027-01-15T07:59:56.993918332Z,-0.62,-3.38,-1.54,0.77,0.31,0.62,2.31,3.85,5.23,3.69,3.54,5.38,4.31,5.38,,,,,,,,,,,,,,
1799999997002606430,2027-01-15T07:59:57.002606430Z,1.08,-3.54,-1.54,2.62,-1.08,1.38,3.85,2.15,1.54,4.46,2.77,3.54,3.54,6.62,,,,,,,,,,,,,,
1799999997011294527,2027-01-15T07:59:57.011294527Z,-1.38,-1.23,-1.23,2.15,0.15,2.46,3.38,0.92,-0.62,3.54,2.92,3.69,4.00,6.62,,,,,,,,,,,,,,
1799999997019982624,2027-01-15T07:59:57.019982624Z,-1.38,1.08,-1.69,0.92,2.92,1.85,1.38,1.69,1.69,1.38,3.85,5.08,5.54,5.85,,,,,,,,,,,,,,
1799999997028670722,2027-01-15T07:59:57.028670722Z,,0.62,-2.62,0.15,2.92,0.62,0.62,2.31,4.15,1.38,5.69,4.15,3.85,5.38,,,,,,,,,,,,,,
1799999997037358819,2027-01-15T07:59:57.037358819Z,-1.85,-1.85,-2.31,0.46,0.46,1.38,3.08,2.00,3.85,2.77,5.23,4.00,0.15,5.69,,,,,,,,,,,,,,
1799999997046046916,2027-01-15T07:59:57.046046916Z,-0.62,-1.69,-0.62,0.15,-1.08,1.85,1.54,2.00,4.31,2.62,4.46,4.31,2.62,6.00,,,,,,,,,,,,,,
1799999997054735014,2027-01-15T07:59:57.054735014Z,1.69,0.31,1.23,-1.38,-1.69,2.62,0.00,1.69,4.92,2.77,5.08,5.23,7.23,5.85,,,,,,,,,,,,,,
1799999997063423111,2027-01-15T07:59:57.063423111Z,-0.77,1.38,1.23,-1.85,-1.54,2.15,2.15,1.38,3.08,3.85,3.38,4.46,5.23,5.85,,,,,,,,,,,,,,
1799999997072111208,2027-01-15T07:59:57.072111208Z,-0.92,3.08,0.31,0.00,-0.92,1.08,0.31,2.15,2.62,3.38,2.31,3.85,4.92,6.46,,,,,,,,,,,,,,
1799999997080799305,2027-01-15T07:59:57.080799305Z,-1.38,3.85,0.77,2.15,-0.77,1.08,-1.23,3.08,3.85,3.23,3.54,3.23,5.23,6.31,,,,,,,,,,,,,,
1799999997089487403,2027-01-15T07:59:57.089487403Z,0.62,2.62,1.38,3.38,0.62,2.92,1.38,3.54,3.85,3.85,5.85,2.92,4.15,5.38,,,,,,,,,,,,,,
1799999997098175500,2027-01-15T07:59:57.098175500Z,0.77,0.62,0.31,2.31,2.62,3.08,3.23,4.46,2.46,3.85,6.31,3.69,5.38,4.46,,,,,,,,,,,,,,
1799999997106863597,2027-01-15T07:59:57.106863597Z,0.92,-1.54,-0.92,1.23,2.62,0.77,2.15,5.54,1.08,4.00,3.08,5.85,7.85,4.92,,,,,,,,,,,,,,
1799999997115551695,2027-01-15T07:59:57.115551695Z,-1.23,-1.08,-0.31,2.00,1.08,0.92,2.92,5.08,1.23,2.62,2.46,7.69,7.08,6.15,,,,,,,,,,,,,,
1799999997124239792,2027-01-15T07:59:57.124239792Z,-1.85,-0.62,0.15,1.23,1.08,1.85,3.23,4.31,2.00,1.85,2.77,5.69,5.69,6.46,,,,,,,,,,,,,,
1799999997132927889,2027-01-15T07:59:57.132927889Z,-2.00,-0.77,0.15,0.77,1.23,1.85,1.85,3.08,3.69,2.15,3.23,2.31,4.77,6.77,,,,,,,,,,,,,,
1799999997141615987,2027-01-15T07:59:57.141615987Z,-0.46,0.92,0.15,3.54,1.23,3.23,2.31,2.15,3.38,0.77,4.77,2.92,4.62,6.46,,,,,,,,,,,,,,
1799999997150304084,2027-01-15T07:59:57.150304084Z,-0.15,1.38,-0.77,2.46,1.38,2.77,0.77,2.92,1.69,2.46,6.15,4.00,4.31,6.92,,,,,,,,,,,,,,
1799999997158992181,2027-01-15T07:59:57.158992181Z,1.08,-0.62,-2.31,0.62,0.92,1.23,-1.54,4.77,2.00,5.69,4.46,3.08,3.23,6.31,,,,,,,,,,,,,,
1799999997167680279,2027-01-15T07:59:57.167680279Z,-1.54,-1.38,-2.00,1.23,0.92,0.62,0.00,4.31,3.69,5.54,3.38,1.69,3.85,4.77,,,,,,,,,,,,,,
1799999997176368376,2027-01-15T07:59:57.176368376Z,-0.15,-0.31,0.31,1.08,1.85,0.00,2.46,1.69,3.69,4.00,4.00,2.62,6.31,4.62,,,,,,,,,,,,,,
1799999997185056473,2027-01-15T07:59:57.185056473Z,-0.31,-1.54,0.92,0.62,2.00,-0.62,1.38,0.92,4.00,4.00,3.54,4.31,7.08,4.92,,,,,,,,,,,,,,
1799999997193744570,2027-01-15T07:59:57.193744570Z,-0.92,-1.23,0.00,1.54,0.92,0.62,3.08,2.00,4.15,3.08,2.31,3.54,5.23,4.15,,,,,,,,,,,,,,
1799999997202432668,2027-01-15T07:59:57.202432668Z,0.46,-0.15,0.00,1.54,0.62,1.23,4.15,1.23,4.00,2.77,2.77,2.62,3.85,5.38,,,,,,,,,,,,,,
1799999997211120765,2027-01-15T07:59:57.211120765Z,1.08,-0.15,-0.92,1.54,1.54,1.23,1.85,-0.77,4.31,4.77,3.54,3.08,4.15,6.00,,,,,,,,,,,,,,
1799999997219808862,2027-01-15T07:59:57.219808862Z,1.54,-1.08,-0.92,-0.62,1.85,2.46,3.54,0.31,4.92,6.00,2.77,2.62,5.08,3.08,,,,,,,,,,,,,,
1799999997228496960,2027-01-15T07:59:57.228496960Z,1.23,-1.08,1.38,-2.46,1.69,2.77,5.08,2.62,3.85,4.31,3.85,3.85,4.15,3.69,,,,,,,,,,,,,,
1799999997237185057,2027-01-15T07:59:57.237185057Z,3.23,-1.23,2.92,-0.46,1.08,1.69,2.62,3.54,3.23,2.92,4.77,5.69,2.92,5.85,,,,,,,,,,,,,,
1799999997245873154,2027-01-15T07:59:57.245873154Z,-0.92,-1.23,1.54,1.08,0.15,1.23,0.62,2.46,4.62,3.69,4.77,6.15,4.31,4.92,,,,,,,,,,,,,,
1799999997254561252,2027-01-15T07:59:57.254561252Z,-1.23,0.62,0.00,0.62,1.08,1.85,1.69,2.15,5.23,3.23,5.85,5.23,6.15,4.31,,,,,,,,,,,,,,
1799999997263249349,2027-01-15T07:59:57.263249349Z,-0.77,1.23,-0.92,0.77,3.23,1.54,3.08,2.62,3.69,1.54,5.54,4.31,7.23,6.31,,,,,,,,,,,,,,
1799999997271937446,2027-01-15T07:59:57.271937446Z,-2.00,0.15,-1.69,0.00,1.38,1.38,4.00,1.69,3.23,2.92,3.38,4.46,7.23,6.00,,,,,,,,,,,,,,
1799999997280625544,2027-01-15T07:59:57.280625544Z,-0.62,-1.08,-0.92,-0.31,0.00,1.69,4.92,0.31,2.62,4.15,2.15,4.46,6.46,5.38,,,,,,,,,,,,,,
1799999997289313641,2027-01-15T07:59:57.289313641Z,-0.46,-2.46,0.77,0.15,-1.08,2.00,6.31,-0.15,0.92,3.54,2.31,3.08,4.46,4.77,,,,,,,,,,,,,,
1799999997298001738,2027-01-15T07:59:57.298001738Z,1.69,-1.69,0.77,-0.77,0.77,1.08,4.77,1.54,1.54,3.38,3.23,3.69,3.85,3.08,,,,,,,,,,,,,,
1799999997306689835,2027-01-15T07:59:57.306689835Z,-1.85,0.46,0.31,-1.23,1.23,0.31,1.85,3.54,3.08,3.54,5.85,6.15,4.31,2.31,,,,,,,,,,,,,,
1799999997315377933,2027-01-15T07:59:57.315377933Z,-0.92,0.46,-1.08,-0.31,0.77,-0.15,0.31,3.23,2.77,3.08,7.54,6.15,5.54,3.54,,,,,,,,,,,,,,
1799999997324066030,2027-01-15T07:59:57.324066030Z,-1.54,-1.23,-1.85,0.92,1.23,0.77,0.15,2.31,1.85,2.15,5.08,4.31,6.62,4.15,,,,,,,,,,,,,,
1799999997332754127,2027-01-15T07:59:57.332754127Z,-2.77,0.15,0.62,0.92,1.54,1.85,-1.23,2.00,2.00,2.46,1.38,4.31,6.00,5.23,,,,,,,,,,,,,,
1799999997341442225,2027-01-15T07:59:57.341442225Z,-2.15,1.23,2.00,0.15,1.23,2.15,-0.77,1.69,2.92,3.54,1.85,4.92,5.69,6.77,,,,,,,,,,,,,,
1799999997350130322,2027-01-15T07:59:57.350130322Z,1.38,-1.38,-0.31,0.00,0.62,2.00,0.92,1.08,2.15,5.23,5.69,4.15,5.54,6.15,,,,,,,,,,,,,,
1799999997358818419,2027-01-15T07:59:57.358818419Z,-0.62,-0.46,-0.15,0.31,0.62,1.54,0.92,0.77,1.69,5.08,6.00,4.15,5.38,5.38,,,,,,,,,,,,,,
1799999997367506517,2027-01-15T07:59:57.367506517Z,-0.62,1.38,-0.15,0.31,0.62,1.54,2.46,0.92,3.08,3.54,5.23,4.31,4.62,5.08,,,,,,,,,,,,,,
1799999997376194614,2027-01-15T07:59:57.376194614Z,-1.08,-1.38,-2.46,-1.69,-0.31,2.31,2.00,1.85,4.31,4.00,5.38,4.15,4.92,4.15,,,,,,,,,,,,,,
1799999997384882711,2027-01-15T07:59:57.384882711Z,-1.38,-3.23,-2.00,-1.85,0.00,1.54,1.08,2.62,3.38,5.38,3.38,4.62,5.54,4.15,,,,,,,,,,,,,,
1799999997393570808,2027-01-15T07:59:57.393570808Z,-1.69,-1.85,-0.77,0.31,-0.62,0.15,1.54,3.38,2.31,4.31,2.46,3.54,5.69,4.62,,,,,,,,,,,,,,
1799999997402258906,2027-01-15T07:59:57.402258906Z,-3.08,-2.15,-1.54,0.92,-2.62,1.38,1.85,4.46,2.15,2.62,3.23,3.54,4.31,5.69,,,,,,,,,,,,,,
1799999997410947003,2027-01-15T07:59:57.410947003Z,-2.00,-4.00,-0.31,-0.15,-2.77,3.08,1.38,3.69,2.62,3.38,4.62,5.54,3.54,5.23,,,,,,,,,,,,,,
1799999997419635100,2027-01-15T07:59:57.419635100Z,-0.62,-2.92,2.31,0.15,-1.08,2.00,1.69,1.85,3.38,4.77,2.31,5.85,5.08,3.54,,,,,,,,,,,,,,
1799999997428323198,2027-01-15T07:59:57.428323198Z,-1.08,-2.15,2.31,0.77,0.92,2.00,2.46,1.23,3.23,4.31,1.38,5.23,5.08,4.62,,,,,,,,,,,,,,
1799999997437011295,2027-01-15T07:59:57.437011295Z,1.23,-2.77,0.77,1.08,3.08,2.62,2.92,1.38,2.31,3.54,3.85,4.31,4.00,5.54,,,,,,,,,,,,,,
1799999997445699392,2027-01-15T07:59:57.445699392Z,0.00,-2.31,0.62,-0.15,2.92,2.00,1.69,2.31,1.85,4.31,4.77,3.85,4.92,3.08,,,,,,,,,,,,,,
1799999997454387490,2027-01-15T07:59:57.454387490Z,0.31,-1.54,1.54,0.31,1.08,1.85,1.08,2.92,1.38,4.31,4.00,3.69,5.08,3.54,,,,,,,,,,,,,,
1799999997463075587,2027-01-15T07:59:57.463075587Z,-1.23,-1.54,0.92,0.92,0.31,0.77,0.31,3.85,2.46,5.38,3.85,3.69,4.15,4.77,,,,,,,,,,,,,,
1799999997471763684,2027-01-15T07:59:57.471763684Z,-1.69,0.46,-1.08,1.08,1.23,0.31,-0.46,4.00,3.54,4.62,3.23,4.31,4.31,4.62,,,,,,,,,,,,,,
1799999997480451782,2027-01-15T07:59:57.480451782Z,-1.85,1.69,-1.23,1.54,0.77,1.08,1.54,2.62,3.54,3.23,3.69,5.54,4.77,4.77,,,,,,,,,,,,,,
1799999997489139879,2027-01-15T07:59:57.489139879Z,-1.85,1.38,0.15,1.38,0.77,1.85,3.69,1.85,4.62,4.15,3.85,7.08,4.15,5.69,,,,,,,,,,,,,,
1799999997497827976,2027-01-15T07:59:57.497827976Z,-2.00,1.08,-0.31,0.62,2.46,1.69,2.46,2.92,3.69,4.00,2.62,6.92,4.77,4.46,,,,,,,,,,,,,,
1799999997506516073,2027-01-15T07:59:57.506516073Z,-0.62,0.77,-0.46,0.92,1.54,1.38,0.62,3.54,3.23,3.23,4.15,5.69,4.15,3.69,,,,,,,,,,,,,,
1799999997515204171,2027-01-15T07:59:57.515204171Z,-0.46,-0.77,-1.08,0.46,0.62,2.00,-0.15,2.92,3.85,3.23,6.92,3.38,3.08,4.00,,,,,,,,,,,,,,
1799999997523892268,2027-01-15T07:59:57.523892268Z,-0.46,0.46,-2.00,-0.62,1.85,2.31,0.92,2.00,2.77,3.23,5.54,4.46,4.00,4.77,,,,,,,,,,,,,,
1799999997532580365,2027-01-15T07:59:57.532580365Z,-0.15,1.23,0.15,0.15,0.15,1.23,2.62,2.00,1.54,2.00,5.38,4.77,4.92,4.31,,,,,,,,,,,,,,
1799999997541268463,2027-01-15T07:59:57.541268463Z,-0.15,2.00,1.69,1.23,-1.23,1.23,2.00,2.62,2.00,-0.15,4.15,3.85,4.31,3.69,,,,,,,,,,,,,,
1799999997549956560,2027-01-15T07:59:57.549956560Z,0.15,2.92,1.08,1.23,0.46,1.54,0.31,2.77,1.85,-0.62,2.77,3.54,3.54,4.46,,,,,,,,,,,,,,
1799999997558644657,2027-01-15T07:59:57.558644657Z,2.15,1.38,0.15,1.38,0.92,0.92,0.77,3.54,2.31,1.54,3.23,4.15,4.00,5.23,,,,,,,,,,,,,,
1799999997567332755,2027-01-15T07:59:57.567332755Z,-1.23,-1.08,-1.23,0.77,-0.46,1.54,1.54,2.46,3.85,3.69,4.46,4.15,5.54,4.92,,,,,,,,,,,,,,
