# spacing_uv=20.0
timestamp_ns,timestamp_iso,AF3,F7,F3,FC5,T7,P7,O1,O2,P8,T8,FC6,F4,F8,AF4,AF3_q,F7_q,F3_q,FC5_q,T7_q,P7_q,O1_q,O2_q,P8_q,T8_q,FC6_q,F4_q,F8_q,AF4_q
1799999990000000000,2027-01-15T07:59:50.000000000Z,,,,,,,,,,,,,,,,,,,,,,,,,,,,
1799999990007993606,2027-01-15T07:59:50.007993606Z,-0.52,,,,1.38,,,-0.69,2.41,4.83,4.14,,,,,,,,,,,,,,,,,
1799999990015987211,2027-01-15T07:59:50.015987211Z,-0.69,-0.86,2.41,-1.21,1.90,2.24,4.14,0.17,3.79,3.62,4.66,3.28,7.24,4.31,,,,,,,,,,,,,,
1799999990023980816,2027-01-15T07:59:50.023980816Z,-1.03,-1.21,0.52,-0.52,2.24,2.07,2.93,3.10,4.66,2.59,5.52,2.24,5.69,5.00,,,,,,,,,,,,,,
1799999990031974421,2027-01-15T07:59:50.031974421Z,-0.52,-0.52,-0.52,-0.17,1.03,2.07,1.38,5.00,3.28,3.79,5.34,3.45,5.69,5.69,,,,,,,,,,,,,,
1799999990039968026,2027-01-15T07:59:50.039968026Z,1.21,-0.52,0.52,-1.03,-0.69,2.24,1.38,3.28,2.76,4.83,4.48,5.86,7.24,5.52,,,,,,,,,,,,,,
1799999990047961631,2027-01-15T07:59:50.047961631Z,-2.41,-1.72,0.00,0.00,-0.52,2.07,1.38,1.03,2.76,3.28,4.83,6.03,5.86,7.07,,,,,,,,,,,,,,
1799999990055955236,2027-01-15T07:59:50.055955236Z,-1.03,-1.21,-1.03,1.03,-0.17,2.41,1.55,0.34,1.38,2.24,4.83,4.66,4.66,8.45,,,,,,,,,,,,,,
1799999990063948841,2027-01-15T07:59:50.063948841Z,-1.03,-0.86,-0.69,-0.17,-0.86,2.41,2.59,2.07,1.21,3.28,3.45,4.31,6.72,7.24,,,,,,,,,,,,,,
1799999990071942447,2027-01-15T07:59:50.071942447Z,-1.38,-1.55,0.34,-1.03,0.00,1.90,2.07,3.97,3.28,4.31,3.62,5.34,4.14,6.55,,,,,,,,,,,,,,
1799999990079936052,2027-01-15T07:59:50.079936052Z,0.17,-1.72,0.52,-0.52,0.34,2.07,1.03,4.83,4.83,4.31,5.34,5.52,-0.69,7.41,,,,,,,,,,,,,,
1799999990087929657,2027-01-15T07:59:50.087929657Z,0.00,-1.72,-1.21,-0.69,-0.52,1.21,2.07,3.97,4.31,3.79,5.00,5.86,2.07,7.07,,,,,,,,,,,,,,
1799999990095923262,2027-01-15T07:59:50.095923262Z,-3.10,-2.07,-3.45,-0.17,0.17,-0.17,3.62,2.59,3.62,2.59,3.45,6.55,7.93,6.21,,,,,,,,,,,,,,
1799999990103916867,2027-01-15T07:59:50.103916867Z,-3.28,-0.86,-3.62,0.86,1.38,-0.34,2.24,3.10,4.14,2.24,4.83,5.34,7.59,5.52,,,,,,,,,,,,,,
1799999990111910472,2027-01-15T07:59:50.111910472Z,1.21,-0.34,-0.69,1.55,1.72,0.52,-0.34,3.10,4.14,3.45,7.59,4.48,2.76,5.86,,,,,,,,,,,,,,
1799999990119904077,2027-01-15T07:59:50.119904077Z,-0.34,-3.10,0.86,0.17,0.69,0.69,0.86,2.76,2.93,2.59,6.55,6.90,1.03,6.03,,,,,,,,,,,,,,
1799999990127897682,2027-01-15T07:59:50.127897682Z,-0.17,-2.59,-0.52,-0.52,0.00,1.55,3.97,3.28,3.28,2.07,3.28,7.41,4.31,5.00,,,,,,,,,,,,,,
1799999990135891287,2027-01-15T07:59:50.135891287Z,2.93,1.03,-1.03,0.52,0.86,2.76,3.10,3.79,5.34,5.00,2.93,3.97,6.55,5.17,,,,,,,,,,,,,,
1799999990143884893,2027-01-15T07:59:50.143884893Z,-1.38,0.17,-0.17,0.00,1.38,2.59,1.03,4.14,4.48,7.07,5.52,2.07,5.34,7.24,,,,,,,,,,,,,,
1799999990151878498,2027-01-15T07:59:50.151878498Z,-1.90,-0.69,0.34,-0.69,0.00,1.21,1.21,3.28,2.07,5.52,5.17,3.79,5.52,6.55,,,,,,,,,,,,,,
1799999990159872103,2027-01-15T07:59:50.159872103Z,-0.69,2.24,1.03,0.34,-1.90,-0.17,2.24,1.90,2.93,4.83,2.76,5.34,7.24,3.62,,,,,,,,,,,,,,
1799999990167865708,2027-01-15T07:59:50.167865708Z,-1.21,0.34,0.00,-0.17,-0.34,-0.34,1.90,1.72,2.41,4.48,3.79,5.86,6.03,4.83,,,,,,,,,,,,,,
1799999990175859313,2027-01-15T07:59:50.175859313Z,-0.69,-1.21,-0.52,-0.52,0.52,-0.17,1.55,1.21,1.90,4.14,4.83,5.69,4.83,6.72,,,,,,,,,,,,,,
1799999990183852918,2027-01-15T07:59:50.183852918Z,-0.34,-0.86,-0.86,0.00,1.03,-0.52,2.41,1.55,2.24,4.66,3.10,4.66,5.17,6.03,,,,,,,,,,,,,,
1799999990191846523,2027-01-15T07:59:50.191846523Z,1.90,-0.52,-0.17,1.72,0.52,0.86,2.24,3.28,3.97,3.10,2.24,4.14,4.48,6.03,,,,,,,,,,,,,,
1799999990199840128,2027-01-15T07:59:50.199840128Z,-1.72,-1.38,-0.86,2.59,1.38,2.59,1.55,2.76,5.69,2.24,3.10,4.31,4.83,5.17,,,,,,,,,,,,,,
1799999990207833734,2027-01-15T07:59:50.207833734Z,1.38,0.52,-1.90,3.45,2.59,2.76,2.59,2.24,5.69,4.66,5.34,4.31,3.45,5.17,,,,,,,,,,,,,,
1799999990215827339,2027-01-15T07:59:50.215827339Z,-1.21,1.90,-1.21,2.93,2.93,2.41,3.97,3.79,5.00,6.21,5.00,4.66,1.55,6.21,,,,,,,,,,,,,,
1799999990223820944,2027-01-15T07:59:50.223820944Z,-1.21,1.21,1.21,1.03,1.38,2.41,3.45,3.97,5.69,3.97,1.90,5.17,4.14,6.03,,,,,,,,,,,,,,
1799999990231814549,2027-01-15T07:59:50.231814549Z,,0.52,2.59,-1.38,1.72,2.07,2.93,2.76,4.83,1.55,2.07,5.52,7.76,6.03,,,,,,,,,,,,,,
1799999990239808154,2027-01-15T07:59:50.239808154Z,-1.38,-0.17,1.03,-1.72,3.62,1.72,3.45,2.76,2.76,2.41,5.34,5.69,6.38,7.07,,,,,,,,,,,,,,
1799999990247801759,2027-01-15T07:59:50.247801759Z,0.52,0.52,-0.52,0.86,2.76,1.03,3.10,2.93,2.41,4.31,5.17,5.52,4.66,7.41,,,,,,,,,,,,,,
1799999990255795364,2027-01-15T07:59:50.255795364Z,0.69,1.38,-1.03,2.76,1.55,0.17,2.41,2.24,3.79,5.00,2.76,5.52,6.72,6.55,,,,,,,,,,,,,,
1799999990263788969,2027-01-15T07:59:50.263788969Z,-1.72,0.34,-1.03,1.90,2.07,0.00,1.90,1.38,4.66,4.83,2.93,5.17,6.72,5.52,,,,,,,,,,,,,,
1799999990271782574,2027-01-15T07:59:50.271782574Z,-2.93,-0.69,-0.34,1.38,1.55,1.38,1.55,1.55,3.97,4.48,4.14,3.79,4.31,5.17,,,,,,,,,,,,,,
1799999990279776180,2027-01-15T07:59:50.279776180Z,1.03,-1.55,0.17,0.86,0.34,2.59,2.93,2.59,3.28,3.79,4.83,2.59,3.97,6.90,,,,,,,,,,,,,,
1799999990287769785,2027-01-15T07:59:50.287769785Z,1.38,-0.69,0.52,-0.17,1.03,2.59,4.14,2.76,3.79,2.93,4.66,2.76,3.62,8.10,,,,,,,,,,,,,,
1799999990295763390,2027-01-15T07:59:50.295763390Z,2.41,-0.69,0.17,-0.69,2.07,2.59,3.10,2.76,4.83,2.24,4.14,3.62,1.55,6.90,,,,,,,,,,,,,,
1799999990303756995,2027-01-15T07:59:50.303756995Z,-1.21,-2.07,-0.52,0.52,2.24,1.72,1.55,3.28,5.34,2.76,3.97,4.48,3.62,5.17,,,,,,,,,,,,,,
1799999990311750600,2027-01-15T07:59:50.311750600Z,-0.86,-2.24,0.00,1.38,1.90,1.03,1.38,2.76,4.83,2.76,3.10,5.34,7.76,4.31,,,,,,,,,,,,,,
1799999990319744205,2027-01-15T07:59:50.319744205Z,-1.72,-1.21,0.86,0.00,0.00,0.86,2.24,2.24,3.79,2.24,2.76,4.83,8.28,4.83,,,,,,,,,,,,,,
1799999990327737810,2027-01-15T07:59:50.327737810Z,-2.07,-0.17,2.07,-0.86,-0.34,0.00,2.93,2.07,2.76,2.76,4.48,3.97,6.38,6.03,,,,,,,,,,,,,,
1799999990335731415,2027-01-15T07:59:50.335731415Z,-0.34,0.69,2.07,0.17,1.90,0.17,2.59,2.76,2.76,2.76,4.83,3.28,6.38,5.86,,,,,,,,,,,,,,
1799999990343725020,2027-01-15T07:59:50.343725020Z,0.00,1.21,0.00,0.52,2.41,2.24,1.90,3.45,3.62,2.76,2.24,2.59,5.86,4.31,,,,,,,,,,,,,,
1799999990351718626,2027-01-15T07:59:50.351718626Z,-1.21,0.52,0.17,0.52,1.03,3.10,1.38,1.90,3.97,3.62,2.76,2.41,5.34,4.48,,,,,,,,,,,,,,
1799999990359712231,2027-01-15T07:59:50.359712231Z,-0.86,-0.17,2.07,1.21,1.90,1.90,1.21,2.24,4.14,3.45,5.69,4.31,6.38,6.03,,,,,,,,,,,,,,
1799999990367705836,2027-01-15T07:59:50.367705836Z,-0.34,0.69,1.03,1.90,2.24,1.55,1.03,5.00,4.66,2.59,6.03,6.38,5.00,6.38,,,,,,,,,,,,,,
1799999990375699441,2027-01-15T07:59:50.375699441Z,-1.21,0.34,-1.72,1.21,-1.21,2.24,1.72,5.86,5.00,2.07,4.48,6.90,3.62,5.34,,,,,,,,,,,,,,
1799999990383693046,2027-01-15T07:59:50.383693046Z,-1.72,-0.34,-1.90,1.03,-3.45,1.55,2.93,5.00,4.14,0.52,3.62,5.86,5.00,5.69,,,,,,,,,,,,,,
1799999990391686651,2027-01-15T07:59:50.391686651Z,0.86,1.21,0.17,2.07,-0.69,0.86,2.76,5.00,2.07,0.00,2.93,4.83,3.45,6.90,,,,,,,,,,,,,,
1799999990399680256,2027-01-15T07:59:50.399680256Z,1.21,1.55,0.17,2.41,2.07,1.55,1.72,4.31,1.03,2.93,1.90,5.17,1.03,5.86,,,,,,,,,,,,,,
1799999990407673861,2027-01-15T07:59:50.407673861Z,-1.72,-0.17,-1.38,1.38,1.03,2.24,0.86,2.76,1.55,6.21,2.41,6.21,4.14,5.00,,,,,,,,,,,,,,
1799999990415667467,2027-01-15T07:59:50.415667467Z,0.34,0.17,-2.76,0.00,0.86,3.10,1.90,1.72,1.55,7.07,4.14,6.55,8.79,6.21,,,,,,,,,,,,,,
1799999990423661072,2027-01-15T07:59:50.423661072Z,1.03,1.21,-2.24,-1.21,3.10,4.14,2.59,2.76,0.69,6.38,4.48,5.52,7.93,6.21,,,,,,,,,,,,,,
1799999990431654677,2027-01-15T07:59:50.431654677Z,1.72,1.21,0.00,-1.90,2.41,2.76,1.38,4.48,0.69,5.86,3.28,5.00,5.69,5.17,,,,,,,,,,,,,,
1799999990439648282,2027-01-15T07:59:50.439648282Z,-1.90,0.52,-0.69,-1.03,1.21,0.34,0.17,4.48,2.24,4.83,4.66,5.86,6.03,5.69,,,,,,,,,,,,,,
1799999990447641887,2027-01-15T07:59:50.447641887Z,-2.41,0.34,-2.07,0.17,2.07,0.69,-0.34,2.76,2.59,3.28,6.38,6.21,6.21,6.21,,,,,,,,,,,,,,
1799999990455635492,2027-01-15T07:59:50.455635492Z,-1.38,0.17,0.34,0.52,1.72,2.59,-0.17,1.55,0.69,1.72,5.34,5.69,7.24,5.52,,,,,,,,,,,,,,
1799999990463629097,2027-01-15T07:59:50.463629097Z,-0.34,-1.55,2.07,0.86,0.17,3.10,0.69,2.24,0.69,1.72,3.79,5.00,7.59,6.55,,,,,,,,,,,,,,
1799999990471622702,2027-01-15T07:59:50.471622702Z,0.34,-1.72,-0.69,2.41,1.03,2.93,0.00,2.24,3.79,2.93,4.48,5.17,6.03,8.45,,,,,,,,,,,,,,
1799999990479616307,2027-01-15T07:59:50.479616307Z,-0.17,-0.34,-3.10,1.55,2.59,2.59,-1.03,2.41,4.66,3.97,4.66,6.03,5.86,8.97,,,,,,,,,,,,,,
1799999990487609913,2027-01-15T07:59:50.487609913Z,-1.03,0.00,-0.86,-1.21,1.90,2.41,-0.34,3.45,2.93,3.28,3.79,6.72,5.52,8.10,,,,,,,,,,,,,,
1799999990495603518,2027-01-15T07:59:50.495603518Z,-1.38,-0.86,0.52,-1.72,0.34,3.10,0.52,3.62,3.45,2.59,4.31,7.41,2.24,8.28,,,,,,,,,,,,,,
1799999990503597123,2027-01-15T07:59:50.503597123Z,-1.55,-1.72,-1.21,0.17,0.17,1.55,1.03,3.79,5.69,3.45,4.48,6.38,3.62,7.76,,,,,,,,,,,,,,
1799999990511590728,2027-01-15T07:59:50.511590728Z,-3.97,-1.72,-1.21,0.86,0.34,0.86,1.38,4.48,5.00,3.62,4.14,5.86,5.00,7.07,,,,,,,,,,,,,,
1799999990519584333,2027-01-15T07:59:50.519584333Z,-1.90,-2.59,-1.21,0.86,-0.86,2.07,1.21,4.66,2.76,2.93,5.00,5.34,5.86,5.69,,,,,,,,,,,,,,
1799999990527577938,2027-01-15T07:59:50.527577938Z,-1.72,-2.76,-1.90,1.03,-1.38,2.76,-0.52,3.62,2.07,3.79,5.52,4.83,2.93,5.86,,,,,,,,,,,,,,
1799999990535571543,2027-01-15T07:59:50.535571543Z,0.52,-1.72,0.69,1.90,-0.52,2.24,0.69,2.07,2.07,4.66,5.86,3.45,2.24,6.90,,,,,,,,,,,,,,
1799999990543565148,2027-01-15T07:59:50.543565148Z,1.03,0.34,1.55,3.62,0.34,2.59,2.41,0.52,1.38,4.48,6.03,2.24,5.52,7.76,,,,,,,,,,,,,,
1799999990551558753,2027-01-15T07:59:50.551558753Z,-2.24,0.00,0.00,3.28,1.38,3.45,1.55,1.55,1.21,3.97,5.17,3.10,8.10,7.41,,,,,,,,,,,,,,
1799999990559552359,2027-01-15T07:59:50.559552359Z,-3.28,-2.07,-1.03,1.38,1.72,3.10,0.34,3.62,1.21,4.48,4.66,4.83,7.07,5.34,,,,,,,,,,,,,,
1799999990567545964,2027-01-15T07:59:50.567545964Z,-3.62,0.00,-0.17,1.03,1.03,1.38,1.21,3.28,1.21,5.52,5.17,5.52,5.69,4.83,,,,,,,,,,,,,,
1799999990575539569,2027-01-15T07:59:50.575539569Z,-1.55,2.41,0.00,0.52,1.55,0.69,3.28,1.55,2.93,3.97,4.31,4.66,5.00,5.86,,,,,,,,,,,,,,
1799999990583533174,2027-01-15T07:59:50.583533174Z,-1.38,0.69,-1.38,0.17,1.55,1.90,4.83,2.41,4.83,0.86,2.59,5.17,4.66,5.17,,,,,,,,,,,,,,
1799999990591526779,2027-01-15T07:59:50.591526779Z,-2.41,-1.72,-1.03,1.21,-0.34,2.59,3.62,4.31,4.14,1.03,3.28,5.69,6.21,5.69,,,,,,,,,,,,,,
1799999990599520384,2027-01-15T07:59:50.599520384Z,-1.38,-2.41,0.86,1.72,-1.21,1.72,2.07,4.66,1.90,4.14,4.31,4.48,7.24,7.41,,,,,,,,,,,,,,
1799999990607513989,2027-01-15T07:59:50.607513989Z,0.52,-1.03,0.86,1.55,-0.34,1.90,2.41,3.62,1.03,5.17,3.79,3.97,6.55,6.72,,,,,,,,,,,,,,
1799999990615507594,2027-01-15T07:59:50.615507594Z,-0.52,-0.17,-0.17,0.34,0.34,2.76,2.41,2.93,2.76,3.79,4.14,4.14,6.03,4.66,,,,,,,,,,,,,,
1799999990623501200,2027-01-15T07:59:50.623501200Z,-1.72,0.17,0.00,-0.34,0.52,2.59,1.38,2.07,3.45,3.97,4.31,2.76,5.52,4.14,,,,,,,,,,,,,,
1799999990631494805,2027-01-15T07:59:50.631494805Z,-0.86,0.52,0.86,0.86,0.00,1.90,2.24,0.86,1.90,4.83,2.93,3.45,5.34,4.66,,,,,,,,,,,,,,
1799999990639488410,2027-01-15T07:59:50.639488410Z,-0.52,-1.03,1.72,1.03,-0.52,1.38,3.79,1.21,1.38,4.14,2.76,6.21,6.38,5.34,,,,,,,,,,,,,,
1799999990647482015,2027-01-15T07:59:50.647482015Z,-1.03,-1.72,1.38,0.34,0.69,0.69,2.93,2.76,2.24,3.10,3.62,6.55,5.86,6.21,,,,,,,,,,,,,,
1799999990655475620,2027-01-15T07:59:50.655475620Z,-1.55,-0.86,0.34,1.55,1.21,1.38,2.59,2.93,1.55,2.93,4.14,5.00,3.45,5.52,,,,,,,,,,,,,,
1799999990663469225,2027-01-15T07:59:50.663469225Z,-1.03,-0.17,0.52,3.28,0.52,2.41,3.45,1.03,1.55,3.28,4.31,5.52,4.14,5.52,,,,,,,,,,,,,,
1799999990671462830,2027-01-15T07:59:50.671462830Z,-0.69,1.38,0.86,2.76,1.72,1.03,3.62,0.00,3.10,2.93,4.31,6.03,8.28,7.59,,,,,,,,,,,,,,
1799999990679456435,2027-01-15T07:59:50.679456435Z,-2.07,2.24,0.34,0.86,3.28,1.03,2.76,0.86,4.14,3.10,5.17,4.66,9.31,8.28,,,,,,,,,,,,,,
1799999990687450040,2027-01-15T07:59:50.687450040Z,-1.38,2.41,0.34,0.00,2.76,3.45,2.24,-0.34,2.76,3.97,6.03,4.66,6.55,6.38,,,,,,,,,,,,,,
1799999990695443646,2027-01-15T07:59:50.695443646Z,-1.55,1.21,0.00,0.69,1.55,3.97,2.59,-0.34,1.55,3.97,5.52,6.21,5.52,5.86,,,,,,,,,,,,,,
1799999990703437251,2027-01-15T07:59:50.703437251Z,-3.28,-1.55,0.34,0.86,1.03,1.72,2.41,2.41,2.93,4.31,4.31,6.55,6.72,6.21,,,,,,,,,,,,,,
1799999990711430856,2027-01-15T07:59:50.711430856Z,1.90,-2.59,1.38,0.00,0.86,-0.34,1.38,2.59,4.14,5.34,4.14,5.00,6.55,4.48,,,,,,,,,,,,,,
1799999990719424461,2027-01-15T07:59:50.719424461Z,1.21,-1.72,0.86,-1.38,0.17,-0.69,2.41,1.21,3.10,5.17,4.83,3.62,6.03,2.59,,,,,,,,,,,,,,
1799999990727418066,2027-01-15T07:59:50.727418066Z,0.86,-0.52,0.69,-2.24,0.52,1.03,4.48,1.90,2.76,4.48,4.48,4.14,6.90,3.10,,,,,,,,,,,,,,
1799999990735411671,2027-01-15T07:59:50.735411671Z,-1.38,0.34,1.38,-1.21,1.03,2.76,3.97,2.59,4.66,5.69,3.62,5.00,7.76,4.66,,,,,,,,,,,,,,
1799999990743405276,2027-01-15T07:59:50.743405276Z,-2.24,-0.52,-0.52,0.00,0.52,2.24,2.41,3.28,5.69,6.38,4.14,4.66,7.07,5.69,,,,,,,,,,,,,,
1799999990751398881,2027-01-15T07:59:50.751398881Z,-0.52,-1.38,-2.07,0.17,0.34,0.69,2.59,4.66,4.31,4.48,5.52,3.28,6.03,5.69,,,,,,,,,,,,,,
1799999990759392487,2027-01-15T07:59:50.759392487Z,-0.86,-1.21,-1.55,-1.21,0.00,0.86,2.24,5.17,3.62,2.93,6.03,2.93,6.03,6.38,,,,,,,,,,,,,,
1799999990767386092,2027-01-15T07:59:50.767386092Z,0.17,-1.21,-1.21,-0.52,0.17,1.55,1.03,4.14,4.83,3.79,5.00,5.00,5.52,7.07,,,,,,,,,,,,,,
1799999990775379697,2027-01-15T07:59:50.775379697Z,0.00,-2.07,-1.03,1.38,2.07,1.72,1.90,2.93,4.48,4.31,4.31,6.38,4.48,6.03,,,,,,,,,,,,,,
1799999990783373302,2027-01-15T07:59:50.783373302Z,-0.52,-1.38,-1.21,0.69,3.10,1.21,2.59,2.76,2.41,3.62,3.79,5.17,4.83,3.97,,,,,,,,,,,,,,
1799999990791366907,2027-01-15T07:59:50.791366907Z,-1.90,1.90,-0.52,-0.52,1.38,1.03,1.72,2.24,0.69,3.97,3.10,3.79,5.86,3.10,,,,,,,,,,,,,,
1799999990799360512,2027-01-15T07:59:50.799360512Z,-1.55,2.07,0.69,0.17,1.03,0.34,1.90,2.76,1.90,3.97,4.14,4.48,6.03,4.66,,,,,,,,,,,,,,
1799999990807354117,2027-01-15T07:59:50.807354117Z,-3.28,-1.55,0.17,0.86,2.07,-1.55,2.41,3.45,3.79,2.41,6.55,5.00,4.83,6.21,,,,,,,,,,,,,,
1799999990815347722,2027-01-15T07:59:50.815347722Z,-3.28,-1.72,-1.38,1.38,1.38,-1.72,2.59,3.10,4.31,1.72,7.24,3.79,3.62,6.38,,,,,,,,,,,,,,
1799999990823341327,2027-01-15T07:59:50.823341327Z,-1.21,0.17,-1.03,1.72,1.21,1.21,3.28,3.62,3.97,3.10,5.86,3.62,2.93,6.72,,,,,,,,,,,,,,
1799999990831334933,2027-01-15T07:59:50.831334933Z,1.21,0.00,1.21,0.52,1.55,2.41,2.59,2.76,4.83,3.79,6.38,3.97,4.14,5.86,,,,,,,,,,,,,,
1799999990839328538,2027-01-15T07:59:50.839328538Z,-0.86,0.00,1.03,0.17,1.90,1.90,2.07,2.07,5.00,3.79,5.52,3.97,5.17,5.34,,,,,,,,,,,,,,
1799999990847322143,2027-01-15T07:59:50.847322143Z,0.86,0.17,1.55,0.86,0.86,1.55,1.21,1.90,3.62,4.48,4.14,5.34,6.38,5.34,,,,,,,,,,,,,,
1799999990855315748,2027-01-15T07:59:50.855315748Z,1.21,-1.90,2.59,0.52,-1.21,0.17,1.03,2.93,2.24,4.48,4.83,5.00,5.69,6.38,,,,,,,,,,,,,,
1799999990863309353,2027-01-15T07:59:50.863309353Z,-1.38,-2.59,0.17,1.72,-0.69,0.69,1.55,2.93,1.55,3.97,4.48,3.10,4.83,7.41,,,,,,,,,,,,,,
1799999990871302958,2027-01-15T07:59:50.871302958Z,0.52,-0.69,-0.69,2.41,1.21,2.07,1.90,3.28,0.86,3.45,3.62,3.79,4.48,7.76,,,,,,,,,,,,,,
1799999990879296563,2027-01-15T07:59:50.879296563Z,0.00,-0.17,0.52,0.86,1.03,1.72,1.38,4.48,2.41,3.62,3.62,4.48,4.31,6.38,,,,,,,,,,,,,,
1799999990887290168,2027-01-15T07:59:50.887290168Z,-2.59,-0.17,0.52,0.34,-0.69,1.21,3.10,3.45,4.48,4.66,4.48,3.45,3.79,4.83,,,,,,,,,,,,,,
1799999990895283773,2027-01-15T07:59:50.895283773Z,-0.86,0.52,0.00,0.17,-0.86,1.72,5.69,1.72,4.31,5.86,5.34,4.14,4.14,4.31,,,,,,,,,,,,,,
1799999990903277379,2027-01-15T07:59:50.903277379Z,-0.52,-0.52,0.17,-1.21,0.00,1.03,2.76,2.24,2.59,5.69,4.48,5.52,5.17,4.66,,,,,,,,,,,,,,
1799999990911270984,2027-01-15T07:59:50.911270984Z,1.21,-2.24,-1.38,-1.21,-1.55,0.69,-1.72,2.76,3.10,4.83,2.93,4.66,6.38,5.34,,,,,,,,,,,,,,
1799999990919264589,2027-01-15T07:59:50.919264589Z,-3.45,-2.76,-3.10,-0.52,-1.90,1.90,0.52,3.62,3.79,3.79,2.93,3.62,6.72,6.21,,,,,,,,,,,,,,
1799999990927258194,2027-01-15T07:59:50.927258194Z,-0.17,-0.69,-1.21,-0.86,0.52,2.93,4.14,5.00,3.28,3.97,4.48,4.66,5.69,6.90,,,,,,,,,,,,,,
1799999990935251799,2027-01-15T07:59:50.935251799Z,-0.34,0.86,1.38,0.00,0.52,3.62,2.93,5.52,3.79,5.17,4.31,6.21,5.34,6.72,,,,,,,,,,,,,,
1799999990943245404,2027-01-15T07:59:50.943245404Z,-0.34,0.34,0.34,1.90,-1.03,2.93,0.86,4.48,3.97,4.14,2.59,6.72,4.83,6.55,,,,,,,,,,,,,,
1799999990951239009,2027-01-15T07:59:50.951239009Z,-1.03,-0.69,-1.55,1.38,0.86,1.72,1.03,3.28,3.28,1.55,2.93,4.66,1.90,6.72,,,,,,,,,,,,,,
1799999990959232614,2027-01-15T07:59:50.959232614Z,-0.52,-0.69,-1.03,-0.52,2.93,2.07,3.28,1.90,3.62,1.90,3.28,3.62,1.03,6.03,,,,,,,,,,,,,,
1799999990967226220,2027-01-15T07:59:50.967226220Z,0.00,0.69,0.69,0.34,1.72,3.45,5.17,1.55,3.10,4.14,3.28,5.00,5.86,5.34,,,,,,,,,,,,,,
1799999990975219825,2027-01-15T07:59:50.975219825Z,-1.55,0.86,0.34,0.86,1.38,2.59,5.00,3.28,2.59,4.48,4.31,5.52,8.45,5.69,,,,,,,,,,,,,,
1799999990983213430,2027-01-15T07:59:50.983213430Z,0.69,0.69,-2.24,-1.55,2.76,0.86,3.10,4.14,2.93,3.62,4.14,5.34,5.52,6.38,,,,,,,,,,,,,,
1799999990991207035,2027-01-15T07:59:50.991207035Z,1.21,1.90,-2.59,-2.24,2.93,0.52,0.69,3.28,1.72,4.14,3.28,6.21,4.31,6.03,,,,,,,,,,,,,,
1799999990999200640,2027-01-15T07:59:50.999200640Z,-0.86,0.17,-0.34,-0.69,1.90,0.86,-0.34,3.45,1.55,5.17,3.10,5.69,6.38,5.52,,,,,,,,,,,,,,
1799999991007194245,2027-01-15T07:59:51.007194245Z,-0.69,-1.38,1.38,0.86,1.38,2.07,1.03,3.97,3.79,6.38,2.76,4.48,5.69,5.86,,,,,,,,,,,,,,
1799999991015187850,2027-01-15T07:59:51.015187850Z,-0.86,0.52,0.52,1.90,1.38,3.62,2.24,3.10,4.31,6.72,3.10,4.66,4.14,6.38,,,,,,,,,,,,,,
1799999991023181455,2027-01-15T07:59:51.023181455Z,-1.03,2.41,-0.69,1.72,1.38,3.97,1.90,3.28,3.28,5.17,5.52,5.00,4.31,7.76,,,,,,,,,,,,,,
1799999991031175060,2027-01-15T07:59:51.031175060Z,0.00,1.55,-0.17,2.41,1.55,2.76,0.86,2.93,3.28,4.48,7.07,4.31,4.48,9.66,,,,,,,,,,,,,,
1799999991039168666,2027-01-15T07:59:51.039168666Z,-1.03,-0.69,0.34,2.93,0.52,1.55,-0.17,1.38,1.72,5.34,4.83,4.48,4.48,9.83,,,,,,,,,,,,,,
1799999991047162271,2027-01-15T07:59:51.047162271Z,-1.21,-1.90,0.17,1.90,-0.34,0.86,-0.52,0.86,0.69,5.34,1.90,5.52,5.34,7.76,,,,,,,,,,,,,,
1799999991055155876,2027-01-15T07:59:51.055155876Z,-0.69,-1.55,0.34,0.00,0.34,1.55,1.03,2.07,2.07,4.14,2.76,5.17,5.34,5.69,,,,,,,,,,,,,,
1799999991063149481,2027-01-15T07:59:51.063149481Z,1.38,-0.52,0.52,-1.90,1.38,2.24,2.93,3.10,3.97,3.10,4.31,4.66,5.34,4.83,,,,,,,,,,,,,,
1799999991071143086,2027-01-15T07:59:51.071143086Z,-1.03,0.69,0.86,-1.55,1.55,2.59,2.76,3.62,3.97,1.90,3.45,5.34,6.38,4.66,,,,,,,,,,,,,,
1799999991079136691,2027-01-15T07:59:51.079136691Z,-0.86,0.86,1.21,-0.34,0.86,2.59,1.38,2.93,2.93,0.86,3.45,5.17,6.72,4.83,,,,,,,,,,,,,,
1799999991087130296,2027-01-15T07:59:51.087130296Z,1.72,1.21,1.03,0.69,1.03,1.90,1.21,1.55,2.41,0.17,5.52,5.00,7.24,6.21,,,,,,,,,,,,,,
1799999991095123901,2027-01-15T07:59:51.095123901Z,0.86,0.34,0.69,1.55,2.07,1.03,2.41,1.55,3.10,1.03,6.03,6.03,7.59,6.55,,,,,,,,,,,,,,
1799999991103117506,2027-01-15T07:59:51.103117506Z,-3.10,-2.59,0.52,1.21,2.24,0.52,3.28,3.45,1.72,3.10,4.31,5.69,5.86,5.00,,,,,,,,,,,,,,
1799999991111111112,2027-01-15T07:59:51.111111112Z,-2.59,-2.76,0.17,0.52,1.90,-0.52,4.14,5.00,-0.17,4.66,2.93,5.00,4.31,4.14,,,,,,,,,,,,,,
1799999991119104717,2027-01-15T07:59:51.119104717Z,1.55,-1.38,-0.52,0.86,2.59,0.17,4.66,4.66,0.69,4.83,3.45,5.69,5.52,4.31,,,,,,,,,,,,,,
1799999991127098322,2027-01-15T07:59:51.127098322Z,0.00,-2.41,-0.17,1.21,2.41,2.93,3.45,2.59,3.10,3.79,4.48,5.86,6.38,3.79,,,,,,,,,,,,,,
1799999991135091927,2027-01-15T07:59:51.135091927Z,0.00,-1.90,0.86,0.52,2.07,4.14,1.21,0.69,3.79,1.55,5.00,5.00,5.52,4.14,,,,,,,,,,,,,,
1799999991143085532,2027-01-15T07:59:51.143085532Z,0.69,-0.69,1.03,0.52,3.10,1.72,-0.17,0.86,2.93,1.21,4.31,5.34,5.52,4.31,,,,,,,,,,,,,,
1799999991151079137,2027-01-15T07:59:51.151079137Z,-1.90,-1.38,0.00,1.21,2.07,-0.52,0.00,1.90,2.76,3.79,3.62,6.03,5.52,5.00,,,,,,,,,,,,,,
1799999991159072742,2027-01-15T07:59:51.159072742Z,-2.41,-1.72,-1.38,0.86,-0.34,0.00,1.21,2.24,2.93,5.17,3.79,5.52,4.48,6.55,,,,,,,,,,,,,,
1799999991167066347,2027-01-15T07:59:51.167066347Z,-1.55,-1.72,-0.69,1.38,1.03,0.86,2.59,3.62,4.14,5.17,3.10,5.52,5.00,6.21,,,,,,,,,,,,,,
1799999991175059953,2027-01-15T07:59:51.175059953Z,-0.34,-2.07,-0.17,-0.17,2.41,0.86,3.28,4.48,4.14,5.69,2.93,5.69,6.38,5.34,,,,,,,,,,,,,,
1799999991183053558,2027-01-15T07:59:51.183053558Z,-1.38,-2.41,-1.55,-1.90,1.21,1.55,3.28,3.97,2.93,5.34,3.79,5.17,7.59,3.97,,,,,,,,,,,,,,
1799999991191047163,2027-01-15T07:59:51.191047163Z,0.34,-1.03,-2.07,-0.17,1.55,1.55,2.07,4.14,3.28,3.28,5.17,4.48,6.03,4.83,,,,,,,,,,,,,,
1799999991199040768,2027-01-15T07:59:51.199040768Z,0.00,-0.69,0.00,0.17,2.59,-0.17,2.41,4.66,2.59,5.00,6.21,4.66,4.48,6.21,,,,,,,,,,,,,,
1799999991207034373,2027-01-15T07:59:51.207034373Z,-1.90,-0.17,1.90,-1.55,2.24,1.03,2.76,3.97,0.86,5.52,7.41,6.21,4.66,6.72,,,,,,,,,,,,,,
1799999991215027978,2027-01-15T07:59:51.215027978Z,-3.79,-1.38,1.21,-0.52,1.55,3.45,1.38,2.76,0.52,3.10,6.90,7.93,4.48,5.69,,,,,,,,,,,,,,
1799999991223021583,2027-01-15T07:59:51.223021583Z,-1.21,-1.72,0.34,1.72,2.24,3.79,0.69,0.86,3.10,3.79,4.31,7.24,3.62,4.83,,,,,,,,,,,,,,
1799999991231015188,2027-01-15T07:59:51.231015188Z,0.69,-1.21,1.55,1.38,2.41,2.59,1.72,0.17,6.03,6.21,2.76,5.34,3.45,5.52,,,,,,,,,,,,,,
1799999991239008793,2027-01-15T07:59:51.239008793Z,0.52,-1.72,0.52,-0.34,1.38,1.03,2.24,2.24,4.66,5.00,2.59,4.83,4.14,7.41,,,,,,,,,,,,,,
1799999991247002399,2027-01-15T07:59:51.247002399Z,-1.38,-1.03,-2.07,0.17,0.69,-0.52,1.72,2.59,1.90,2.93,2.24,4.83,5.34,7.07,,,,,,,,,,,,,,
1799999991254996004,2027-01-15T07:59:51.254996004Z,-1.72,-1.21,-2.93,1.03,1.38,0.34,2.07,1.21,3.10,2.07,2.76,5.17,6.38,4.66,,,,,,,,,,,,,,
1799999991262989609,2027-01-15T07:59:51.262989609Z,-1.03,-1.55,-1.72,0.17,1.38,2.07,3.28,1.38,4.14,2.76,3.79,6.38,5.86,5.00,,,,,,,,,,,,,,
1799999991270983214,2027-01-15T07:59:51.270983214Z,-1.21,0.52,-1.90,0.34,0.34,2.59,4.14,1.38,2.59,4.48,4.83,6.55,6.03,7.07,,,,,,,,,,,,,,
1799999991278976819,2027-01-15T07:59:51.278976819Z,-1.21,1.90,-1.55,1.21,0.34,2.24,3.28,1.55,3.45,6.72,5.00,5.00,7.24,8.10,,,,,,,,,,,,,,
1799999991286970424,2027-01-15T07:59:51.286970424Z,0.17,2.76,1.38,1.90,0.00,1.90,1.90,1.72,4.48,6.38,4.14,4.66,6.72,8.45,,,,,,,,,,,,,,
1799999991294964029,2027-01-15T07:59:51.294964029Z,0.17,2.24,1.90,1.55,-1.90,1.38,1.72,2.24,2.93,3.79,3.45,5.86,5.34,7.24,,,,,,,,,,,,,,
1799999991302957634,2027-01-15T07:59:51.302957634Z,-1.38,-0.52,-0.86,0.34,-1.72,1.72,2.59,3.28,2.41,2.76,3.28,5.17,4.48,5.34,,,,,,,,,,,,,,
1799999991310951240,2027-01-15T07:59:51.310951240Z,-1.03,-1.03,-2.59,0.17,0.34,2.24,1.90,3.97,3.45,3.79,3.79,3.28,3.97,5.52,,,,,,,,,,,,,,
1799999991318944845,2027-01-15T07:59:51.318944845Z,-0.69,0.00,-1.38,2.07,0.86,2.59,0.86,3.97,2.41,3.10,5.52,3.45,3.62,5.52,,,,,,,,,,,,,,
1799999991326938450,2027-01-15T07:59:51.326938450Z,-0.69,-0.69,1.03,4.14,0.52,2.93,-0.17,3.45,1.21,3.10,7.59,4.14,3.28,4.31,,,,,,,,,,,,,,
1799999991334932055,2027-01-15T07:59:51.334932055Z,-1.03,-1.72,1.55,2.59,1.03,2.41,0.17,2.41,2.59,5.34,6.21,3.10,2.59,5.52,,,,,,,,,,,,,,
1799999991342925660,2027-01-15T07:59:51.342925660Z,-1.72,-0.69,0.34,-0.69,1.03,1.55,1.72,2.41,4.66,6.21,3.97,3.97,3.10,6.72,,,,,,,,,,,,,,
1799999991350919265,2027-01-15T07:59:51.350919265Z,-2.41,0.00,-0.17,-1.21,0.52,1.55,3.28,3.10,4.66,3.79,3.79,6.21,5.00,5.34,,,,,,,,,,,,,,
1799999991358912870,2027-01-15T07:59:51.358912870Z,-3.62,-1.21,0.00,-0.86,1.03,2.41,3.97,3.62,3.28,1.55,5.00,5.69,5.69,5.34,,,,,,,,,,,,,,
1799999991366906475,2027-01-15T07:59:51.366906475Z,0.86,-0.86,-0.52,-1.21,1.21,2.24,3.45,3.62,2.07,2.76,5.00,3.97,5.00,7.41,,,,,,,,,,,,,,
1799999991374900080,2027-01-15T07:59:51.374900080Z,0.00,0.34,0.34,0.00,0.52,1.03,3.79,2.59,2.76,4.83,4.31,4.31,4.66,7.76,,,,,,,,,,,,,,
1799999991382893686,2027-01-15T07:59:51.382893686Z,-0.17,1.03,1.72,0.69,0.86,0.52,4.14,1.55,4.66,5.00,5.17,3.62,4.31,6.55,,,,,,,,,,,,,,
1799999991390887291,2027-01-15T07:59:51.390887291Z,1.21,1.38,0.52,0.00,1.21,1.38,2.76,1.72,5.00,3.28,5.86,2.93,3.62,7.07,,,,,,,,,,,,,,
1799999991398880896,2027-01-15T07:59:51.398880896Z,0.69,-0.86,-1.55,-0.52,0.52,2.24,2.24,2.76,3.62,2.59,5.00,5.00,3.62,7.41,,,,,,,,,,,,,,
1799999991406874501,2027-01-15T07:59:51.406874501Z,0.52,-2.76,-0.69,-0.34,0.52,1.72,3.45,2.76,3.62,4.14,3.28,6.03,4.48,5.86,,,,,,,,,,,,,,
1799999991414868106,2027-01-15T07:59:51.414868106Z,-1.03,-2.24,0.00,-0.69,1.55,1.55,4.66,2.24,4.66,5.17,3.62,4.66,6.21,5.86,,,,,,,,,,,,,,
1799999991422861711,2027-01-15T07:59:51.422861711Z,-1.38,-2.24,-1.03,0.17,1.55,2.07,4.31,3.10,4.14,4.14,3.62,3.97,7.24,7.76,,,,,,,,,,,,,,
1799999991430855316,2027-01-15T07:59:51.430855316Z,0.69,-2.93,0.17,1.72,0.34,1.21,2.59,2.59,3.10,3.62,1.38,4.66,5.86,7.93,,,,,,,,,,,,,,
1799999991438848921,2027-01-15T07:59:51.438848921Z,-0.69,-2.76,1.38,0.52,-0.52,1.21,1.55,1.90,3.10,5.00,1.03,5.17,4.83,6.38,,,,,,,,,,,,,,
1799999991446842526,2027-01-15T07:59:51.446842526Z,-0.86,-0.17,-0.52,-0.86,0.17,2.41,1.38,2.59,4.14,4.83,4.48,5.00,5.17,6.03,,,,,,,,,,,,,,
1799999991454836132,2027-01-15T07:59:51.454836132Z,-1.90,2.76,-1.90,0.34,0.86,2.93,0.17,3.10,4.14,2.93,5.34,4.66,5.00,5.52,,,,,,,,,,,,,,
1799999991462829737,2027-01-15T07:59:51.462829737Z,-2.76,1.72,-0.52,1.38,0.69,2.59,0.00,2.93,3.10,2.24,2.41,4.83,4.66,3.62,,,,,,,,,,,,,,
1799999991470823342,2027-01-15T07:59:51.470823342Z,1.21,0.00,-0.34,1.38,1.03,2.07,1.72,3.28,2.93,3.45,1.72,6.03,5.00,2.76,,,,,,,,,,,,,,
1799999991478816947,2027-01-15T07:59:51.478816947Z,0.00,0.86,-1.55,1.21,2.24,1.21,2.76,3.62,3.79,3.97,3.97,5.69,5.86,4.14,,,,,,,,,,,,,,
1799999991486810552,2027-01-15T07:59:51.486810552Z,0.00,1.38,-1.55,1.90,2.76,0.34,1.38,2.76,3.28,2.24,5.00,3.97,6.90,6.38,,,,,,,,,,,,,,
1799999991494804157,2027-01-15T07:59:51.494804157Z,-0.17,0.00,-0.17,3.10,3.28,0.69,0.34,1.72,1.55,0.17,4.66,4.48,6.90,7.76,,,,,,,,,,,,,,
1799999991502797762,2027-01-15T07:59:51.502797762Z,-0.34,0.86,0.86,1.55,1.90,1.90,0.86,3.45,2.24,1.90,4.31,5.00,5.69,5.86,,,,,,,,,,,,,,
1799999991510791367,2027-01-15T07:59:51.510791367Z,-5.00,1.03,1.03,0.17,1.38,1.72,1.90,4.31,3.45,3.28,4.14,4.83,4.83,4.66,,,,,,,,,,,,,,
1799999991518784973,2027-01-15T07:59:51.518784973Z,-3.79,-1.03,0.86,1.21,0.34,2.24,3.62,3.45,3.28,2.41,2.76,4.31,4.83,5.34,,,,,,,,,,,,,,
1799999991526778578,2027-01-15T07:59:51.526778578Z,-0.69,-1.38,-0.86,1.38,0.86,3.97,4.66,2.93,2.41,3.62,1.55,4.14,5.34,4.14,,,,,,,,,,,,,,
1799999991534772183,2027-01-15T07:59:51.534772183Z,-0.17,-1.21,-1.55,1.03,0.00,2.93,2.76,4.14,3.97,4.48,1.90,3.97,4.48,5.34,,,,,,,,,,,,,,
1799999991542765788,2027-01-15T07:59:51.542765788Z,-1.72,-2.24,-1.72,1.03,-0.34,1.38,0.52,2.93,5.00,3.28,3.10,5.17,3.97,7.93,,,,,,,,,,,,,,
1799999991550759393,2027-01-15T07:59:51.550759393Z,-1.72,-1.55,-1.03,0.86,1.38,2.07,0.69,1.21,3.45,2.41,4.31,4.83,5.17,7.76,,,,,,,,,,,,,,
1799999991558752998,2027-01-15T07:59:51.558752998Z,-3.79,-1.38,0.00,0.52,2.76,1.90,2.24,1.55,1.55,3.79,3.79,3.28,6.38,5.34,,,,,,,,,,,,,,
1799999991566746603,2027-01-15T07:59:51.566746603Z,-2.07,-2.24,-0.17,-0.17,1.72,0.34,2.93,0.86,1.90,3.97,2.76,4.48,6.55,5.34,,,,,,,,,,,,,,
1799999991574740208,2027-01-15T07:59:51.574740208Z,-1.38,-1.72,-1.38,-0.34,0.52,0.86,2.93,0.86,3.45,2.07,3.79,6.55,6.55,6.90,,,,,,,,,,,,,,
1799999991582733813,2027-01-15T07:59:51.582733813Z,-0.69,0.34,0.52,1.38,0.52,2.93,1.38,2.24,3.79,1.90,5.17,5.86,5.69,7.76,,,,,,,,,,,,,,
1799999991590727419,2027-01-15T07:59:51.590727419Z,0.69,0.17,3.28,2.76,0.52,2.59,-0.17,2.59,3.62,3.10,5.00,4.14,4.31,6.90,,,,,,,,,,,,,,
1799999991598721024,2027-01-15T07:59:51.598721024Z,-1.72,-1.72,2.07,1.90,0.17,1.21,1.03,2.59,3.45,3.28,4.31,4.66,5.00,5.52,,,,,,,,,,,,,,
1799999991606714629,2027-01-15T07:59:51.606714629Z,-0.17,-1.03,0.00,1.21,0.34,1.90,2.59,2.24,2.59,3.10,4.48,5.69,7.24,4.31,,,,,,,,,,,,,,
1799999991614708234,2027-01-15T07:59:51.614708234Z,-0.17,-0.69,0.00,1.38,0.17,2.59,1.55,1.72,2.93,3.62,3.79,5.34,7.07,5.00,,,,,,,,,,,,,,
1799999991622701839,2027-01-15T07:59:51.622701839Z,0.17,-0.34,1.03,0.86,0.34,0.86,0.69,2.24,3.97,4.31,2.59,5.34,5.34,6.03,,,,,,,,,,,,,,
1799999991630695444,2027-01-15T07:59:51.630695444Z,0.86,1.55,2.07,1.03,0.00,0.17,1.90,2.93,2.41,4.66,2.41,5.34,5.17,5.86,,,,,,,,,,,,,,
1799999991638689049,2027-01-15T07:59:51.638689049Z,0.17,1.72,1.21,1.03,-1.21,1.21,2.59,3.62,0.17,3.97,2.93,5.34,6.21,5.86,,,,,,,,,,,,,,
1799999991646682654,2027-01-15T07:59:51.646682654Z,-0.52,0.00,0.52,0.17,-0.52,1.55,0.86,3.10,1.55,3.97,2.24,6.55,5.86,6.38,,,,,,,,,,,,,,
1799999991654676259,2027-01-15T07:59:51.654676259Z,1.38,-2.24,1.38,-0.17,1.90,1.55,0.17,2.07,3.97,5.52,3.45,7.07,5.34,5.17,,,,,,,,,,,,,,
1799999991662669865,2027-01-15T07:59:51.662669865Z,0.17,-3.79,1.03,0.34,1.90,1.90,1.72,0.86,3.62,5.69,6.21,5.86,6.03,4.66,,,,,,,,,,,,,,
1799999991670663470,2027-01-15T07:59:51.670663470Z,-0.17,-1.21,0.17,1.03,0.34,1.21,3.28,0.17,3.45,3.45,6.72,5.86,6.38,7.76,,,,,,,,,,,,,,
1799999991678657075,2027-01-15T07:59:51.678657075Z,-0.52,1.55,0.86,0.69,0.17,0.34,2.41,2.24,3.97,1.38,5.69,6.55,5.52,10.17,,,,,,,,,,,,,,
1799999991686650680,2027-01-15T07:59:51.686650680Z,,0.34,1.38,-0.17,0.52,0.17,0.00,3.79,2.93,3.10,7.07,5.69,4.48,8.28,,,,,,,,,,,,,,
1799999991694644285,2027-01-15T07:59:51.694644285Z,-1.72,-1.38,-0.52,-1.21,-0.17,0.52,-0.34,2.59,2.59,5.52,7.07,4.48,5.00,6.21,,,,,,,,,,,,,,
1799999991702637890,2027-01-15T07:59:51.702637890Z,-1.03,-0.69,-0.34,-2.41,0.00,0.34,0.86,2.24,2.59,3.79,4.48,4.14,6.21,7.41,,,,,,,,,,,,,,
1799999991710631495,2027-01-15T07:59:51.710631495Z,-0.69,1.03,2.41,-1.72,0.86,0.52,0.69,2.93,1.03,1.21,3.10,3.97,6.21,7.76,,,,,,,,,,,,,,
1799999991718625100,2027-01-15T07:59:51.718625100Z,0.17,-0.34,1.03,-1.03,1.55,1.38,1.03,2.24,0.17,2.93,1.90,3.62,5.69,5.52,,,,,,,,,,,,,,
1799999991726618706,2027-01-15T07:59:51.726618706Z,-2.07,-1.55,-1.72,-1.55,1.55,2.24,2.07,2.24,0.69,5.86,0.86,4.31,6.38,5.17,,,,,,,,,,,,,,
1799999991734612311,2027-01-15T07:59:51.734612311Z,-1.55,0.69,-0.86,-1.38,2.07,1.72,2.41,3.62,0.52,6.55,2.41,5.52,7.24,6.72,,,,,,,,,,,,,,
1799999991742605916,2027-01-15T07:59:51.742605916Z,1.03,1.03,0.86,0.34,2.07,-0.17,2.59,4.66,0.17,5.52,3.45,4.48,6.21,6.90,,,,,,,,,,,,,,
1799999991750599521,2027-01-15T07:59:51.750599521Z,0.69,-0.86,1.03,2.07,0.69,-1.21,3.28,4.14,1.21,5.17,2.59,2.41,4.48,5.86,,,,,,,,,,,,,,
1799999991758593126,2027-01-15T07:59:51.758593126Z,-1.38,-0.34,0.17,0.86,-0.34,0.34,2.59,3.28,3.79,5.69,3.79,2.59,4.83,5.00,,,,,,,,,,,,,,
1799999991766586731,2027-01-15T07:59:51.766586731Z,-0.69,1.38,-0.52,0.17,0.52,0.86,0.52,2.76,5.86,4.83,5.86,5.17,5.34,5.52,,,,,,,,,,,,,,
1799999991774580336,2027-01-15T07:59:51.774580336Z,2.76,-0.17,0.17,2.24,1.55,-0.52,-0.86,2.59,5.69,3.28,6.03,6.55,4.48,6.55,,,,,,,,,,,,,,
1799999991782573941,2027-01-15T07:59:51.782573941Z,2.41,-1.38,0.17,2.24,2.07,-0.86,1.03,2.41,5.17,3.28,7.24,5.52,3.62,7.59,,,,,,,,,,,,,,
1799999991790567546,2027-01-15T07:59:51.790567546Z,-2.07,1.55,-1.03,0.86,1.21,0.52,3.79,2.76,5.00,3.97,9.66,6.03,3.97,7.07,,,,,,,,,,,,,,
1799999991798561152,2027-01-15T07:59:51.798561152Z,-0.69,2.93,-1.38,1.03,-0.34,2.24,5.17,3.97,4.14,3.10,8.10,7.59,4.48,5.69,,,,,,,,,,,,,,
1799999991806554757,2027-01-15T07:59:51.806554757Z,0.52,0.00,0.00,2.07,-0.34,3.45,3.79,3.79,3.79,3.28,4.14,6.90,4.48,5.52,,,,,,,,,,,,,,
1799999991814548362,2027-01-15T07:59:51.814548362Z,-0.17,-1.55,1.03,2.41,1.03,2.76,1.55,2.07,3.45,4.31,2.59,5.00,5.00,6.55,,,,,,,,,,,,,,
1799999991822541967,2027-01-15T07:59:51.822541967Z,-0.17,-0.17,-0.34,1.90,1.21,1.55,0.52,1.90,3.10,4.14,4.48,5.17,5.34,6.90,,,,,,,,,,,,,,
1799999991830535572,2027-01-15T07:59:51.830535572Z,1.21,-0.52,-0.34,2.41,0.69,0.17,2.24,3.10,3.45,3.97,4.66,5.00,4.31,7.07,,,,,,,,,,,,,,
1799999991838529177,2027-01-15T07:59:51.838529177Z,-0.17,-0.69,-0.17,1.03,1.03,-1.03,2.93,2.76,3.28,2.41,4.31,4.66,4.14,6.90,,,,,,,,,,,,,,
1799999991846522782,2027-01-15T07:59:51.846522782Z,-0.52,-1.03,0.34,-0.86,0.52,-1.90,2.59,1.90,2.76,0.86,4.14,3.45,5.69,7.41,,,,,,,,,,,,,,
1799999991854516387,2027-01-15T07:59:51.854516387Z,1.21,0.34,0.69,1.55,-0.52,0.34,3.28,2.93,3.45,3.10,5.52,3.79,6.21,8.62,,,,,,,,,,,,,,
1799999991862509993,2027-01-15T07:59:51.862509993Z,-3.10,0.00,0.52,3.97,-0.17,1.38,4.66,3.79,4.48,3.79,4.83,4.14,4.14,7.93,,,,,,,,,,,,,,
1799999991870503598,2027-01-15T07:59:51.870503598Z,-1.90,-0.52,-1.03,3.10,1.55,2.59,3.79,3.45,4.66,3.62,3.97,4.14,3.62,5.69,,,,,,,,,,,,,,
1799999991878497203,2027-01-15T07:59:51.878497203Z,0.34,-0.86,-1.72,1.21,2.41,4.14,2.07,2.93,3.45,4.83,3.62,4.31,4.66,3.97,,,,,,,,,,,,,,
1799999991886490808,2027-01-15T07:59:51.886490808Z,0.52,-1.90,-0.86,0.52,1.21,3.97,1.72,2.24,2.76,5.86,3.28,4.83,1.72,2.93,,,,,,,,,,,,,,
1799999991894484413,2027-01-15T07:59:51.894484413Z,-2.07,-3.28,-0.17,0.17,-0.17,2.76,1.21,1.38,3.10,6.38,3.97,4.31,-0.52,4.66,,,,,,,,,,,,,,
1799999991902478018,2027-01-15T07:59:51.902478018Z,-2.07,-2.24,0.00,0.00,-0.52,1.72,-0.17,2.24,3.28,5.34,5.17,3.97,2.76,7.93,,,,,,,,,,,,,,
1799999991910471623,2027-01-15T07:59:51.910471623Z,-1.72,0.00,-0.52,0.52,1.21,1.90,0.17,4.14,3.79,3.79,4.66,5.00,6.21,8.28,,,,,,,,,,,,,,
1799999991918465228,2027-01-15T07:59:51.918465228Z,-1.72,-0.69,-0.52,0.00,2.59,3.28,2.24,4.66,4.31,3.10,2.59,5.52,5.34,6.21,,,,,,,,,,,,,,
1799999991926458833,2027-01-15T07:59:51.926458833Z,-3.10,-2.07,0.17,-0.17,1.21,4.31,3.10,3.62,3.62,3.62,2.41,4.31,4.14,6.21,,,,,,,,,,,,,,
1799999991934452439,2027-01-15T07:59:51.934452439Z,-3.10,-1.21,-0.34,0.86,-0.52,4.14,2.59,2.76,2.41,3.10,3.97,3.97,5.00,7.41,,,,,,,,,,,,,,
1799999991942446044,2027-01-15T07:59:51.942446044Z,-1.38,1.03,-0.86,1.55,0.52,3.62,3.45,1.90,1.21,3.10,4.66,5.17,6.03,7.59,,,,,,,,,,,,,,
1799999991950439649,2027-01-15T07:59:51.950439649Z,-1.03,0.69,-0.17,1.21,1.55,2.93,4.48,2.76,1.03,4.31,4.14,5.69,5.69,7.41,,,,,,,,,,,,,,
1799999991958433254,2027-01-15T07:59:51.958433254Z,-1.03,-2.41,0.00,0.52,1.03,2.24,3.28,4.66,2.76,4.14,4.14,5.00,4.31,6.55,,,,,,,,,,,,,,
1799999991966426859,2027-01-15T07:59:51.966426859Z,1.21,-2.59,0.69,0.69,0.52,1.55,1.38,5.17,4.66,2.93,4.83,5.17,5.17,5.52,,,,,,,,,,,,,,
1799999991974420464,2027-01-15T07:59:51.974420464Z,0.86,-0.69,0.86,0.52,0.69,2.07,1.72,3.62,3.97,2.24,5.69,5.17,6.90,5.86,,,,,,,,,,,,,,
1799999991982414069,2027-01-15T07:59:51.982414069Z,-3.10,-0.69,0.00,0.52,1.03,2.07,2.59,2.07,2.76,2.76,4.83,4.31,6.21,7.07,,,,,,,,,,,,,,
1799999991990407674,2027-01-15T07:59:51.990407674Z,-2.76,-0.86,0.17,0.34,1.21,0.86,2.07,2.93,3.28,3.97,2.59,4.83,4.83,7.76,,,,,,,,,,,,,,
1799999991998401279,2027-01-15T07:59:51.998401279Z,-2.76,-0.52,-0.17,-0.17,0.69,1.21,2.24,4.83,4.31,5.00,2.93,6.21,5.00,6.72,,,,,,,,,,,,,,
1799999992006394885,2027-01-15T07:59:52.006394885Z,-1.72,0.17,-1.38,0.34,0.69,2.76,2.93,4.14,3.97,5.34,5.17,5.34,6.03,5.69,,,,,,,,,,,,,,
1799999992014388490,2027-01-15T07:59:52.014388490Z,-1.72,-0.52,-2.41,0.34,1.72,2.24,3.45,2.24,3.28,4.48,5.00,4.14,6.38,5.69,,,,,,,,,,,,,,
1799999992022382095,2027-01-15T07:59:52.022382095Z,1.21,-2.07,-2.24,0.17,2.07,0.86,4.14,2.76,2.93,3.79,3.45,4.83,6.03,6.38,,,,,,,,,,,,,,
1799999992030375700,2027-01-15T07:59:52.030375700Z,1.38,-1.72,-0.34,1.03,1.21,1.03,3.79,3.62,2.24,3.28,3.45,5.17,6.03,6.72,,,,,,,,,,,,,,
1799999992038369305,2027-01-15T07:59:52.038369305Z,1.90,-0.52,0.52,0.34,0.86,2.07,2.24,3.28,1.55,3.62,4.31,4.31,5.86,5.17,,,,,,,,,,,,,,
1799999992046362910,2027-01-15T07:59:52.046362910Z,-0.69,0.00,-0.86,-1.55,1.03,2.59,0.00,2.76,2.76,4.66,4.31,4.14,6.03,4.31,,,,,,,,,,,,,,
1799999992054356515,2027-01-15T07:59:52.054356515Z,-0.34,-0.17,-2.07,-2.07,0.69,2.07,-1.72,3.10,4.14,5.52,3.79,5.17,6.90,5.86,,,,,,,,,,,,,,
1799999992062350120,2027-01-15T07:59:52.062350120Z,0.34,-0.69,-2.07,-1.03,1.03,2.24,0.00,3.10,4.83,5.00,3.97,6.03,6.72,6.21,,,,,,,,,,,,,,
1799999992070343726,2027-01-15T07:59:52.070343726Z,0.34,-0.86,-0.17,-1.03,1.03,3.28,3.28,1.72,5.17,3.97,4.31,5.17,4.31,5.00,,,,,,,,,,,,,,
1799999992078337331,2027-01-15T07:59:52.078337331Z,0.52,-1.21,1.72,-1.90,0.00,3.45,3.28,1.03,4.14,3.28,5.34,3.28,2.59,4.83,,,,,,,,,,,,,,
1799999992086330936,2027-01-15T07:59:52.086330936Z,-1.38,-0.52,1.03,-1.55,-0.52,1.90,0.69,2.07,0.69,3.62,6.72,1.90,4.14,6.03,,,,,,,,,,,,,,
1799999992094324541,2027-01-15T07:59:52.094324541Z,-1.72,0.52,-0.69,0.52,0.34,1.21,-0.52,3.62,-1.21,3.97,6.90,3.10,4.83,5.69,,,,,,,,,,,,,,
1799999992102318146,2027-01-15T07:59:52.102318146Z,-3.10,0.69,-0.86,2.24,1.21,2.76,0.00,3.45,1.72,2.93,6.38,5.00,3.79,4.48,,,,,,,,,,,,,,
1799999992110311751,2027-01-15T07:59:52.110311751Z,0.52,1.21,0.00,2.07,1.38,3.45,0.52,1.38,3.62,3.10,7.59,6.21,4.48,4.66,,,,,,,,,,,,,,
1799999992118305356,2027-01-15T07:59:52.118305356Z,1.21,1.03,-0.86,2.07,1.38,1.55,0.52,0.34,2.24,4.31,6.72,6.21,5.52,5.00,,,,,,,,,,,,,,
1799999992126298961,2027-01-15T07:59:52.126298961Z,2.93,0.00,-1.21,2.59,1.55,0.52,1.03,1.90,2.24,3.45,3.79,5.34,5.00,4.66,,,,,,,,,,,,,,
1799999992134292566,2027-01-15T07:59:52.134292566Z,1.90,-0.69,0.00,1.03,1.38,1.55,2.07,2.59,4.14,2.07,2.59,5.00,4.83,5.69,,,,,,,,,,,,,,
1799999992142286172,2027-01-15T07:59:52.142286172Z,-0.34,-0.86,0.00,-0.86,1.38,2.59,2.93,1.55,3.45,2.93,4.14,5.69,4.66,6.90,,,,,,,,,,,,,,
1799999992150279777,2027-01-15T07:59:52.150279777Z,-0.69,0.69,-0.17,0.34,1.38,2.59,3.10,1.21,1.72,4.31,4.31,5.86,3.62,6.03,,,,,,,,,,,,,,
1799999992158273382,2027-01-15T07:59:52.158273382Z,-2.76,1.90,-1.72,1.72,1.21,2.24,4.14,1.90,3.10,3.45,3.62,5.86,4.14,3.79,,,,,,,,,,,,,,
1799999992166266987,2027-01-15T07:59:52.166266987Z,0.00,0.34,-0.52,1.21,0.86,1.55,2.93,2.59,2.76,3.62,4.31,6.21,5.69,3.28,,,,,,,,,,,,,,
1799999992174260592,2027-01-15T07:59:52.174260592Z,0.34,-0.17,-0.34,0.69,0.52,2.07,2.07,3.10,2.24,3.79,4.83,5.52,5.69,3.97,,,,,,,,,,,,,,
1799999992182254197,2027-01-15T07:59:52.182254197Z,-0.69,-0.17,-0.86,-0.17,0.52,2.76,0.69,4.31,3.79,3.45,5.86,3.97,5.69,5.34,,,,,,,,,,,,,,
1799999992190247802,2027-01-15T07:59:52.190247802Z,0.52,-1.72,-0.86,0.17,1.55,2.41,-0.69,5.69,3.45,4.48,5.00,2.76,6.21,6.21,,,,,,,,,,,,,,
1799999992198241407,2027-01-15T07:59:52.198241407Z,0.34,-2.07,0.86,0.00,0.34,2.24,0.17,5.34,4.48,6.38,3.45,3.28,5.00,7.41,,,,,,,,,,,,,,
1799999992206235012,2027-01-15T07:59:52.206235012Z,0.52,0.00,0.00,0.17,0.69,1.72,3.97,3.97,5.17,5.69,3.62,3.62,4.31,7.07,,,,,,,,,,,,,,
1799999992214228618,2027-01-15T07:59:52.214228618Z,-0.69,2.07,-1.90,2.41,2.07,1.03,5.52,3.10,4.14,3.79,4.14,3.79,6.03,6.21,,,,,,,,,,,,,,
1799999992222222223,2027-01-15T07:59:52.222222223Z,-1.03,1.21,-1.72,5.00,1.90,1.38,2.07,2.76,4.14,3.10,2.93,5.34,7.76,7.24,,,,,,,,,,,,,,
1799999992230215828,2027-01-15T07:59:52.230215828Z,-2.93,-2.93,-0.52,3.62,0.34,1.38,0.34,3.62,4.14,3.62,2.41,7.07,7.59,7.07,,,,,,,,,,,,,,
1799999992238209433,2027-01-15T07:59:52.238209433Z,-2.76,-5.34,-0.34,0.52,-0.69,0.86,2.07,4.14,2.59,4.31,2.59,6.72,5.69,5.52,,,,,,,,,,,,,,
1799999992246203038,2027-01-15T07:59:52.246203038Z,-1.21,-2.24,-0.34,-0.17,0.52,1.72,1.21,2.59,1.38,5.34,2.59,5.69,3.79,6.38,,,,,,,,,,,,,,
1799999992254196643,2027-01-15T07:59:52.254196643Z,-1.03,0.52,1.38,-0.17,1.72,3.28,0.52,1.72,2.41,5.69,3.45,5.86,4.66,7.41,,,,,,,,,,,,,,
1799999992262190248,2027-01-15T07:59:52.262190248Z,0.86,-0.17,2.24,0.00,0.86,2.93,2.07,2.93,4.66,4.48,3.10,4.83,6.72,6.38,,,,,,,,,,,,,,
1799999992270183853,2027-01-15T07:59:52.270183853Z,1.38,0.86,0.17,1.72,0.34,1.72,2.59,3.28,4.14,3.45,2.59,3.79,7.07,5.52,,,,,,,,,,,,,,
1799999992278177459,2027-01-15T07:59:52.278177459Z,1.21,0.86,-1.72,2.59,1.21,0.86,1.90,2.59,0.86,4.31,3.45,5.17,6.03,4.31,,,,,,,,,,,,,,
1799999992286171064,2027-01-15T07:59:52.286171064Z,0.69,-1.03,-1.55,1.55,1.03,1.38,1.90,2.76,-0.52,4.48,3.10,6.55,6.55,3.97,,,,,,,,,,,,,,
1799999992294164669,2027-01-15T07:59:52.294164669Z,0.69,-2.24,-1.38,0.86,1.03,2.59,1.90,3.28,2.24,2.76,2.24,5.86,8.10,5.86,,,,,,,,,,,,,,
1799999992302158274,2027-01-15T07:59:52.302158274Z,-1.03,-0.86,-1.38,1.03,1.55,1.72,1.03,2.24,5.17,2.41,4.14,5.17,6.55,6.38,,,,,,,,,,,,,,
1799999992310151879,2027-01-15T07:59:52.310151879Z,0.86,0.34,-0.86,0.34,1.21,-0.17,0.52,1.21,5.17,4.66,6.03,5.69,2.93,5.00,,,,,,,,,,,,,,
1799999992318145484,2027-01-15T07:59:52.318145484Z,0.34,-0.69,0.17,-1.38,1.38,0.86,0.86,1.55,4.31,5.69,4.66,4.48,2.76,6.21,,,,,,,,,,,,,,
1799999992326139089,2027-01-15T07:59:52.326139089Z,-2.93,0.17,1.38,-1.21,1.90,2.24,1.21,1.72,3.97,4.48,2.41,3.45,6.38,7.93,,,,,,,,,,,,,,
1799999992334132694,2027-01-15T07:59:52.334132694Z,,1.03,2.59,1.38,1.55,1.90,1.38,2.07,2.76,3.28,2.41,4.14,8.10,7.07,,,,,,,,,,,,,,
1799999992342126299,2027-01-15T07:59:52.342126299Z,,-1.21,1.72,2.07,1.55,1.72,2.07,3.10,0.86,2.24,3.62,4.83,7.07,6.38,,,,,,,,,,,,,,
1799999992350119905,2027-01-15T07:59:52.350119905Z,-3.97,-3.28,-0.17,0.52,1.21,1.90,2.93,3.10,0.52,2.41,3.45,5.00,6.55,6.72,,,,,,,,,,,,,,
1799999992358113510,2027-01-15T07:59:52.358113510Z,-2.59,-2.59,0.52,0.69,-0.69,0.86,2.59,2.07,2.93,3.79,3.79,5.17,6.38,5.86,,,,,,,,,,,,,,
1799999992366107115,2027-01-15T07:59:52.366107115Z,1.38,0.00,3.10,1.90,-1.03,-0.34,1.72,1.03,5.34,4.31,6.55,5.00,6.38,4.31,,,,,,,,,,,,,,
1799999992374100720,2027-01-15T07:59:52.374100720Z,1.38,1.03,3.97,0.86,1.03,-0.52,1.21,1.21,4.83,4.31,7.93,5.17,6.03,3.79,,,,,,,,,,,,,,
1799999992382094325,2027-01-15T07:59:52.382094325Z,-2.59,-0.52,2.07,-0.69,2.41,0.52,1.90,2.41,2.41,5.69,6.03,5.17,5.00,5.34,,,,,,,,,,,,,,
1799999992390087930,2027-01-15T07:59:52.390087930Z,-2.07,0.34,0.17,-1.03,1.72,0.34,3.45,3.10,0.00,5.69,4.66,5.00,5.86,7.24,,,,,,,,,,,,,,
1799999992398081535,2027-01-15T07:59:52.398081535Z,-1.55,0.34,-0.17,-1.72,1.38,0.34,4.83,2.07,1.21,4.48,4.14,5.17,7.41,7.76,,,,,,,,,,,,,,
1799999992406075140,2027-01-15T07:59:52.406075140Z,-1.55,-1.38,-0.17,-1.72,1.38,2.41,5.00,0.69,4.14,4.14,2.76,5.52,6.55,7.07,,,,,,,,,,,,,,
1799999992414068746,2027-01-15T07:59:52.414068746Z,0.34,-1.72,-1.38,0.17,1.38,4.48,4.31,1.72,5.34,3.28,1.90,5.17,4.83,6.38,,,,,,,,,,,,,,
1799999992422062351,2027-01-15T07:59:52.422062351Z,0.52,-1.38,-1.72,1.72,2.07,5.00,4.66,4.31,3.45,2.59,2.24,4.66,5.17,5.52,,,,,,,,,,,,,,
1799999992430055956,2027-01-15T07:59:52.430055956Z,-1.38,-1.21,0.00,0.86,1.72,3.45,3.45,4.66,1.55,3.10,2.76,4.14,5.34,4.66,,,,,,,,,,,,,,
1799999992438049561,2027-01-15T07:59:52.438049561Z,-2.93,-0.52,-0.17,-0.86,0.69,2.76,1.72,2.93,2.07,2.76,3.28,3.62,3.79,4.66,,,,,,,,,,,,,,
1799999992446043166,2027-01-15T07:59:52.446043166Z,-2.07,-1.21,-2.07,-0.69,0.52,3.79,0.86,2.59,3.62,2.24,3.79,4.14,3.79,5.17,,,,,,,,,,,,,,
1799999992454036771,2027-01-15T07:59:52.454036771Z,-2.07,-2.07,-2.24,0.34,1.55,3.79,0.52,3.45,5.00,2.76,3.79,5.00,6.03,5.69,,,,,,,,,,,,,,
1799999992462030376,2027-01-15T07:59:52.462030376Z,-4.48,-0.86,-1.55,-0.17,2.07,2.41,1.55,4.66,6.03,2.41,3.62,5.86,7.24,6.38,,,,,,,,,,,,,,
1799999992470023981,2027-01-15T07:59:52.470023981Z,-0.17,0.69,-0.86,-0.34,1.72,0.86,2.93,3.45,5.69,2.76,3.45,5.52,6.03,6.21,,,,,,,,,,,,,,
1799999992478017586,2027-01-15T07:59:52.478017586Z,0.52,-0.34,-1.03,0.86,1.55,0.17,1.90,1.90,4.31,3.97,4.14,4.31,5.86,5.17,,,,,,,,,,,,,,
1799999992486011192,2027-01-15T07:59:52.486011192Z,0.52,-1.21,-2.07,0.69,1.21,0.00,0.00,2.76,4.66,3.79,5.69,4.83,6.03,5.52,,,,,,,,,,,,,,
1799999992494004797,2027-01-15T07:59:52.494004797Z,,-0.34,-1.03,-0.17,0.69,0.34,0.00,3.62,6.03,3.62,6.03,5.17,5.69,5.86,,,,,,,,,,,,,,
1799999992501998402,2027-01-15T07:59:52.501998402Z,1.03,1.21,0.69,0.52,0.69,1.03,1.03,2.76,4.14,4.83,7.07,3.45,5.69,5.34,,,,,,,,,,,,,,
1799999992509992007,2027-01-15T07:59:52.509992007Z,-0.86,1.21,0.34,0.69,0.34,0.52,1.38,2.93,2.76,5.00,7.24,3.10,5.17,6.72,,,,,,,,,,,,,,
1799999992517985612,2027-01-15T07:59:52.517985612Z,-1.03,0.86,-0.86,0.17,0.69,0.86,1.55,3.79,2.93,4.83,5.00,3.79,4.83,8.45,,,,,,,,,,,,,,
1799999992525979217,2027-01-15T07:59:52.525979217Z,-0.69,0.86,-1.03,0.52,1.21,2.59,2.59,2.24,1.55,4.14,2.24,3.79,6.55,6.55,,,,,,,,,,,,,,
1799999992533972822,2027-01-15T07:59:52.533972822Z,-0.34,-0.52,-1.72,0.52,-0.34,2.07,3.45,1.21,2.24,4.31,3.10,5.00,6.72,7.41,,,,,,,,,,,,,,
1799999992541966427,2027-01-15T07:59:52.541966427Z,0.17,-0.69,-1.55,0.17,-0.34,1.38,3.28,1.72,3.10,5.17,5.00,6.38,5.17,7.76,,,,,,,,,,,,,,
1799999992549960032,2027-01-15T07:59:52.549960032Z,0.00,1.90,-0.52,0.69,0.69,1.90,1.55,0.69,1.90,3.28,4.83,6.55,3.97,4.83,,,,,,,,,,,,,,
1799999992557953638,2027-01-15T07:59:52.557953638Z,-1.38,2.93,0.17,2.41,-0.34,1.21,0.69,0.86,2.24,1.03,3.97,5.52,4.48,3.97,,,,,,,,,,,,,,
1799999992565947243,2027-01-15T07:59:52.565947243Z,0.00,1.38,0.69,3.97,-1.55,0.86,1.55,2.59,4.66,1.90,4.31,5.17,4.66,6.55,,,,,,,,,,,,,,
1799999992573940848,2027-01-15T07:59:52.573940848Z,-0.86,-0.34,1.03,2.41,-0.34,1.90,1.90,2.76,5.00,3.45,5.00,6.03,3.97,6.38,,,,,,,,,,,,,,
1799999992581934453,2027-01-15T07:59:52.581934453Z,-3.28,-0.52,1.72,0.69,1.21,1.90,1.38,1.72,3.10,2.93,5.86,6.55,3.79,4.83,,,,,,,,,,,,,,
1799999992589928058,2027-01-15T07:59:52.589928058Z,-0.17,-0.34,1.55,0.69,0.69,1.21,1.21,1.90,3.10,3.28,6.03,6.38,4.31,5.17,,,,,,,,,,,,,,
1799999992597921663,2027-01-15T07:59:52.597921663Z,0.52,-1.21,0.69,0.52,-0.34,2.07,2.07,2.59,4.48,4.66,5.69,6.55,4.66,6.21,,,,,,,,,,,,,,
1799999992605915268,2027-01-15T07:59:52.605915268Z,-0.17,-0.34,0.69,0.52,0.69,3.45,3.28,2.59,3.45,4.66,5.69,6.72,4.83,6.90,,,,,,,,,,,,,,
1799999992613908873,2027-01-15T07:59:52.613908873Z,-0.52,1.55,1.55,0.86,3.28,2.41,4.48,2.41,1.03,3.45,4.48,6.03,5.00,6.55,,,,,,,,,,,,,,
1799999992621902479,2027-01-15T07:59:52.621902479Z,-1.03,1.21,2.24,1.21,2.93,0.69,4.66,1.90,-0.86,3.79,2.93,4.31,5.17,6.38,,,,,,,,,,,,,,
1799999992629896084,2027-01-15T07:59:52.629896084Z,-0.86,0.00,2.07,1.03,0.00,0.86,3.79,2.24,-0.17,4.83,2.41,2.76,5.34,7.24,,,,,,,,,,,,,,
1799999992637889689,2027-01-15T07:59:52.637889689Z,-0.69,0.34,0.34,0.52,-0.34,1.90,3.62,1.72,2.24,4.14,3.45,3.28,5.00,7.93,,,,,,,,,,,,,,
1799999992645883294,2027-01-15T07:59:52.645883294Z,-1.03,0.52,-0.86,1.72,0.34,1.55,3.79,0.86,3.97,3.45,4.48,5.52,4.66,8.45,,,,,,,,,,,,,,
1799999992653876899,2027-01-15T07:59:52.653876899Z,-0.34,-1.38,-0.52,2.07,-2.59,1.72,4.66,2.41,3.45,4.83,5.00,6.72,5.17,8.97,,,,,,,,,,,,,,
1799999992661870504,2027-01-15T07:59:52.661870504Z,0.34,-2.41,0.00,0.69,-2.93,2.76,4.14,3.28,2.76,5.34,3.62,6.21,4.31,7.59,,,,,,,,,,,,,,
1799999992669864109,2027-01-15T07:59:52.669864109Z,-0.34,-0.69,1.03,-0.69,0.69,3.10,1.72,1.90,2.41,3.79,2.76,5.00,1.38,5.17,,,,,,,,,,,,,,
1799999992677857714,2027-01-15T07:59:52.677857714Z,-0.86,1.21,0.34,-0.69,0.34,2.41,1.21,2.76,2.76,2.41,3.79,3.79,1.03,4.14,,,,,,,,,,,,,,
1799999992685851319,2027-01-15T07:59:52.685851319Z,-1.55,2.59,-1.38,1.03,-1.03,2.41,3.10,4.48,2.76,2.59,4.48,3.97,4.14,3.62,,,,,,,,,,,,,,
1799999992693844925,2027-01-15T07:59:52.693844925Z,-1.03,1.03,-2.24,2.07,1.03,2.41,2.76,3.97,2.93,2.93,3.97,3.79,6.21,3.62,,,,,,,,,,,,,,
1799999992701838530,2027-01-15T07:59:52.701838530Z,-2.59,-2.24,-1.72,0.69,2.59,2.24,0.17,2.41,5.17,2.59,4.66,2.59,6.55,6.03,,,,,,,,,,,,,,
1799999992709832135,2027-01-15T07:59:52.709832135Z,-2.41,-2.59,-1.38,1.21,2.41,2.41,-0.86,2.41,5.86,3.28,5.52,4.31,7.24,7.76,,,,,,,,,,,,,,
1799999992717825740,2027-01-15T07:59:52.717825740Z,-1.72,-1.38,-0.69,3.62,2.24,2.41,1.21,4.83,3.45,4.48,4.66,7.41,6.72,6.21,,,,,,,,,,,,,,
1799999992725819345,2027-01-15T07:59:52.725819345Z,0.52,-1.38,0.69,3.79,1.90,1.90,2.93,5.00,3.10,3.79,4.31,7.07,6.03,5.52,,,,,,,,,,,,,,
1799999992733812950,2027-01-15T07:59:52.733812950Z,0.17,-1.03,1.55,1.55,2.24,1.72,2.93,1.90,4.66,3.28,5.69,4.48,7.07,6.21,,,,,,,,,,,,,,
1799999992741806555,2027-01-15T07:59:52.741806555Z,-2.93,-0.34,1.21,-0.52,2.59,1.55,2.24,0.86,3.10,4.31,4.66,2.93,7.59,5.52,,,,,,,,,,,,,,
1799999992749800160,2027-01-15T07:59:52.749800160Z,-3.97,0.52,0.52,-0.86,1.90,0.69,1.90,2.59,0.86,4.48,2.41,3.45,6.90,5.52,,,,,,,,,,,,,,
1799999992757793765,2027-01-15T07:59:52.757793765Z,-2.41,-0.17,0.17,-0.17,2.07,0.52,2.41,3.62,1.38,3.97,2.93,4.31,6.38,6.38,,,,,,,,,,,,,,
1799999992765787371,2027-01-15T07:59:52.765787371Z,0.17,-0.52,1.21,0.34,2.07,0.69,2.76,3.28,2.93,4.83,3.45,4.14,6.03,5.69,,,,,,,,,,,,,,
1799999992773780976,2027-01-15T07:59:52.773780976Z,0.17,1.03,2.07,0.34,1.55,0.86,2.41,2.24,3.10,5.34,2.76,3.97,4.48,5.52,,,,,,,,,,,,,,
1799999992781774581,2027-01-15T07:59:52.781774581Z,-0.17,1.21,1.38,-0.34,2.24,2.07,1.72,2.07,3.79,4.66,3.79,5.00,3.62,6.55,,,,,,,,,,,,,,
1799999992789768186,2027-01-15T07:59:52.789768186Z,0.69,-0.34,0.17,-0.69,0.86,2.59,0.00,3.45,4.66,4.48,5.17,6.21,5.52,7.07,,,,,,,,,,,,,,
1799999992797761791,2027-01-15T07:59:52.797761791Z,-0.69,-1.72,0.52,-0.17,-2.07,0.86,-0.69,2.76,4.31,5.52,4.48,5.34,6.90,6.38,,,,,,,,,,,,,,
1799999992805755396,2027-01-15T07:59:52.805755396Z,-1.03,-1.38,0.86,0.86,-2.07,0.52,1.38,0.86,4.14,4.83,4.48,3.97,6.21,6.03,,,,,,,,,,,,,,
1799999992813749001,2027-01-15T07:59:52.813749001Z,-2.93,-0.17,-0.17,1.03,0.52,1.90,2.07,2.24,5.17,3.10,5.69,4.14,5.69,5.34,,,,,,,,,,,,,,
1799999992821742606,2027-01-15T07:59:52.821742606Z,-2.59,-1.03,-0.69,-0.52,1.72,1.90,-0.17,4.66,5.86,2.59,5.00,4.83,6.55,5.00,,,,,,,,,,,,,,
1799999992829736212,2027-01-15T07:59:52.829736212Z,-1.72,-2.24,0.34,-0.34,2.41,1.72,0.00,3.45,5.17,2.93,2.93,5.52,6.72,6.21,,,,,,,,,,,,,,
1799999992837729817,2027-01-15T07:59:52.837729817Z,-2.59,-2.07,1.03,-0.17,2.59,2.07,0.17,3.97,4.83,2.93,4.14,5.69,5.69,6.90,,,,,,,,,,,,,,
1799999992845723422,2027-01-15T07:59:52.845723422Z,-1.90,-2.24,0.52,-1.38,1.55,2.41,-0.86,5.52,4.48,3.79,6.38,5.86,4.31,6.55,,,,,,,,,,,,,,
1799999992853717027,2027-01-15T07:59:52.853717027Z,-1.72,-1.72,-0.69,-0.34,2.24,1.38,1.03,3.79,4.14,4.31,5.34,6.03,4.31,6.03,,,,,,,,,,,,,,
1799999992861710632,2027-01-15T07:59:52.861710632Z,-1.72,-0.69,-2.24,1.03,2.24,3.45,3.10,2.41,4.48,3.97,4.14,5.34,4.83,6.03,,,,,,,,,,,,,,
1799999992869704237,2027-01-15T07:59:52.869704237Z,-1.90,-0.17,-2.76,1.38,1.21,3.28,2.76,2.76,4.14,4.14,3.45,4.83,4.31,5.34,,,,,,,,,,,,,,
1799999992877697842,2027-01-15T07:59:52.877697842Z,-1.21,-0.52,-2.07,0.34,0.52,0.52,1.55,3.79,2.93,5.17,2.24,5.00,5.17,5.69,,,,,,,,,,,,,,
1799999992885691447,2027-01-15T07:59:52.885691447Z,-0.69,-0.86,-0.69,1.03,0.86,1.55,1.21,3.79,1.90,5.00,2.24,4.48,6.55,6.55,,,,,,,,,,,,,,
1799999992893685052,2027-01-15T07:59:52.893685052Z,-0.86,-1.21,0.52,1.72,1.55,4.31,1.90,3.79,2.41,3.79,2.93,3.97,6.38,5.00,,,,,,,,,,,,,,
1799999992901678658,2027-01-15T07:59:52.901678658Z,-1.03,-0.69,0.00,0.52,2.07,2.41,2.24,3.45,3.45,3.45,3.79,4.66,5.00,3.79,,,,,,,,,,,,,,
1799999992909672263,2027-01-15T07:59:52.909672263Z,-1.55,0.17,-0.52,-1.03,1.90,-0.52,1.90,2.24,3.28,4.83,5.17,5.34,4.48,6.38,,,,,,,,,,,,,,
1799999992917665868,2027-01-15T07:59:52.917665868Z,-2.07,0.17,-0.17,-0.34,1.55,0.69,3.28,2.07,1.72,5.52,4.14,5.17,4.48,8.10,,,,,,,,,,,,,,
1799999992925659473,2027-01-15T07:59:52.925659473Z,1.38,-0.52,0.00,0.86,1.72,2.59,3.79,2.59,1.38,4.14,1.21,4.66,3.45,6.21,,,,,,,,,,,,,,
1799999992933653078,2027-01-15T07:59:52.933653078Z,1.38,-1.72,-1.72,0.52,1.55,1.55,1.03,2.76,3.45,2.59,1.55,5.00,3.97,4.83,,,,,,,,,,,,,,
1799999992941646683,2027-01-15T07:59:52.941646683Z,-1.03,-2.24,-3.45,0.69,1.21,0.34,-1.03,3.10,4.48,1.55,3.62,5.52,5.86,5.34,,,,,,,,,,,,,,
1799999992949640288,2027-01-15T07:59:52.949640288Z,-0.52,-1.03,-3.10,1.03,1.55,0.86,0.69,3.79,2.76,2.24,3.62,5.34,5.17,5.00,,,,,,,,,,,,,,
1799999992957633893,2027-01-15T07:59:52.957633893Z,2.41,0.17,-1.90,0.00,1.21,2.07,2.24,4.14,1.21,3.10,3.28,5.34,3.79,4.14,,,,,,,,,,,,,,
1799999992965627499,2027-01-15T07:59:52.965627499Z,-1.03,1.72,-0.69,-0.86,1.03,1.90,1.38,2.24,0.86,2.93,3.79,5.69,5.34,5.00,,,,,,,,,,,,,,
1799999992973621104,2027-01-15T07:59:52.973621104Z,-1.72,0.52,-0.52,-0.69,1.90,1.21,1.03,0.52,1.21,2.41,4.31,4.83,7.24,6.72,,,,,,,,,,,,,,
1799999992981614709,2027-01-15T07:59:52.981614709Z,-1.72,-1.21,-0.17,1.03,2.24,0.86,1.55,2.07,1.38,3.62,4.14,3.10,6.55,6.38,,,,,,,,,,,,,,
1799999992989608314,2027-01-15T07:59:52.989608314Z,-1.03,0.00,0.17,1.72,2.07,0.17,2.41,3.28,1.90,5.00,3.97,2.76,6.03,5.17,,,,,,,,,,,,,,
1799999992997601919,2027-01-15T07:59:52.997601919Z,1.38,-0.52,-0.86,-0.34,2.76,0.17,4.31,1.90,2.59,4.66,4.48,4.83,6.21,4.66,,,,,,,,,,,,,,
1799999993005595524,2027-01-15T07:59:53.005595524Z,-1.03,-1.90,-0.52,-1.55,2.41,1.90,4.83,0.52,1.90,3.62,5.52,6.55,5.52,5.34,,,,,,,,,,,,,,
1799999993013589129,2027-01-15T07:59:53.013589129Z,-0.52,-1.03,1.21,-0.86,0.69,2.59,3.45,1.55,0.86,3.97,5.69,6.38,5.17,5.34,,,,,,,,,,,,,,
1799999993021582734,2027-01-15T07:59:53.021582734Z,0.00,0.17,1.21,-1.03,-0.34,1.72,4.31,2.07,0.17,5.34,4.83,5.69,5.52,5.69,,,,,,,,,,,,,,
1799999993029576339,2027-01-15T07:59:53.029576339Z,0.17,-0.34,1.55,0.00,1.03,2.41,5.52,1.03,0.69,5.34,4.31,5.52,6.03,6.55,,,,,,,,,,,,,,
1799999993037569945,2027-01-15T07:59:53.037569945Z,-0.34,-1.03,2.76,0.69,1.72,3.10,4.31,1.72,1.90,3.97,3.45,5.52,5.69,6.72,,,,,,,,,,,,,,
1799999993045563550,2027-01-15T07:59:53.045563550Z,0.69,0.17,2.59,0.69,0.86,2.24,2.93,2.07,2.59,4.14,2.76,5.69,4.66,6.38,,,,,,,,,,,,,,
1799999993053557155,2027-01-15T07:59:53.053557155Z,-0.86,0.86,0.69,1.72,1.38,1.90,3.45,1.38,2.59,4.83,3.62,5.86,4.83,5.86,,,,,,,,,,,,,,
1799999993061550760,2027-01-15T07:59:53.061550760Z,-1.21,0.17,-0.34,1.38,2.59,2.07,2.41,2.41,2.59,3.97,3.79,5.52,5.86,5.34,,,,,,,,,,,,,,
1799999993069544365,2027-01-15T07:59:53.069544365Z,1.03,0.34,0.52,0.00,1.21,1.38,0.52,5.00,1.72,2.59,2.76,4.66,5.52,5.69,,,,,,,,,,,,,,
1799999993077537970,2027-01-15T07:59:53.077537970Z,1.38,0.34,0.69,0.17,-1.03,0.00,0.69,5.17,1.38,3.10,3.79,3.97,5.00,5.86,,,,,,,,,,,,,,
1799999993085531575,2027-01-15T07:59:53.085531575Z,1.03,0.86,-0.34,1.38,0.00,-1.72,1.72,2.59,2.24,4.48,5.17,5.00,6.21,5.00,,,,,,,,,,,,,,
1799999993093525180,2027-01-15T07:59:53.093525180Z,0.69,1.55,-0.86,0.86,1.03,-2.07,2.76,2.24,3.10,5.34,4.14,6.21,6.90,5.34,,,,,,,,,,,,,,
1799999993101518785,2027-01-15T07:59:53.101518785Z,-1.03,0.52,-0.52,1.03,-0.52,-1.55,3.79,4.14,4.31,5.34,4.14,6.38,5.86,6.38,,,,,,,,,,,,,,
1799999993109512391,2027-01-15T07:59:53.109512391Z,-1.38,1.03,0.34,2.93,-0.52,-1.90,3.97,3.10,5.00,4.48,5.69,5.34,5.69,6.55,,,,,,,,,,,,,,
1799999993117505996,2027-01-15T07:59:53.117505996Z,0.34,1.90,0.52,2.93,1.03,-0.34,2.41,2.24,4.31,3.28,5.17,4.48,5.69,5.34,,,,,,,,,,,,,,
1799999993125499601,2027-01-15T07:59:53.125499601Z,0.34,0.52,0.17,1.03,1.03,1.55,1.03,4.14,3.45,3.45,2.76,4.31,5.34,4.14,,,,,,,,,,,,,,
1799999993133493206,2027-01-15T07:59:53.133493206Z,-0.52,-0.17,1.03,-0.52,1.38,0.52,1.21,5.00,2.07,5.17,1.90,3.97,5.17,3.45,,,,,,,,,,,,,,
1799999993141486811,2027-01-15T07:59:53.141486811Z,0.52,1.38,1.38,-1.38,1.90,0.00,2.24,3.10,1.72,5.52,3.45,3.45,5.34,5.17,,,,,,,,,,,,,,
1799999993149480416,2027-01-15T07:59:53.149480416Z,0.00,1.90,0.34,0.17,1.38,2.07,1.90,2.24,3.62,4.48,4.83,5.00,5.69,7.07,,,,,,,,,,,,,,
1799999993157474021,2027-01-15T07:59:53.157474021Z,-2.24,0.86,-0.52,2.07,1.03,1.72,1.38,3.28,4.31,4.48,5.00,5.86,5.00,7.07,,,,,,,,,,,,,,
1799999993165467626,2027-01-15T07:59:53.165467626Z,-0.17,-1.21,0.00,1.03,1.55,1.03,2.76,2.93,3.45,4.66,4.31,3.79,5.52,6.38,,,,,,,,,,,,,,
1799999993173461232,2027-01-15T07:59:53.173461232Z,0.52,-2.93,0.69,0.00,1.72,1.03,3.45,2.41,3.45,4.14,5.17,3.62,6.03,6.38,,,,,,,,,,,,,,
1799999993181454837,2027-01-15T07:59:53.181454837Z,-2.93,-5.00,1.55,-0.52,1.03,-1.21,2.41,2.41,2.93,3.10,6.90,4.31,5.34,6.03,,,,,,,,,,,,,,
1799999993189448442,2027-01-15T07:59:53.189448442Z,-1.21,-2.24,0.86,0.17,0.86,-1.72,1.90,1.72,2.59,3.62,6.72,4.48,6.03,6.90,,,,,,,,,,,,,,
1799999993197442047,2027-01-15T07:59:53.197442047Z,-1.38,-0.17,0.00,0.17,1.55,2.24,2.41,1.38,3.97,2.93,5.34,5.86,6.03,7.24,,,,,,,,,,,,,,
1799999993205435652,2027-01-15T07:59:53.205435652Z,-3.97,0.17,-0.69,0.17,1.21,3.62,3.10,0.86,4.48,2.93,4.31,5.17,4.83,6.03,,,,,,,,,,,,,,
1799999993213429257,2027-01-15T07:59:53.213429257Z,-3.28,-2.07,-0.17,0.52,-0.52,1.38,1.55,2.41,4.83,4.83,4.66,4.31,3.79,5.69,,,,,,,,,,,,,,
1799999993221422862,2027-01-15T07:59:53.221422862Z,0.69,-3.79,1.38,0.34,-1.72,2.07,-0.34,4.48,5.52,4.83,5.69,5.69,3.79,6.38,,,,,,,,,,,,,,
1799999993229416467,2027-01-15T07:59:53.229416467Z,0.17,-2.93,1.72,0.34,-0.86,3.97,0.86,3.97,4.83,2.24,5.34,6.55,5.17,6.03,,,,,,,,,,,,,,
1799999993237410072,2027-01-15T07:59:53.237410072Z,-4.48,-1.72,-0.17,0.86,1.03,2.93,2.93,2.24,4.31,1.90,5.00,5.52,6.03,6.03,,,,,,,,,,,,,,
1799999993245403678,2027-01-15T07:59:53.245403678Z,1.21,-0.34,-1.90,0.69,1.21,0.86,2.59,3.10,5.34,3.45,6.72,4.83,5.52,7.07,,,,,,,,,,,,,,
1799999993253397283,2027-01-15T07:59:53.253397283Z,-0.69,-0.34,-1.72,0.17,-0.17,2.41,2.24,3.97,4.31,3.10,5.69,5.00,5.34,7.76,,,,,,,,,,,,,,
1799999993261390888,2027-01-15T07:59:53.261390888Z,-1.38,-1.55,-0.69,0.69,-0.17,3.97,2.41,1.72,0.86,2.41,2.76,4.66,5.69,7.41,,,,,,,,,,,,,,
1799999993269384493,2027-01-15T07:59:53.269384493Z,-4.14,-1.90,0.17,0.17,1.03,1.90,1.55,0.86,0.17,3.45,2.41,4.31,4.66,6.72,,,,,,,,,,,,,,
1799999993277378098,2027-01-15T07:59:53.277378098Z,-2.41,-1.38,0.86,-0.69,2.07,1.21,1.38,3.79,2.59,4.31,2.76,4.14,3.45,6.03,,,,,,,,,,,,,,
1799999993285371703,2027-01-15T07:59:53.285371703Z,-2.76,-0.86,1.21,0.52,1.55,3.45,1.38,3.97,1.90,3.45,1.72,3.79,3.28,5.52,,,,,,,,,,,,,,
1799999993293365308,2027-01-15T07:59:53.293365308Z,-2.93,-1.03,0.17,0.86,0.52,4.31,0.52,2.24,1.03,2.93,2.41,4.66,3.62,5.17,,,,,,,,,,,,,,
1799999993301358913,2027-01-15T07:59:53.301358913Z,-1.55,-2.24,-1.38,-0.17,1.03,2.41,0.69,3.28,4.14,3.45,4.31,6.21,4.31,5.34,,,,,,,,,,,,,,
1799999993309352518,2027-01-15T07:59:53.309352518Z,-1.03,-3.28,-1.72,0.86,0.52,0.69,2.24,4.31,5.34,4.14,4.14,6.03,4.66,6.21,,,,,,,,,,,,,,
1799999993317346124,2027-01-15T07:59:53.317346124Z,0.52,-3.28,-1.55,2.59,-0.86,1.55,3.97,2.59,1.72,4.83,3.28,4.14,3.97,7.24,,,,,,,,,,,,,,
1799999993325339729,2027-01-15T07:59:53.325339729Z,-1.55,-1.03,-1.21,2.24,0.17,2.76,3.62,1.38,-0.52,3.79,3.45,4.31,4.31,7.41,,,,,,,,,,,,,,
1799999993333333334,2027-01-15T07:59:53.333333334Z,-1.55,1.21,-1.72,0.86,2.76,2.24,1.55,2.24,1.90,1.72,4.31,5.69,5.86,6.55,,,,,,,,,,,,,,
1799999993341326939,2027-01-15T07:59:53.341326939Z,-1.90,0.69,-2.76,0.34,2.76,1.03,0.69,2.93,4.48,1.55,6.21,4.83,4.31,6.03,,,,,,,,,,,,,,
1799999993349320544,2027-01-15T07:59:53.349320544Z,-1.03,-1.38,-2.59,0.69,0.52,0.86,3.28,2.24,4.14,2.93,6.55,3.79,0.00,6.38,,,,,,,,,,,,,,
1799999993357314149,2027-01-15T07:59:53.357314149Z,-1.21,-2.93,-2.07,0.69,-0.69,2.07,3.45,2.41,3.62,3.10,4.83,4.83,0.34,6.90,,,,,,,,,,,,,,
1799999993365307754,2027-01-15T07:59:53.365307754Z,1.55,-1.55,-0.69,0.00,-0.86,2.93,0.00,2.76,5.00,2.59,4.83,6.03,5.34,6.90,,,,,,,,,,,,,,
1799999993373301359,2027-01-15T07:59:53.373301359Z,1.21,0.34,1.21,-1.21,-1.55,2.93,0.00,2.07,5.00,3.28,5.34,5.86,7.76,6.55,,,,,,,,,,,,,,
1799999993381294965,2027-01-15T07:59:53.381294965Z,1.03,1.38,1.21,-1.55,-1.38,2.41,2.24,1.90,3.28,4.31,3.62,5.17,5.69,6.55,,,,,,,,,,,,,,
1799999993389288570,2027-01-15T07:59:53.389288570Z,-1.38,3.10,0.17,0.34,-0.69,1.21,0.34,2.59,2.93,3.79,2.41,4.66,5.34,7.24,,,,,,,,,,,,,,
1799999993397282175,2027-01-15T07:59:53.397282175Z,-1.90,3.97,0.86,2.24,-0.52,1.21,-1.21,3.45,4.14,3.79,3.79,3.79,5.52,7.07,,,,,,,,,,,,,,
1799999993405275780,2027-01-15T07:59:53.405275780Z,0.34,2.76,1.38,3.45,0.86,3.10,1.38,3.97,3.97,4.48,6.38,3.28,4.48,6.03,,,,,,,,,,,,,,
1799999993413269385,2027-01-15T07:59:53.413269385Z,0.52,0.52,0.34,2.24,2.76,3.28,3.28,4.83,2.59,4.31,6.72,3.97,5.86,5.17,,,,,,,,,,,,,,
1799999993421262990,2027-01-15T07:59:53.421262990Z,0.86,-1.55,-0.86,1.38,2.76,1.03,2.24,5.86,1.38,4.31,3.62,6.38,8.28,5.69,,,,,,,,,,,,,,
1799999993429256595,2027-01-15T07:59:53.429256595Z,,-1.03,-0.34,3.10,1.21,0.52,1.90,5.52,0.86,3.62,1.55,8.97,7.93,7.07,,,,,,,,,,,,,,
1799999993437250200,2027-01-15T07:59:53.437250200Z,-1.90,0.00,0.00,2.07,1.21,2.07,3.45,4.83,1.55,2.24,3.28,8.45,6.21,7.24,,,,,,,,,,,,,,
1799999993445243805,2027-01-15T07:59:53.445243805Z,-2.41,-0.69,-0.34,-0.69,1.72,2.07,3.10,4.66,2.76,2.24,4.48,5.17,5.34,7.24,,,,,,,,,,,,,,
1799999993453237411,2027-01-15T07:59:53.453237411Z,-2.24,-0.69,0.17,0.86,1.38,2.24,1.72,3.45,3.97,2.59,3.62,2.76,5.00,7.59,,,,,,,,,,,,,,
1799999993461231016,2027-01-15T07:59:53.461231016Z,-0.86,1.03,0.17,3.62,1.38,3.62,2.41,2.41,3.62,1.38,5.17,3.45,5.00,7.24,,,,,,,,,,,,,,
1799999993469224621,2027-01-15T07:59:53.469224621Z,-0.69,1.55,-0.69,2.59,1.55,3.10,0.86,3.28,2.07,2.93,6.55,4.48,4.83,7.59,,,,,,,,,,,,,,
1799999993477218226,2027-01-15T07:59:53.477218226Z,0.69,-0.52,-2.24,0.69,1.03,1.38,-1.38,5.17,2.24,6.21,4.83,3.62,3.62,6.90,,,,,,,,,,,,,,
1799999993485211831,2027-01-15T07:59:53.485211831Z,-1.72,-1.38,-2.07,1.38,1.03,0.69,0.00,4.83,3.97,6.03,3.62,2.24,4.14,5.52,,,,,,,,,,,,,,
1799999993493205436,2027-01-15T07:59:53.493205436Z,-0.52,-0.17,0.17,1.21,1.90,0.17,2.41,2.24,3.79,4.48,4.31,3.10,6.72,5.52,,,,,,,,,,,,,,
1799999993501199041,2027-01-15T07:59:53.501199041Z,-0.52,-1.21,0.52,1.55,1.55,0.69,1.38,1.90,4.14,3.97,3.28,4.48,6.38,4.83,,,,,,,,,,,,,,
1799999993509192646,2027-01-15T07:59:53.509192646Z,-1.03,-1.03,0.00,1.55,1.21,1.03,3.10,2.41,4.31,3.45,2.76,4.14,5.52,5.00,,,,,,,,,,,,,,
1799999993517186251,2027-01-15T07:59:53.517186251Z,0.17,0.52,0.17,0.86,0.86,1.55,4.31,1.03,3.62,3.28,4.14,3.10,4.14,7.59,,,,,,,,,,,,,,
1799999993525179857,2027-01-15T07:59:53.525179857Z,0.86,0.00,-0.86,1.72,1.72,1.55,1.90,-0.34,4.48,5.17,3.97,3.62,4.66,6.72,,,,,,,,,,,,,,
1799999993533173462,2027-01-15T07:59:53.533173462Z,1.21,-1.03,-0.86,-0.34,1.90,2.76,3.62,0.69,5.17,6.38,3.28,3.28,5.52,3.97,,,,,,,,,,,,,,
1799999993541167067,2027-01-15T07:59:53.541167067Z,1.03,-1.03,1.38,-2.24,1.72,2.93,5.17,2.93,4.14,4.83,4.31,4.48,4.48,4.48,,,,,,,,,,,,,,
1799999993549160672,2027-01-15T07:59:53.549160672Z,3.10,-1.21,2.93,-0.34,1.21,1.72,2.59,3.79,3.45,3.10,5.17,6.38,3.28,6.55,,,,,,,,,,,,,,
1799999993557154277,2027-01-15T07:59:53.557154277Z,-1.21,-1.21,1.38,1.03,0.17,1.38,0.69,2.93,4.66,3.97,5.34,6.90,4.66,5.86,,,,,,,,,,,,,,
1799999993565147882,2027-01-15T07:59:53.565147882Z,-1.38,0.86,-0.17,0.69,1.03,2.07,1.90,2.59,5.34,3.62,6.38,5.86,6.38,5.17,,,,,,,,,,,,,,
1799999993573141487,2027-01-15T07:59:53.573141487Z,-0.86,1.38,-1.03,0.86,3.28,1.90,3.28,2.93,3.79,1.90,6.03,5.00,7.41,7.07,,,,,,,,,,,,,,
1799999993581135092,2027-01-15T07:59:53.581135092Z,-1.21,0.17,-1.90,0.52,3.10,1.21,3.62,2.07,3.10,2.59,3.79,4.31,8.28,7.93,,,,,,,,,,,,,,
1799999993589128698,2027-01-15T07:59:53.589128698Z,-1.38,0.00,-1.72,-0.17,0.52,1.72,4.31,1.03,3.79,4.48,2.24,5.00,7.59,6.21,,,,,,,,,,,,,,
1799999993597122303,2027-01-15T07:59:53.597122303Z,-1.03,-1.03,-0.34,-0.17,-1.55,2.76,5.34,0.69,2.76,4.66,2.59,4.83,5.86,5.52,,,,,,,,,,,,,,
1799999993605115908,2027-01-15T07:59:53.605115908Z,-0.52,-2.24,0.86,0.17,-0.86,2.24,6.38,0.34,1.21,3.97,2.76,3.62,4.66,5.69,,,,,,,,,,,,,,
1799999993613109513,2027-01-15T07:59:53.613109513Z,1.55,-1.38,0.86,-0.69,0.86,1.21,5.00,2.07,1.90,3.79,3.79,4.14,4.31,3.79,,,,,,,,,,,,,,
1799999993621103118,2027-01-15T07:59:53.621103118Z,-2.24,0.69,0.34,-1.21,1.38,0.69,2.07,3.97,3.28,3.97,6.21,6.72,4.66,3.10,,,,,,,,,,,,,,
1799999993629096723,2027-01-15T07:59:53.629096723Z,-1.38,0.52,-1.21,-0.17,0.86,0.17,0.52,3.62,2.93,3.45,7.93,6.72,6.03,4.14,,,,,,,,,,,,,,
1799999993637090328,2027-01-15T07:59:53.637090328Z,-1.90,-1.21,-1.90,0.86,1.38,1.03,0.17,2.76,2.07,2.59,5.52,4.66,6.72,4.83,,,,,,,,,,,,,,
1799999993645083933,2027-01-15T07:59:53.645083933Z,-3.10,0.34,0.34,0.86,1.72,2.07,-1.21,2.59,2.07,2.93,1.90,4.83,6.38,5.86,,,,,,,,,,,,,,
1799999993653077538,2027-01-15T07:59:53.653077538Z,-2.41,1.38,1.72,0.00,1.38,2.41,-0.69,2.07,3.10,3.97,2.41,5.52,6.21,7.41,,,,,,,,,,,,,,
1799999993661071144,2027-01-15T07:59:53.661071144Z,0.17,-1.38,-0.52,-0.52,0.86,2.24,1.21,1.90,2.93,5.00,6.03,4.66,6.55,6.72,,,,,,,,,,,,,,
1799999993669064749,2027-01-15T07:59:53.669064749Z,0.52,-1.90,-0.86,0.17,0.34,2.24,1.03,1.55,1.72,6.21,6.90,4.31,5.86,5.69,,,,,,,,,,,,,,
1799999993677058354,2027-01-15T07:59:53.677058354Z,-0.69,0.86,1.03,0.86,0.69,1.72,1.03,1.21,1.72,5.52,5.00,5.17,5.00,6.21,,,,,,,,,,,,,,
1799999993685051959,2027-01-15T07:59:53.685051959Z,-0.86,1.72,-0.17,0.17,0.69,1.72,2.41,1.55,3.28,3.97,5.69,4.83,5.00,5.86,,,,,,,,,,,,,,
1799999993693045564,2027-01-15T07:59:53.693045564Z,,-1.21,-2.41,-1.55,-0.17,2.59,2.07,2.41,4.48,4.31,5.86,4.66,5.34,5.00,,,,,,,,,,,,,,
1799999993701039169,2027-01-15T07:59:53.701039169Z,-1.55,-2.93,-2.07,-1.55,0.34,1.90,1.03,3.10,3.62,5.69,3.97,5.17,5.86,5.00,,,,,,,,,,,,,,
1799999993709032774,2027-01-15T07:59:53.709032774Z,-1.90,-1.55,-0.69,0.52,-0.34,0.34,1.55,3.79,2.59,4.83,2.93,4.14,6.03,5.52,,,,,,,,,,,,,,
1799999993717026379,2027-01-15T07:59:53.717026379Z,-3.45,-1.90,-1.55,1.03,-2.41,1.72,1.90,5.00,2.41,2.93,3.62,3.97,4.66,6.55,,,,,,,,,,,,,,
1799999993725019985,2027-01-15T07:59:53.725019985Z,-2.24,-3.97,-0.34,0.00,-2.59,3.62,1.38,4.31,2.93,3.97,5.00,6.03,3.97,6.21,,,,,,,,,,,,,,
1799999993733013590,2027-01-15T07:59:53.733013590Z,-1.72,-3.45,2.24,-0.52,-1.21,2.41,1.21,2.41,3.62,5.86,4.66,7.07,5.52,3.97,,,,,,,,,,,,,,
1799999993741007195,2027-01-15T07:59:53.741007195Z,-0.86,-1.90,2.59,0.34,0.00,1.90,1.90,1.90,3.97,5.17,1.90,5.86,6.38,4.48,,,,,,,,,,,,,,
1799999993749000800,2027-01-15T07:59:53.749000800Z,-0.52,-1.55,1.55,1.72,1.38,3.10,3.10,1.72,3.28,3.45,1.55,5.00,5.17,7.24,,,,,,,,,,,,,,
1799999993756994405,2027-01-15T07:59:53.756994405Z,0.86,-2.76,0.69,1.03,3.10,2.76,3.10,1.90,2.59,3.97,4.48,4.83,4.48,6.38,,,,,,,,,,,,,,
1799999993764988010,2027-01-15T07:59:53.764988010Z,-0.52,-2.24,0.52,-0.17,2.93,2.24,1.90,2.76,2.07,4.66,5.34,4.48,5.34,3.79,,,,,,,,,,,,,,
1799999993772981615,2027-01-15T07:59:53.772981615Z,0.17,-1.38,1.38,0.34,1.03,2.07,1.21,3.28,1.55,4.66,4.48,4.31,5.52,4.31,,,,,,,,,,,,,,
1799999993780975220,2027-01-15T07:59:53.780975220Z,-1.38,-1.38,0.86,0.86,0.34,1.03,0.52,4.31,2.59,5.69,4.48,4.14,4.48,5.69,,,,,,,,,,,,,,
1799999993788968825,2027-01-15T07:59:53.788968825Z,-1.90,0.52,-1.03,1.03,1.38,0.52,-0.34,4.48,3.62,5.00,3.79,4.83,4.66,5.17,,,,,,,,,,,,,,
1799999993796962431,2027-01-15T07:59:53.796962431Z,-2.07,1.72,-1.21,1.55,1.03,1.38,1.72,3.10,3.79,3.45,4.31,6.21,5.17,5.34,,,,,,,,,,,,,,
1799999993804956036,2027-01-15T07:59:53.804956036Z,-2.07,1.55,0.00,1.55,0.86,2.24,3.97,2.41,4.66,4.48,4.31,7.59,4.66,6.38,,,,,,,,,,,,,,
1799999993812949641,2027-01-15T07:59:53.812949641Z,-1.90,2.59,-0.52,0.69,2.76,2.59,2.76,3.28,5.17,5.00,2.24,8.62,5.17,6.03,,,,,,,,,,,,,,
1799999993820943246,2027-01-15T07:59:53.820943246Z,-2.41,1.21,-1.38,0.52,2.76,1.72,1.03,3.97,3.45,3.79,3.10,7.41,5.69,4.48,,,,,,,,,,,,,,
1799999993828936851,2027-01-15T07:59:53.828936851Z,-1.03,-1.21,-0.52,1.21,0.52,1.21,0.17,4.14,2.76,3.28,6.72,4.83,4.31,3.79,,,,,,,,,,,,,,
1799999993836930456,2027-01-15T07:59:53.836930456Z,-0.52,-0.52,-1.21,0.34,0.86,2.24,1.03,2.93,3.10,3.62,7.24,4.66,4.14,5.00,,,,,,,,,,,,,,
1799999993844924061,2027-01-15T07:59:53.844924061Z,1.21,1.03,-0.34,0.17,0.34,2.07,1.55,2.41,2.93,2.41,5.86,5.17,4.48,5.17,,,,,,,,,,,,,,
1799999993852917666,2027-01-15T07:59:53.852917666Z,-0.17,2.24,1.55,1.21,-1.03,1.55,2.07,3.10,2.24,0.34,4.66,4.48,4.66,4.48,,,,,,,,,,,,,,
1799999993860911271,2027-01-15T07:59:53.860911271Z,0.00,3.10,0.86,1.21,0.69,1.90,0.17,3.28,2.07,-0.17,3.28,4.31,3.97,5.34,,,,,,,,,,,,,,
1799999993868904877,2027-01-15T07:59:53.868904877Z,1.72,1.55,0.17,1.55,1.03,1.21,0.86,4.14,2.41,1.90,3.62,4.83,4.48,6.03,,,,,,,,,,,,,,
1799999993876898482,2027-01-15T07:59:53.876898482Z,1.03,-0.69,-1.38,0.86,-0.34,1.90,1.72,2.93,3.97,3.97,4.83,4.83,5.86,5.69,,,,,,,,,,,,,,
1799999993884892087,2027-01-15T07:59:53.884892087Z,-1.38,-0.69,-1.55,0.17,0.52,2.93,1.21,0.00,3.62,5.00,4.83,4.14,6.03,6.38,,,,,,,,,,,,,,
1799999993892885692,2027-01-15T07:59:53.892885692Z,0.69,-0.17,0.34,0.52,1.72,2.24,1.55,-0.86,2.07,4.66,3.79,3.79,4.48,6.55,,,,,,,,,,,,,,
1799999993900879297,2027-01-15T07:59:53.900879297Z,1.21,-1.38,2.24,1.21,1.21,1.03,2.24,0.69,2.76,4.31,2.59,4.48,3.97,5.17,,,,,,,,,,,,,,
1799999993908872902,2027-01-15T07:59:53.908872902Z,0.00,-2.07,2.76,0.69,1.21,0.52,2.93,1.55,4.14,4.48,2.76,4.66,5.00,5.52,,,,,,,,,,,,,,
1799999993916866507,2027-01-15T07:59:53.916866507Z,-0.52,0.17,2.24,-1.38,1.55,1.21,2.24,2.59,3.10,2.93,4.66,5.00,5.52,8.10,,,,,,,,,,,,,,
1799999993924860112,2027-01-15T07:59:53.924860112Z,-1.21,2.76,0.69,-1.38,1.03,2.24,0.69,3.79,0.34,0.52,6.21,6.03,5.69,7.93,,,,,,,,,,,,,,
1799999993932853718,2027-01-15T07:59:53.932853718Z,0.86,1.21,-1.21,1.21,1.03,2.93,1.90,3.97,1.03,0.34,4.83,5.52,6.21,5.34,,,,,,,,,,,,,,
1799999993940847323,2027-01-15T07:59:53.940847323Z,-3.62,-1.55,-1.21,2.59,1.72,3.28,5.00,2.76,4.31,2.59,2.59,4.48,6.38,5.17,,,,,,,,,,,,,,
1799999993948840928,2027-01-15T07:59:53.948840928Z,0.52,-2.07,-1.21,2.07,1.90,3.45,4.83,2.93,4.31,4.66,2.93,5.34,6.55,7.07,,,,,,,,,,,,,,
1799999993956834533,2027-01-15T07:59:53.956834533Z,0.69,-1.03,-2.41,2.07,1.55,2.07,2.76,3.97,2.93,5.17,4.66,5.69,5.52,6.55,,,,,,,,,,,,,,
1799999993964828138,2027-01-15T07:59:53.964828138Z,0.52,-1.21,-2.07,1.90,1.21,-0.34,2.93,2.76,3.62,5.17,6.38,4.66,3.97,6.21,,,,,,,,,,,,,,
1799999993972821743,2027-01-15T07:59:53.972821743Z,0.34,-3.79,0.00,0.00,1.90,-0.52,4.48,0.86,2.76,5.34,6.03,5.00,4.48,7.24,,,,,,,,,,,,,,
1799999993980815348,2027-01-15T07:59:53.980815348Z,-0.69,-3.79,1.55,-0.17,2.07,1.03,4.31,1.72,1.03,4.83,2.59,5.52,6.03,7.76,,,,,,,,,,,,,,
1799999993988808953,2027-01-15T07:59:53.988808953Z,-0.52,-0.52,-0.17,1.55,1.38,1.90,3.28,3.45,1.72,4.31,1.03,4.66,5.17,7.24,,,,,,,,,,,,,,
1799999993996802558,2027-01-15T07:59:53.996802558Z,-0.86,-0.86,-1.90,1.21,1.38,2.59,3.28,2.76,3.10,4.14,3.10,5.17,3.97,7.24,,,,,,,,,,,,,,
1799999994004796164,2027-01-15T07:59:54.004796164Z,-0.34,-1.03,-0.69,1.55,1.21,2.93,2.24,2.41,2.24,3.97,3.62,5.34,4.31,6.72,,,,,,,,,,,,,,
1799999994012789769,2027-01-15T07:59:54.012789769Z,-0.17,1.72,0.34,2.76,0.86,2.07,0.69,4.14,2.76,3.97,2.93,4.14,3.97,6.38,,,,,,,,,,,,,,
1799999994020783374,2027-01-15T07:59:54.020783374Z,-2.07,0.69,-0.69,2.07,1.72,1.55,0.86,4.48,5.17,3.79,3.79,3.28,3.97,7.59,,,,,,,,,,,,,,
1799999994028776979,2027-01-15T07:59:54.028776979Z,-2.93,-1.90,-0.17,1.21,2.59,2.07,1.21,2.76,5.34,3.10,3.62,3.62,5.86,8.28,,,,,,,,,,,,,,
1799999994036770584,2027-01-15T07:59:54.036770584Z,-2.76,-1.38,1.55,1.55,1.72,1.72,0.52,2.41,2.59,2.59,2.41,3.97,7.93,7.41,,,,,,,,,,,,,,
1799999994044764189,2027-01-15T07:59:54.044764189Z,-2.07,-0.17,1.21,1.03,0.69,0.17,0.00,3.10,1.38,3.28,1.90,3.62,7.07,7.07,,,,,,,,,,,,,,
1799999994052757794,2027-01-15T07:59:54.052757794Z,-1.72,-1.38,-0.34,0.17,1.21,-0.52,1.21,2.24,2.93,3.79,2.76,4.31,4.83,7.76,,,,,,,,,,,,,,
1799999994060751399,2027-01-15T07:59:54.060751399Z,-1.90,-2.07,0.86,0.52,1.90,1.21,3.28,1.55,3.79,3.62,4.48,5.69,4.14,6.55,,,,,,,,,,,,,,
1799999994068745004,2027-01-15T07:59:54.068745004Z,-0.69,-0.17,3.10,0.69,1.72,2.24,4.14,1.90,2.76,4.31,6.38,5.86,4.83,5.00,,,,,,,,,,,,,,
1799999994076738610,2027-01-15T07:59:54.076738610Z,-1.38,0.34,2.07,-0.34,0.69,0.86,3.28,2.41,2.59,5.00,5.86,4.83,5.52,5.00,,,,,,,,,,,,,,
1799999994084732215,2027-01-15T07:59:54.084732215Z,-2.41,-1.03,1.03,-0.34,0.52,-0.69,2.59,2.24,4.14,4.48,3.62,5.00,6.03,4.83,,,,,,,,,,,,,,
1799999994092725820,2027-01-15T07:59:54.092725820Z,-2.41,-1.03,1.90,0.52,1.90,0.00,2.76,2.41,3.97,4.31,1.72,5.52,6.38,4.66,,,,,,,,,,,,,,
1799999994100719425,2027-01-15T07:59:54.100719425Z,-5.00,-0.17,1.55,0.17,3.28,1.38,2.93,3.79,2.24,5.17,2.41,4.48,6.03,5.34,,,,,,,,,,,,,,
1799999994108713030,2027-01-15T07:59:54.108713030Z,-2.76,-0.52,0.52,1.03,2.93,2.41,3.62,5.17,1.21,6.03,4.14,3.79,6.21,6.55,,,,,,,,,,,,,,
1799999994116706635,2027-01-15T07:59:54.116706635Z,-2.24,-2.59,0.00,1.72,2.41,2.93,3.97,5.52,1.90,6.03,4.14,4.31,6.38,7.93,,,,,,,,,,,,,,
1799999994124700240,2027-01-15T07:59:54.124700240Z,-1.90,-3.28,-0.52,0.34,2.07,2.24,2.41,3.79,2.59,5.17,3.10,4.31,5.69,7.93,,,,,,,,,,,,,,
1799999994132693845,2027-01-15T07:59:54.132693845Z,1.03,-2.24,-2.07,-0.69,0.86,2.41,0.86,1.72,2.93,5.00,3.79,5.34,6.21,6.72,,,,,,,,,,,,,,
1799999994140687451,2027-01-15T07:59:54.140687451Z,1.72,-2.76,-4.14,0.17,-0.34,3.62,1.38,2.24,3.97,5.00,3.97,6.55,6.90,6.38,,,,,,,,,,,,,,
1799999994148681056,2027-01-15T07:59:54.148681056Z,0.17,-1.38,-3.45,1.03,0.00,3.62,1.72,2.93,4.66,3.62,2.41,5.69,6.03,6.38,,,,,,,,,,,,,,
1799999994156674661,2027-01-15T07:59:54.156674661Z,-0.52,0.69,-1.55,0.34,1.21,2.24,2.41,1.03,4.14,2.76,2.24,3.97,4.48,5.17,,,,,,,,,,,,,,
1799999994164668266,2027-01-15T07:59:54.164668266Z,-1.90,1.03,-1.03,0.00,1.03,1.21,2.93,0.52,3.28,3.97,3.45,3.28,4.83,6.38,,,,,,,,,,,,,,
1799999994172661871,2027-01-15T07:59:54.172661871Z,0.00,0.17,-0.52,0.17,0.86,1.21,2.59,1.55,3.45,4.66,3.45,3.97,4.83,6.72,,,,,,,,,,,,,,
1799999994180655476,2027-01-15T07:59:54.180655476Z,-1.21,-1.55,-0.17,0.69,1.90,1.72,1.90,3.45,3.62,4.14,4.31,5.00,4.48,5.69,,,,,,,,,,,,,,
1799999994188649081,2027-01-15T07:59:54.188649081Z,1.38,-2.07,-1.72,0.69,2.07,1.55,2.59,2.93,3.28,3.10,5.00,4.83,5.34,6.72,,,,,,,,,,,,,,
1799999994196642686,2027-01-15T07:59:54.196642686Z,-0.69,-1.55,-1.38,-0.86,1.03,1.90,2.59,2.24,4.14,2.41,6.21,4.66,6.21,6.90,,,,,,,,,,,,,,
1799999994204636291,2027-01-15T07:59:54.204636291Z,0.86,-0.34,-0.17,-2.24,0.69,3.10,2.93,2.41,5.17,1.72,6.90,5.52,7.07,6.03,,,,,,,,,,,,,,
1799999994212629897,2027-01-15T07:59:54.212629897Z,0.52,-0.17,-1.55,-0.34,1.72,2.93,2.24,2.93,4.83,0.34,5.17,5.52,6.38,5.69,,,,,,,,,,,,,,
1799999994220623502,2027-01-15T07:59:54.220623502Z,-2.59,-0.17,-2.59,2.24,1.03,1.21,0.69,1.90,3.62,1.03,3.79,4.66,5.17,5.17,,,,,,,,,,,,,,
1799999994228617107,2027-01-15T07:59:54.228617107Z,-3.45,-0.34,-1.90,1.21,-0.86,0.69,0.52,1.38,2.59,4.14,3.97,4.66,4.48,4.66,,,,,,,,,,,,,,
1799999994236610712,2027-01-15T07:59:54.236610712Z,0.17,-1.72,-2.07,-0.86,-1.03,1.21,1.90,2.41,2.24,5.34,2.76,5.52,4.83,6.03,,,,,,,,,,,,,,
1799999994244604317,2027-01-15T07:59:54.244604317Z,0.86,-1.55,-1.21,-0.34,-1.38,0.69,1.90,2.07,3.62,3.45,2.24,6.55,5.00,7.76,,,,,,,,,,,,,,
1799999994252597922,2027-01-15T07:59:54.252597922Z,1.72,-0.69,0.52,0.52,-2.93,0.86,1.55,1.55,4.14,2.59,3.79,6.72,5.34,7.59,,,,,,,,,,,,,,
1799999994260591527,2027-01-15T07:59:54.260591527Z,0.34,-1.38,0.52,0.17,-1.21,1.90,1.55,2.41,1.38,3.62,5.00,5.86,5.86,6.21,,,,,,,,,,,,,,
1799999994268585132,2027-01-15T07:59:54.268585132Z,0.00,-1.03,-0.17,0.52,2.24,1.90,0.69,3.62,0.17,3.28,6.38,4.66,6.55,5.52,,,,,,,,,,,,,,
1799999994276578738,2027-01-15T07:59:54.276578738Z,-0.52,-0.52,0.17,1.38,2.76,1.03,0.52,3.79,2.59,2.07,8.10,3.45,6.55,5.52,,,,,,,,,,,,,,
1799999994284572343,2027-01-15T07:59:54.284572343Z,-0.34,0.17,1.21,1.03,1.03,1.55,1.03,2.07,3.62,1.90,7.93,3.97,5.17,5.34,,,,,,,,,,,,,,
1799999994292565948,2027-01-15T07:59:54.292565948Z,0.17,1.03,1.55,-0.52,1.72,2.93,1.55,1.55,2.76,2.07,5.69,6.38,3.97,5.86,,,,,,,,,,,,,,
1799999994300559553,2027-01-15T07:59:54.300559553Z,-0.17,1.55,1.03,-0.86,1.55,3.62,2.41,2.59,3.45,2.41,3.45,7.59,4.66,6.55,,,,,,,,,,,,,,
1799999994308553158,2027-01-15T07:59:54.308553158Z,0.52,1.03,0.69,0.17,-0.86,3.10,3.79,2.76,4.48,3.45,2.24,6.38,5.69,6.55,,,,,,,,,,,,,,
1799999994316546763,2027-01-15T07:59:54.316546763Z,0.69,1.55,0.86,-0.34,-1.55,2.41,3.97,2.59,3.97,3.79,2.93,4.31,5.17,6.72,,,,,,,,,,,,,,
1799999994324540368,2027-01-15T07:59:54.324540368Z,0.34,2.93,1.55,0.86,0.34,2.24,1.72,2.07,3.62,2.76,3.79,2.76,4.66,7.07,,,,,,,,,,,,,,
1799999994332533973,2027-01-15T07:59:54.332533973Z,-0.52,1.90,1.72,2.93,2.07,1.55,0.00,2.24,3.10,3.10,3.45,2.76,5.69,5.69,,,,,,,,,,,,,,
1799999994340527578,2027-01-15T07:59:54.340527578Z,-0.52,0.00,0.86,2.76,1.21,0.52,0.69,3.45,1.38,4.31,2.41,3.97,6.90,4.66,,,,,,,,,,,,,,
1799999994348521184,2027-01-15T07:59:54.348521184Z,-1.90,0.86,0.00,1.38,-0.34,1.03,1.38,4.31,1.55,5.34,2.93,5.34,7.07,6.21,,,,,,,,,,,,,,
1799999994356514789,2027-01-15T07:59:54.356514789Z,-0.86,1.03,-1.03,1.03,-0.86,2.41,1.55,4.48,4.31,5.00,4.66,6.03,6.21,7.59,,,,,,,,,,,,,,
1799999994364508394,2027-01-15T07:59:54.364508394Z,-0.34,-1.21,-1.03,1.21,0.52,1.90,2.41,3.79,4.14,4.31,4.31,5.17,6.55,6.72,,,,,,,,,,,,,,
1799999994372501999,2027-01-15T07:59:54.372501999Z,3.45,-2.07,-0.17,-0.17,1.38,1.38,3.28,2.93,2.59,4.83,3.10,4.66,7.24,6.03,,,,,,,,,,,,,,
1799999994380495604,2027-01-15T07:59:54.380495604Z,-0.17,0.17,0.52,-1.03,1.21,2.24,2.76,2.59,3.62,5.52,3.62,5.69,5.86,6.21,,,,,,,,,,,,,,
1799999994388489209,2027-01-15T07:59:54.388489209Z,-1.21,2.07,1.72,-0.34,0.34,2.24,0.86,2.24,4.48,4.14,4.83,6.21,4.14,5.69,,,,,,,,,,,,,,
1799999994396482814,2027-01-15T07:59:54.396482814Z,-2.24,1.21,2.76,-0.69,-0.69,1.21,-0.34,2.24,3.45,2.59,4.83,5.17,4.31,5.34,,,,,,,,,,,,,,
1799999994404476419,2027-01-15T07:59:54.404476419Z,-3.45,0.00,1.72,-0.52,-0.52,1.03,0.69,2.93,2.93,3.10,4.66,4.83,4.31,5.69,,,,,,,,,,,,,,
1799999994412470024,2027-01-15T07:59:54.412470024Z,-2.24,-1.03,0.69,0.86,1.55,1.55,1.38,3.62,3.79,3.97,5.52,5.52,3.28,6.38,,,,,,,,,,,,,,
1799999994420463630,2027-01-15T07:59:54.420463630Z,-1.21,-1.72,1.38,1.55,2.24,1.55,1.03,3.10,4.83,4.83,5.00,5.34,3.45,6.55,,,,,,,,,,,,,,
1799999994428457235,2027-01-15T07:59:54.428457235Z,0.00,0.17,1.38,2.07,0.34,1.55,1.21,2.24,4.83,4.31,3.79,5.00,4.31,6.03,,,,,,,,,,,,,,
1799999994436450840,2027-01-15T07:59:54.436450840Z,-0.34,0.86,-0.17,2.76,-1.21,0.86,1.55,2.07,3.28,3.79,3.79,5.52,4.48,5.17,,,,,,,,,,,,,,
1799999994444444445,2027-01-15T07:59:54.444444445Z,-0.86,-1.21,-1.38,2.76,-0.52,0.17,2.07,1.90,1.72,5.17,4.66,6.38,4.66,4.83,,,,,,,,,,,,,,
1799999994452438050,2027-01-15T07:59:54.452438050Z,-1.03,-2.24,-0.17,2.41,0.00,0.52,3.28,2.07,1.55,5.34,3.97,6.03,5.52,5.00,,,,,,,,,,,,,,
1799999994460431655,2027-01-15T07:59:54.460431655Z,-3.45,-1.90,0.52,1.72,-0.17,1.55,3.79,3.10,2.76,4.14,3.97,5.17,5.86,5.34,,,,,,,,,,,,,,
1799999994468425260,2027-01-15T07:59:54.468425260Z,-3.79,-1.72,-0.86,1.03,0.17,2.07,2.76,3.45,3.62,4.66,4.66,4.14,4.31,6.03,,,,,,,,,,,,,,
1799999994476418865,2027-01-15T07:59:54.476418865Z,-3.62,-1.72,-0.86,1.38,0.69,1.03,2.24,3.79,3.10,5.34,5.00,3.62,2.59,7.07,,,,,,,,,,,,,,
1799999994484412471,2027-01-15T07:59:54.484412471Z,-3.45,-1.38,0.00,2.24,1.21,-0.34,2.93,3.62,2.93,3.97,6.55,4.31,3.45,8.10,,,,,,,,,,,,,,
1799999994492406076,2027-01-15T07:59:54.492406076Z,-1.72,-0.52,-1.21,2.59,2.07,0.17,2.93,2.07,3.62,2.24,7.07,5.00,5.00,8.79,,,,,,,,,,,,,,
1799999994500399681,2027-01-15T07:59:54.500399681Z,-1.90,0.34,-0.86,2.07,1.38,1.21,1.38,2.24,4.14,1.55,5.69,4.31,4.14,7.41,,,,,,,,,,,,,,
1799999994508393286,2027-01-15T07:59:54.508393286Z,-1.90,0.86,-0.52,1.03,0.86,1.21,0.86,3.10,3.97,2.93,5.34,4.48,4.31,6.21,,,,,,,,,,,,,,
1799999994516386891,2027-01-15T07:59:54.516386891Z,-2.59,1.90,0.17,0.17,0.69,1.03,2.07,4.66,3.97,5.17,5.17,6.38,5.52,4.66,,,,,,,,,,,,,,
1799999994524380496,2027-01-15T07:59:54.524380496Z,-0.52,0.86,0.17,0.34,1.38,0.86,1.72,4.48,2.76,4.66,5.17,6.21,5.00,4.83,,,,,,,,,,,,,,
1799999994532374101,2027-01-15T07:59:54.532374101Z,-0.52,-1.72,-0.86,0.52,0.00,0.17,1.90,3.45,1.38,4.48,4.48,3.97,5.17,6.21,,,,,,,,,,,,,,
1799999994540367706,2027-01-15T07:59:54.540367706Z,-1.03,-2.24,-0.52,-0.52,-0.17,0.69,3.28,2.93,0.86,5.34,3.45,3.97,5.52,6.90,,,,,,,,,,,,,,
1799999994548361311,2027-01-15T07:59:54.548361311Z,-1.21,-1.55,1.03,-1.38,2.24,1.55,3.45,3.97,1.55,6.03,3.45,5.52,5.69,5.34,,,,,,,,,,,,,,
1799999994556354917,2027-01-15T07:59:54.556354917Z,-1.03,-1.03,0.86,0.00,2.76,2.24,2.24,2.76,2.41,6.38,4.48,5.69,7.24,4.14,,,,,,,,,,,,,,
1799999994564348522,2027-01-15T07:59:54.564348522Z,0.34,0.69,0.69,1.72,1.38,1.90,2.07,-0.17,2.93,5.34,3.97,5.34,8.10,5.00,,,,,,,,,,,,,,
1799999994572342127,2027-01-15T07:59:54.572342127Z,-0.34,0.69,1.72,1.21,1.72,1.21,2.59,1.38,2.41,3.97,3.45,5.86,6.21,5.69,,,,,,,,,,,,,,
1799999994580335732,2027-01-15T07:59:54.580335732Z,-2.93,-1.03,1.21,-0.17,2.41,1.55,2.24,4.83,1.21,3.97,5.00,5.86,4.83,6.21,,,,,,,,,,,,,,
1799999994588329337,2027-01-15T07:59:54.588329337Z,-3.62,-1.90,-0.34,-1.38,1.72,1.90,3.28,4.31,1.90,4.66,5.69,5.17,5.52,7.41,,,,,,,,,,,,,,
1799999994596322942,2027-01-15T07:59:54.596322942Z,-2.41,-2.93,-0.17,-1.90,0.86,2.07,4.48,2.24,3.62,4.14,3.97,3.97,6.03,6.90,,,,,,,,,,,,,,
1799999994604316547,2027-01-15T07:59:54.604316547Z,1.03,-2.59,1.21,-1.55,1.21,1.72,3.45,1.72,2.59,4.14,2.24,3.28,5.69,5.34,,,,,,,,,,,,,,
1799999994612310152,2027-01-15T07:59:54.612310152Z,1.21,-0.52,0.00,-1.90,1.55,1.21,1.90,1.55,1.72,5.17,2.93,3.79,5.17,6.55,,,,,,,,,,,,,,
1799999994620303757,2027-01-15T07:59:54.620303757Z,-1.90,0.69,-1.90,-0.86,1.21,1.90,2.41,1.72,3.45,5.00,5.17,4.14,4.31,7.41,,,,,,,,,,,,,,
1799999994628297363,2027-01-15T07:59:54.628297363Z,-0.86,0.00,-2.93,0.52,0.34,3.62,2.07,3.28,4.48,3.97,6.03,3.79,4.66,5.17,,,,,,,,,,,,,,
1799999994636290968,2027-01-15T07:59:54.636290968Z,0.52,-0.69,-2.59,0.00,-0.34,3.28,0.69,4.31,3.79,3.62,5.00,3.62,5.52,3.97,,,,,,,,,,,,,,
1799999994644284573,2027-01-15T07:59:54.644284573Z,0.69,0.17,-1.90,-0.34,-0.52,0.17,-0.52,3.62,3.28,4.66,5.17,4.14,5.69,5.86,,,,,,,,,,,,,,
1799999994652278178,2027-01-15T07:59:54.652278178Z,-0.86,-0.34,-1.21,0.17,-1.38,-0.52,-0.17,3.79,4.14,6.03,5.52,5.00,5.34,5.86,,,,,,,,,,,,,,
1799999994660271783,2027-01-15T07:59:54.660271783Z,-0.69,-1.55,-0.17,-0.34,-0.86,2.07,0.00,2.76,3.97,6.03,3.62,5.17,5.86,4.66,,,,,,,,,,,,,,
1799999994668265388,2027-01-15T07:59:54.668265388Z,-0.52,-0.34,1.03,0.17,0.52,2.24,-1.03,0.17,2.93,4.48,1.55,4.14,6.21,6.03,,,,,,,,,,,,,,
1799999994676258993,2027-01-15T07:59:54.676258993Z,-0.34,0.17,0.34,1.21,0.86,0.69,-0.69,1.38,3.28,3.10,2.41,3.62,5.69,7.59,,,,,,,,,,,,,,
1799999994684252598,2027-01-15T07:59:54.684252598Z,-0.86,-0.17,-1.21,1.03,0.69,0.86,1.03,4.14,3.28,3.62,4.83,4.31,6.03,6.90,,,,,,,,,,,,,,
1799999994692246204,2027-01-15T07:59:54.692246204Z,-1.03,0.86,-2.24,0.52,2.41,2.24,2.76,3.79,2.41,5.34,4.66,4.31,6.55,6.21,,,,,,,,,,,,,,
1799999994700239809,2027-01-15T07:59:54.700239809Z,-0.17,1.03,-2.24,1.38,3.28,1.72,3.79,2.76,2.59,5.34,2.07,4.66,5.52,6.03,,,,,,,,,,,,,,
1799999994708233414,2027-01-15T07:59:54.708233414Z,-0.52,0.00,-1.55,1.38,2.41,1.21,3.45,3.45,3.79,4.48,1.90,5.86,4.14,5.34,,,,,,,,,,,,,,
1799999994716227019,2027-01-15T07:59:54.716227019Z,-0.69,-1.03,-0.34,0.00,2.59,2.41,2.41,2.93,4.14,5.17,3.62,6.55,3.79,5.52,,,,,,,,,,,,,,
1799999994724220624,2027-01-15T07:59:54.724220624Z,1.03,-0.69,0.86,0.86,2.24,2.07,1.55,2.76,3.62,5.34,3.45,6.21,4.66,7.24,,,,,,,,,,,,,,
1799999994732214229,2027-01-15T07:59:54.732214229Z,1.38,0.00,0.69,1.90,0.69,0.34,1.38,4.14,3.45,3.28,2.59,5.69,4.48,7.76,,,,,,,,,,,,,,
1799999994740207834,2027-01-15T07:59:54.740207834Z,-0.69,-0.69,-0.34,-0.69,0.00,-0.34,1.90,4.31,3.28,1.90,3.45,4.83,3.97,5.69,,,,,,,,,,,,,,
1799999994748201439,2027-01-15T07:59:54.748201439Z,0.69,-0.86,-0.86,-0.52,0.86,0.69,2.76,3.45,3.79,2.76,4.83,4.66,5.17,3.79,,,,,,,,,,,,,,
1799999994756195044,2027-01-15T07:59:54.756195044Z,0.69,0.17,-1.72,3.10,1.55,2.07,3.45,4.66,4.66,3.10,5.00,5.17,6.55,4.14,,,,,,,,,,,,,,
1799999994764188650,2027-01-15T07:59:54.764188650Z,-0.34,0.34,-1.55,2.93,2.07,3.10,2.41,5.52,5.52,2.59,3.45,5.00,7.41,5.17,,,,,,,,,,,,,,
1799999994772182255,2027-01-15T07:59:54.772182255Z,-0.52,-0.86,-0.17,0.52,1.21,1.72,2.59,3.97,5.52,2.76,3.28,4.66,7.07,5.34,,,,,,,,,,,,,,
1799999994780175860,2027-01-15T07:59:54.780175860Z,0.00,-1.21,-0.34,1.21,-0.17,0.00,4.14,1.90,3.97,2.93,4.66,5.00,6.38,5.00,,,,,,,,,,,,,,
1799999994788169465,2027-01-15T07:59:54.788169465Z,0.52,0.00,-1.21,2.07,0.86,0.86,3.45,1.03,2.41,3.97,3.97,5.86,5.86,4.83,,,,,,,,,,,,,,
1799999994796163070,2027-01-15T07:59:54.796163070Z,0.00,0.52,0.17,0.86,2.41,2.59,1.55,2.76,1.55,5.34,2.59,5.86,5.69,4.83,,,,,,,,,,,,,,
1799999994804156675,2027-01-15T07:59:54.804156675Z,-0.69,1.72,1.38,1.21,1.90,3.97,0.34,2.93,1.03,4.83,3.10,5.00,5.52,5.00,,,,,,,,,,,,,,
1799999994812150280,2027-01-15T07:59:54.812150280Z,-1.72,2.59,0.69,1.03,1.72,3.97,-0.69,1.38,1.55,2.24,3.79,4.48,4.83,5.17,,,,,,,,,,,,,,
1799999994820143885,2027-01-15T07:59:54.820143885Z,-1.90,0.86,0.17,-1.55,2.59,2.24,-1.03,2.24,3.45,1.38,4.66,5.00,5.17,5.69,,,,,,,,,,,,,,
1799999994828137491,2027-01-15T07:59:54.828137491Z,0.34,-1.03,0.17,-1.38,2.07,0.86,0.69,4.14,4.31,3.45,6.55,4.66,6.38,5.86,,,,,,,,,,,,,,
1799999994836131096,2027-01-15T07:59:54.836131096Z,0.86,-1.03,-0.34,0.34,1.72,1.90,2.76,3.45,3.10,4.83,5.69,4.48,5.52,5.34,,,,,,,,,,,,,,
1799999994844124701,2027-01-15T07:59:54.844124701Z,-1.38,-0.86,0.00,1.38,1.55,1.90,1.90,2.24,2.93,4.83,4.66,4.48,4.83,4.66,,,,,,,,,,,,,,
1799999994852118306,2027-01-15T07:59:54.852118306Z,-1.90,-1.55,1.21,2.24,1.03,1.03,0.52,1.72,3.62,4.66,3.97,4.14,6.21,4.31,,,,,,,,,,,,,,
1799999994860111911,2027-01-15T07:59:54.860111911Z,0.52,-1.72,2.24,0.86,0.69,2.07,1.38,3.45,3.97,4.31,4.66,4.31,5.69,6.03,,,,,,,,,,,,,,
1799999994868105516,2027-01-15T07:59:54.868105516Z,-0.69,-0.52,1.55,-0.34,-0.34,2.59,1.21,4.66,3.79,3.62,5.52,6.03,3.97,7.07,,,,,,,,,,,,,,
1799999994876099121,2027-01-15T07:59:54.876099121Z,-0.86,-0.34,-0.34,-0.17,-0.34,1.03,1.38,4.31,3.45,3.79,5.69,5.86,3.79,5.69,,,,,,,,,,,,,,
1799999994884092726,2027-01-15T07:59:54.884092726Z,-1.21,0.00,-1.55,0.34,1.21,0.86,2.59,3.45,2.93,3.79,4.66,4.66,5.17,5.17,,,,,,,,,,,,,,
1799999994892086331,2027-01-15T07:59:54.892086331Z,-1.38,0.00,-1.55,0.86,2.24,3.79,2.59,1.72,2.07,4.48,4.66,4.48,6.38,6.03,,,,,,,,,,,,,,
1799999994900079937,2027-01-15T07:59:54.900079937Z,-1.72,-1.03,-0.17,2.59,1.90,4.83,1.72,0.00,1.72,4.48,6.38,4.14,5.69,6.72,,,,,,,,,,,,,,
1799999994908073542,2027-01-15T07:59:54.908073542Z,-3.28,-1.55,1.38,3.28,2.59,2.41,2.07,-0.34,2.24,2.59,6.55,3.62,4.48,6.55,,,,,,,,,,,,,,
1799999994916067147,2027-01-15T07:59:54.916067147Z,-4.66,-0.86,0.69,2.24,2.76,2.07,3.10,0.17,1.90,1.21,4.83,3.97,4.66,5.00,,,,,,,,,,,,,,
1799999994924060752,2027-01-15T07:59:54.924060752Z,-0.17,-0.69,0.00,2.59,2.24,3.45,2.76,1.21,1.38,2.41,3.45,4.31,5.34,3.45,,,,,,,,,,,,,,
1799999994932054357,2027-01-15T07:59:54.932054357Z,0.34,-2.24,1.03,2.76,2.41,2.24,1.90,3.10,3.10,3.97,2.93,5.17,4.66,4.66,,,,,,,,,,,,,,
1799999994940047962,2027-01-15T07:59:54.940047962Z,-2.24,-3.45,1.38,0.86,1.21,0.69,1.90,3.62,4.66,3.79,3.62,6.03,3.45,6.90,,,,,,,,,,,,,,
1799999994948041567,2027-01-15T07:59:54.948041567Z,-2.59,-2.24,0.17,0.52,0.52,1.03,1.38,2.76,3.10,4.14,4.66,5.86,4.14,6.38,,,,,,,,,,,,,,
1799999994956035172,2027-01-15T07:59:54.956035172Z,-1.55,0.00,0.00,2.76,1.90,1.21,0.69,3.62,2.24,4.14,5.34,6.03,6.72,4.31,,,,,,,,,,,,,,
1799999994964028777,2027-01-15T07:59:54.964028777Z,1.21,1.21,1.21,1.90,2.07,-0.52,2.24,4.14,4.14,3.28,5.34,7.07,7.76,5.17,,,,,,,,,,,,,,
1799999994972022383,2027-01-15T07:59:54.972022383Z,1.03,-0.34,1.72,-1.55,0.00,-1.21,3.62,3.62,3.97,3.45,4.48,6.90,6.38,7.59,,,,,,,,,,,,,,
1799999994980015988,2027-01-15T07:59:54.980015988Z,-3.10,-1.90,0.86,-2.07,-0.34,1.21,3.28,4.31,1.55,4.31,3.62,5.86,5.00,7.93,,,,,,,,,,,,,,
1799999994988009593,2027-01-15T07:59:54.988009593Z,-4.48,-2.24,-0.17,-0.17,1.21,3.62,4.83,5.17,2.41,4.48,3.62,5.52,5.69,6.90,,,,,,,,,,,,,,
1799999994996003198,2027-01-15T07:59:54.996003198Z,-4.31,-3.45,-1.55,-1.03,1.21,3.45,5.34,3.97,4.66,4.14,4.31,4.83,6.72,7.59,,,,,,,,,,,,,,
1799999995003996803,2027-01-15T07:59:55.003996803Z,,-3.62,-1.03,-1.03,1.21,2.24,3.10,2.07,3.28,4.14,5.34,3.79,6.72,8.62,,,,,,,,,,,,,,
1799999995011990408,2027-01-15T07:59:55.011990408Z,-2.59,-2.24,0.52,0.86,1.90,2.07,1.55,2.59,1.72,3.97,5.69,3.97,5.34,7.76,,,,,,,,,,,,,,
1799999995019984013,2027-01-15T07:59:55.019984013Z,0.34,-1.21,-0.52,0.86,1.55,2.41,1.38,3.45,3.45,3.28,5.17,5.34,4.66,6.38,,,,,,,,,,,,,,
1799999995027977618,2027-01-15T07:59:55.027977618Z,0.69,0.00,-1.72,-0.17,1.38,2.76,2.07,2.07,4.48,2.76,4.66,5.00,5.00,6.38,,,,,,,,,,,,,,
1799999995035971224,2027-01-15T07:59:55.035971224Z,-2.41,1.55,-0.86,-1.38,1.90,2.93,3.62,1.55,4.14,3.97,4.14,3.10,3.97,7.41,,,,,,,,,,,,,,
1799999995043964829,2027-01-15T07:59:55.043964829Z,-2.76,1.21,0.17,-1.21,1.55,2.24,2.59,3.45,5.00,4.66,4.31,2.76,2.76,7.07,,,,,,,,,,,,,,
1799999995051958434,2027-01-15T07:59:55.051958434Z,-2.07,-0.69,-0.17,-0.17,1.72,1.90,0.34,5.17,4.83,3.10,5.34,3.79,4.31,5.86,,,,,,,,,,,,,,
1799999995059952039,2027-01-15T07:59:55.059952039Z,-3.62,-1.21,-0.86,0.34,1.21,1.72,2.24,4.48,3.97,2.41,5.17,4.31,6.72,5.34,,,,,,,,,,,,,,
1799999995067945644,2027-01-15T07:59:55.067945644Z,-1.55,-0.34,-0.34,0.17,-0.69,0.52,4.31,3.45,4.48,3.62,4.31,5.00,7.24,5.86,,,,,,,,,,,,,,
1799999995075939249,2027-01-15T07:59:55.075939249Z,-1.21,-1.38,-0.17,0.17,-1.38,0.17,1.90,2.76,4.66,3.10,4.48,5.00,6.21,6.03,,,,,,,,,,,,,,
1799999995083932854,2027-01-15T07:59:55.083932854Z,-0.86,-0.69,-0.34,-0.52,0.34,1.21,-0.34,2.24,3.10,2.07,4.48,3.45,5.17,5.00,,,,,,,,,,,,,,
1799999995091926459,2027-01-15T07:59:55.091926459Z,0.34,1.55,-0.52,-1.21,0.00,0.86,1.55,1.90,1.72,2.93,3.97,2.76,4.48,3.62,,,,,,,,,,,,,,
1799999995099920064,2027-01-15T07:59:55.099920064Z,0.00,2.24,-0.69,-0.69,-1.21,-0.34,3.28,2.59,1.03,4.66,4.48,3.79,4.83,4.31,,,,,,,,,,,,,,
1799999995107913670,2027-01-15T07:59:55.107913670Z,-1.72,1.55,-0.52,-0.52,0.69,-0.17,2.24,2.93,1.21,5.17,4.48,4.31,6.03,6.21,,,,,,,,,,,,,,
1799999995115907275,2027-01-15T07:59:55.115907275Z,,0.17,-1.38,-1.21,3.45,1.03,0.86,3.45,2.07,4.66,3.79,4.31,6.55,4.83,,,,,,,,,,,,,,
1799999995123900880,2027-01-15T07:59:55.123900880Z,,-0.86,-1.90,0.17,3.10,0.34,0.69,4.48,2.93,3.79,4.14,5.34,5.00,3.28,,,,,,,,,,,,,,
1799999995131894485,2027-01-15T07:59:55.131894485Z,-1.38,-0.52,-0.86,1.21,1.38,-0.69,0.00,3.97,3.62,2.76,4.66,5.17,3.45,5.00,,,,,,,,,,,,,,
1799999995139888090,2027-01-15T07:59:55.139888090Z,-1.03,-1.72,0.17,0.17,1.55,0.17,-0.17,2.59,3.62,1.90,4.31,3.62,3.62,6.72,,,,,,,,,,,,,,
1799999995147881695,2027-01-15T07:59:55.147881695Z,1.90,-1.72,0.52,0.69,0.86,1.21,0.34,1.90,3.62,1.90,3.97,3.97,4.31,5.86,,,,,,,,,,,,,,
1799999995155875300,2027-01-15T07:59:55.155875300Z,-0.17,-0.86,0.17,2.07,-1.03,0.52,0.17,1.90,3.97,1.55,2.59,5.52,4.48,4.48,,,,,,,,,,,,,,
1799999995163868905,2027-01-15T07:59:55.163868905Z,-0.69,0.69,-0.34,1.21,0.00,-0.69,2.41,2.93,3.10,3.45,2.59,6.21,5.34,8.10,,,,,,,,,,,,,,
1799999995171862510,2027-01-15T07:59:55.171862510Z,0.00,1.03,-0.52,0.69,0.52,-0.34,3.62,2.93,2.93,4.48,2.76,6.38,5.86,9.66,,,,,,,,,,,,,,
1799999995179856116,2027-01-15T07:59:55.179856116Z,-1.03,0.52,0.17,0.17,0.86,1.03,2.24,1.55,1.03,3.97,2.24,5.69,5.86,6.21,,,,,,,,,,,,,,
1799999995187849721,2027-01-15T07:59:55.187849721Z,0.34,-2.07,1.55,-1.03,0.52,1.55,2.76,1.72,-0.34,2.07,2.76,4.31,5.69,4.83,,,,,,,,,,,,,,
1799999995195843326,2027-01-15T07:59:55.195843326Z,0.52,-1.21,1.55,-1.55,1.21,2.07,2.41,3.62,1.90,2.07,2.93,3.97,6.55,6.72,,,,,,,,,,,,,,
1799999995203836931,2027-01-15T07:59:55.203836931Z,1.55,0.86,1.90,-0.86,1.72,2.07,1.90,4.14,3.45,3.45,1.38,5.52,6.72,7.59,,,,,,,,,,,,,,
1799999995211830536,2027-01-15T07:59:55.211830536Z,0.34,0.69,1.55,0.17,1.72,1.38,3.97,2.93,2.07,4.31,2.07,6.38,5.17,6.90,,,,,,,,,,,,,,
1799999995219824141,2027-01-15T07:59:55.219824141Z,0.34,-1.21,0.69,1.03,1.03,1.38,5.34,1.72,1.55,3.62,4.83,5.86,4.14,6.72,,,,,,,,,,,,,,
1799999995227817746,2027-01-15T07:59:55.227817746Z,0.69,-2.41,-0.34,0.17,0.86,2.76,3.28,1.38,3.62,3.62,5.00,5.00,4.48,7.07,,,,,,,,,,,,,,
1799999995235811351,2027-01-15T07:59:55.235811351Z,-2.24,-1.38,-1.55,0.00,1.21,3.45,-0.17,2.41,5.52,4.83,3.28,4.31,4.31,7.59,,,,,,,,,,,,,,
1799999995243804957,2027-01-15T07:59:55.243804957Z,1.03,-0.17,-2.24,2.59,0.34,1.90,-1.72,2.76,5.86,5.17,4.48,5.69,3.79,7.07,,,,,,,,,,,,,,
1799999995251798562,2027-01-15T07:59:55.251798562Z,1.03,-0.69,-1.38,2.59,-0.69,0.34,-0.34,3.28,6.38,4.14,4.83,6.72,4.31,6.03,,,,,,,,,,,,,,
1799999995259792167,2027-01-15T07:59:55.259792167Z,0.34,0.52,-1.38,-0.69,0.00,1.21,0.00,3.62,4.66,2.93,2.07,4.83,5.34,5.34,,,,,,,,,,,,,,
1799999995267785772,2027-01-15T07:59:55.267785772Z,0.17,1.55,-1.03,-0.34,0.69,1.72,0.69,2.59,2.24,1.90,1.03,3.79,5.00,5.52,,,,,,,,,,,,,,
1799999995275779377,2027-01-15T07:59:55.275779377Z,-1.90,-0.69,0.86,2.07,0.52,1.03,3.79,1.55,3.28,2.76,3.10,6.21,4.14,6.38,,,,,,,,,,,,,,
1799999995283772982,2027-01-15T07:59:55.283772982Z,-1.03,-2.07,2.07,0.69,0.69,2.07,5.00,1.90,4.31,3.79,4.83,6.90,4.83,7.41,,,,,,,,,,,,,,
1799999995291766587,2027-01-15T07:59:55.291766587Z,0.52,0.00,1.03,-1.38,0.69,3.79,3.28,1.21,2.59,4.48,4.66,5.52,5.34,7.41,,,,,,,,,,,,,,
1799999995299760192,2027-01-15T07:59:55.299760192Z,0.69,0.17,0.17,0.00,0.34,2.93,4.31,0.00,2.24,4.48,5.17,5.17,4.66,6.72,,,,,,,,,,,,,,
1799999995307753797,2027-01-15T07:59:55.307753797Z,0.34,-2.24,-0.17,1.21,0.17,1.55,6.21,0.34,3.97,5.17,5.17,5.34,4.83,5.69,,,,,,,,,,,,,,
1799999995315747403,2027-01-15T07:59:55.315747403Z,0.00,-2.24,-0.52,0.69,0.52,2.59,4.48,1.90,3.79,5.69,4.14,5.00,5.34,4.66,,,,,,,,,,,,,,
1799999995323741008,2027-01-15T07:59:55.323741008Z,-0.17,0.52,0.00,1.90,1.21,2.41,2.59,2.93,3.45,4.66,4.31,5.34,4.31,5.52,,,,,,,,,,,,,,
1799999995331734613,2027-01-15T07:59:55.331734613Z,0.69,0.69,1.38,3.45,1.38,0.17,3.97,2.76,3.10,2.76,5.69,5.52,4.66,6.21,,,,,,,,,,,,,,
1799999995339728218,2027-01-15T07:59:55.339728218Z,-1.72,-1.03,1.55,3.10,1.55,0.34,3.28,2.24,0.69,1.72,5.86,5.17,7.07,4.31,,,,,,,,,,,,,,
1799999995347721823,2027-01-15T07:59:55.347721823Z,-2.59,0.00,-0.34,2.07,2.24,2.24,0.17,2.93,-0.34,2.93,5.69,5.34,8.10,3.97,,,,,,,,,,,,,,
1799999995355715428,2027-01-15T07:59:55.355715428Z,-2.59,-0.17,-1.90,1.21,2.07,2.59,1.03,4.14,1.72,3.45,4.83,6.03,6.38,6.55,,,,,,,,,,,,,,
1799999995363709033,2027-01-15T07:59:55.363709033Z,-1.03,-2.93,-1.38,1.55,1.55,2.41,3.62,2.59,2.59,2.24,2.76,6.38,5.00,7.93,,,,,,,,,,,,,,
1799999995371702638,2027-01-15T07:59:55.371702638Z,-0.69,-4.14,-0.34,0.52,1.90,3.10,3.79,0.00,2.07,2.41,2.07,5.52,5.17,6.21,,,,,,,,,,,,,,
1799999995379696244,2027-01-15T07:59:55.379696244Z,1.90,-2.41,0.34,-1.21,2.24,2.59,2.59,1.03,3.10,3.97,2.59,4.31,5.17,5.52,,,,,,,,,,,,,,
1799999995387689849,2027-01-15T07:59:55.387689849Z,0.34,-0.86,0.17,0.52,1.90,2.41,1.03,3.10,3.45,2.93,2.24,3.28,4.66,5.86,,,,,,,,,,,,,,
1799999995395683454,2027-01-15T07:59:55.395683454Z,-0.17,-0.86,0.00,3.28,1.03,4.14,1.03,3.28,2.41,0.52,2.76,3.79,3.97,4.14,,,,,,,,,,,,,,
1799999995403677059,2027-01-15T07:59:55.403677059Z,0.00,0.86,0.34,2.07,0.69,4.48,2.59,2.24,2.93,0.69,2.93,3.97,3.79,3.62,,,,,,,,,,,,,,
1799999995411670664,2027-01-15T07:59:55.411670664Z,0.17,1.90,-0.17,-0.34,1.03,2.59,2.41,2.41,4.14,2.76,2.41,3.10,5.17,6.21,,,,,,,,,,,,,,
1799999995419664269,2027-01-15T07:59:55.419664269Z,0.00,0.00,-1.21,-0.86,0.52,2.76,1.90,3.62,3.45,4.31,4.48,3.79,5.69,7.76,,,,,,,,,,,,,,
1799999995427657874,2027-01-15T07:59:55.427657874Z,-0.69,-1.72,-1.90,-0.17,-0.17,4.31,3.97,3.79,3.10,5.52,6.55,5.86,4.31,6.03,,,,,,,,,,,,,,
1799999995435651479,2027-01-15T07:59:55.435651479Z,1.55,-1.38,-1.90,-0.17,0.69,2.59,5.00,2.76,3.79,5.34,5.00,6.55,4.66,6.03,,,,,,,,,,,,,,
1799999995443645084,2027-01-15T07:59:55.443645084Z,1.72,0.34,0.17,-0.52,1.03,-0.17,3.10,2.76,2.59,4.48,4.31,4.48,6.55,7.41,,,,,,,,,,,,,,
1799999995451638690,2027-01-15T07:59:55.451638690Z,1.21,0.69,3.28,-0.86,-0.17,-0.34,2.07,3.45,1.55,4.66,5.86,2.76,6.55,6.55,,,,,,,,,,,,,,
1799999995459632295,2027-01-15T07:59:55.459632295Z,-2.07,-0.69,2.76,-1.21,-0.69,1.03,1.90,2.93,3.28,5.00,4.83,3.28,6.03,5.34,,,,,,,,,,,,,,
1799999995467625900,2027-01-15T07:59:55.467625900Z,-3.97,0.00,0.34,-0.52,0.17,0.34,0.86,2.41,4.48,4.31,3.10,4.31,7.07,4.14,,,,,,,,,,,,,,
1799999995475619505,2027-01-15T07:59:55.475619505Z,-1.38,-0.86,-0.34,0.52,0.86,-0.86,0.86,3.62,4.31,4.66,3.79,4.14,6.21,2.59,,,,,,,,,,,,,,
1799999995483613110,2027-01-15T07:59:55.483613110Z,-1.03,-3.10,-0.52,1.38,0.86,1.21,1.90,4.31,5.34,5.69,5.17,4.66,4.31,4.14,,,,,,,,,,,,,,
1799999995491606715,2027-01-15T07:59:55.491606715Z,-1.03,-2.76,-1.38,0.86,1.55,4.66,2.07,2.93,6.03,5.00,4.83,6.03,5.17,6.72,,,,,,,,,,,,,,
1799999995499600320,2027-01-15T07:59:55.499600320Z,-2.93,-0.34,-0.69,0.86,0.69,4.31,1.03,1.38,4.48,4.83,2.93,4.83,5.86,5.34,,,,,,,,,,,,,,
1799999995507593925,2027-01-15T07:59:55.507593925Z,-1.21,0.34,-1.55,1.03,0.52,3.28,0.52,0.69,3.62,4.66,2.41,3.62,5.52,4.83,,,,,,,,,,,,,,
1799999995515587530,2027-01-15T07:59:55.515587530Z,-3.45,0.69,-3.28,1.55,1.55,3.62,1.03,-0.34,3.10,3.28,3.97,4.31,4.14,6.55,,,,,,,,,,,,,,
1799999995523581136,2027-01-15T07:59:55.523581136Z,-1.72,1.03,-2.24,0.86,0.00,1.90,1.90,1.38,3.28,3.10,4.31,3.79,3.45,6.21,,,,,,,,,,,,,,
1799999995531574741,2027-01-15T07:59:55.531574741Z,-1.72,0.17,-0.34,1.55,-2.41,0.86,2.24,3.10,2.93,5.00,4.14,4.14,4.66,5.34,,,,,,,,,,,,,,
1799999995539568346,2027-01-15T07:59:55.539568346Z,-3.97,-1.90,-0.17,2.07,-0.86,1.90,1.72,3.10,2.59,5.86,5.86,5.17,5.86,5.17,,,,,,,,,,,,,,
1799999995547561951,2027-01-15T07:59:55.547561951Z,-2.59,-1.90,-1.03,0.86,1.03,2.07,1.55,2.24,2.76,3.97,6.55,5.86,5.17,5.34,,,,,,,,,,,,,,
1799999995555555556,2027-01-15T07:59:55.555555556Z,-0.69,1.38,-1.03,-0.34,0.17,1.03,1.72,2.59,2.59,2.93,4.66,5.34,5.34,6.38,,,,,,,,,,,,,,
1799999995563549161,2027-01-15T07:59:55.563549161Z,-0.52,2.76,0.34,0.34,1.21,1.72,1.03,3.10,2.76,4.14,3.10,6.21,6.72,6.55,,,,,,,,,,,,,,
1799999995571542766,2027-01-15T07:59:55.571542766Z,-3.10,-1.90,1.72,-0.34,2.76,3.62,1.21,3.45,3.62,4.31,2.59,7.93,6.55,4.83,,,,,,,,,,,,,,
1799999995579536371,2027-01-15T07:59:55.579536371Z,-4.31,-3.62,1.38,-2.24,2.07,3.45,1.55,4.14,3.62,3.10,1.90,6.72,5.34,4.66,,,,,,,,,,,,,,
1799999995587529977,2027-01-15T07:59:55.587529977Z,-1.38,0.34,-0.17,-1.90,1.03,1.03,0.34,3.97,2.59,3.97,1.90,2.59,4.14,6.38,,,,,,,,,,,,,,
1799999995595523582,2027-01-15T07:59:55.595523582Z,-0.86,2.24,-0.69,0.52,1.38,-0.17,-0.34,3.28,2.93,5.17,3.79,0.52,4.83,6.03,,,,,,,,,,,,,,
1799999995603517187,2027-01-15T07:59:55.603517187Z,-0.17,0.69,0.86,2.59,1.55,0.34,1.21,3.28,4.83,4.66,5.86,3.45,5.52,6.38,,,,,,,,,,,,,,
1799999995611510792,2027-01-15T07:59:55.611510792Z,1.03,-0.17,1.72,1.55,1.21,0.52,2.07,3.62,4.31,4.31,5.69,5.69,4.31,7.93,,,,,,,,,,,,,,
1799999995619504397,2027-01-15T07:59:55.619504397Z,0.52,1.03,1.55,-1.03,0.86,1.55,0.86,2.41,1.21,4.83,3.45,4.66,3.62,7.07,,,,,,,,,,,,,,
1799999995627498002,2027-01-15T07:59:55.627498002Z,-0.69,1.38,1.90,-1.72,1.55,2.93,-0.52,0.69,0.17,5.00,3.28,3.79,5.52,5.86,,,,,,,,,,,,,,
1799999995635491607,2027-01-15T07:59:55.635491607Z,-1.21,0.00,1.55,1.38,2.07,2.76,0.00,0.86,1.03,4.31,6.03,4.48,7.07,6.72,,,,,,,,,,,,,,
1799999995643485212,2027-01-15T07:59:55.643485212Z,-1.03,0.00,0.86,4.83,1.72,1.21,0.69,1.90,-0.34,4.31,5.86,5.00,6.72,7.24,,,,,,,,,,,,,,
1799999995651478817,2027-01-15T07:59:55.651478817Z,-0.52,1.21,1.03,3.97,1.55,1.03,0.69,1.90,1.55,4.14,3.79,5.00,5.86,5.86,,,,,,,,,,,,,,
1799999995659472423,2027-01-15T07:59:55.659472423Z,0.17,0.69,0.86,0.86,1.03,1.90,0.86,1.21,5.34,4.48,3.97,5.17,5.00,5.34,,,,,,,,,,,,,,
1799999995667466028,2027-01-15T07:59:55.667466028Z,0.34,1.38,-0.17,-0.17,0.86,1.38,1.72,1.03,5.17,5.52,4.83,4.48,4.31,6.72,,,,,,,,,,,,,,
1799999995675459633,2027-01-15T07:59:55.675459633Z,1.38,2.07,-0.52,0.69,1.90,1.21,2.93,1.72,2.41,4.83,5.17,3.28,4.48,6.72,,,,,,,,,,,,,,
1799999995683453238,2027-01-15T07:59:55.683453238Z,0.52,0.86,0.52,1.38,1.72,2.41,2.93,2.59,1.38,3.10,6.55,3.79,4.83,5.52,,,,,,,,,,,,,,
1799999995691446843,2027-01-15T07:59:55.691446843Z,0.17,-0.69,-0.34,1.38,-0.52,3.28,1.72,3.62,2.41,4.48,6.03,5.52,4.31,5.69,,,,,,,,,,,,,,
1799999995699440448,2027-01-15T07:59:55.699440448Z,-1.38,-0.52,-1.72,1.72,-1.38,3.28,2.07,4.66,3.97,5.86,3.62,5.52,4.31,5.86,,,,,,,,,,,,,,
1799999995707434053,2027-01-15T07:59:55.707434053Z,2.07,0.34,-1.21,1.90,-0.34,2.76,3.10,4.31,4.66,3.62,3.79,5.17,6.21,5.34,,,,,,,,,,,,,,
1799999995715427658,2027-01-15T07:59:55.715427658Z,-0.86,-0.34,-1.38,0.34,0.52,1.90,3.62,3.79,2.76,1.90,5.69,6.21,7.07,5.69,,,,,,,,,,,,,,
1799999995723421263,2027-01-15T07:59:55.723421263Z,0.34,-0.52,-1.38,-0.52,0.34,1.21,2.93,3.45,1.72,2.93,5.52,6.90,5.17,6.03,,,,,,,,,,,,,,
1799999995731414869,2027-01-15T07:59:55.731414869Z,0.52,0.69,-0.34,0.69,-0.52,1.38,2.59,3.79,2.59,3.97,4.31,5.86,3.97,5.52,,,,,,,,,,,,,,
1799999995739408474,2027-01-15T07:59:55.739408474Z,0.52,1.55,0.00,0.52,0.00,2.24,2.59,4.66,3.28,4.14,3.10,4.83,5.69,5.69,,,,,,,,,,,,,,
1799999995747402079,2027-01-15T07:59:55.747402079Z,0.17,0.86,-0.34,-0.86,0.86,2.07,1.72,4.48,2.93,5.34,3.28,6.03,5.86,6.72,,,,,,,,,,,,,,
1799999995755395684,2027-01-15T07:59:55.755395684Z,-2.76,-0.34,-0.17,-1.55,0.17,1.03,1.90,3.45,3.79,5.86,4.48,6.55,4.31,6.21,,,,,,,,,,,,,,
1799999995763389289,2027-01-15T07:59:55.763389289Z,-1.55,-0.34,-1.03,-0.69,-0.17,1.03,2.24,2.41,5.17,4.14,4.83,4.48,3.28,4.83,,,,,,,,,,,,,,
1799999995771382894,2027-01-15T07:59:55.771382894Z,-1.21,-1.03,-1.90,-0.34,0.69,2.93,1.55,2.76,5.17,2.41,4.83,3.97,3.10,5.34,,,,,,,,,,,,,,
1799999995779376499,2027-01-15T07:59:55.779376499Z,-1.03,-3.28,-1.21,-0.86,1.55,3.28,1.90,3.79,4.48,2.93,6.72,5.69,3.62,6.03,,,,,,,,,,,,,,
1799999995787370104,2027-01-15T07:59:55.787370104Z,-1.21,-3.28,-0.17,-0.17,1.55,0.86,3.28,3.10,4.83,3.97,7.41,4.83,5.34,5.52,,,,,,,,,,,,,,
1799999995795363710,2027-01-15T07:59:55.795363710Z,-0.34,-1.55,0.52,0.17,0.17,-0.17,3.28,2.93,4.48,3.62,5.17,3.79,7.07,6.03,,,,,,,,,,,,,,
1799999995803357315,2027-01-15T07:59:55.803357315Z,-0.69,-1.03,0.34,-0.17,-0.52,0.69,2.59,4.66,4.31,3.10,5.52,5.69,6.21,6.72,,,,,,,,,,,,,,
1799999995811350920,2027-01-15T07:59:55.811350920Z,-1.03,-1.55,0.34,0.00,1.21,1.21,2.59,5.34,4.31,2.93,6.72,6.03,3.62,6.55,,,,,,,,,,,,,,
1799999995819344525,2027-01-15T07:59:55.819344525Z,-1.55,-2.07,0.34,-0.69,1.55,1.38,2.41,4.66,3.62,3.28,5.17,4.48,3.79,7.07,,,,,,,,,,,,,,
1799999995827338130,2027-01-15T07:59:55.827338130Z,-1.72,-1.38,0.00,0.00,1.03,1.55,3.62,5.00,3.79,3.28,4.14,5.52,6.55,7.24,,,,,,,,,,,,,,
1799999995835331735,2027-01-15T07:59:55.835331735Z,1.21,-0.69,0.17,1.38,2.24,2.59,4.48,3.45,2.76,3.28,5.34,7.76,5.86,6.72,,,,,,,,,,,,,,
1799999995843325340,2027-01-15T07:59:55.843325340Z,-0.17,-1.03,0.86,1.03,2.07,1.90,3.97,2.41,2.76,4.31,4.83,7.07,4.66,6.72,,,,,,,,,,,,,,
1799999995851318945,2027-01-15T07:59:55.851318945Z,-1.55,-1.55,1.72,-0.34,1.55,0.86,2.76,1.03,5.17,5.86,3.45,5.00,5.86,6.90,,,,,,,,,,,,,,
1799999995859312550,2027-01-15T07:59:55.859312550Z,-0.34,-0.34,0.86,-0.52,1.38,2.24,2.93,2.76,5.00,5.17,4.48,4.31,5.17,8.28,,,,,,,,,,,,,,
1799999995867306156,2027-01-15T07:59:55.867306156Z,-1.55,-1.03,0.52,0.17,-0.34,2.41,1.72,3.28,3.45,3.79,5.34,4.83,4.48,9.48,,,,,,,,,,,,,,
1799999995875299761,2027-01-15T07:59:55.875299761Z,-5.69,-1.55,0.34,0.86,0.00,0.17,1.90,1.90,3.62,3.79,4.66,5.69,5.52,7.93,,,,,,,,,,,,,,
1799999995883293366,2027-01-15T07:59:55.883293366Z,-2.24,0.00,-0.17,1.03,1.72,-1.55,3.10,1.38,3.62,5.69,5.00,6.38,6.38,5.17,,,,,,,,,,,,,,
1799999995891286971,2027-01-15T07:59:55.891286971Z,-1.90,0.69,0.17,1.03,2.24,0.17,3.10,1.21,3.28,6.21,5.86,6.38,5.86,4.48,,,,,,,,,,,,,,
1799999995899280576,2027-01-15T07:59:55.899280576Z,-0.17,0.17,1.21,1.21,1.72,2.59,2.07,-0.52,4.14,4.66,5.00,5.69,5.86,5.34,,,,,,,,,,,,,,
1799999995907274181,2027-01-15T07:59:55.907274181Z,-0.34,0.69,1.55,0.34,1.55,3.28,1.72,0.34,3.97,5.17,3.45,5.00,5.34,6.03,,,,,,,,,,,,,,
1799999995915267786,2027-01-15T07:59:55.915267786Z,-0.86,1.90,1.21,-0.52,1.38,2.24,3.10,3.45,2.93,6.03,3.28,4.31,4.31,6.90,,,,,,,,,,,,,,
1799999995923261391,2027-01-15T07:59:55.923261391Z,-2.59,1.72,0.52,0.00,1.55,1.90,3.62,3.97,3.79,5.34,3.10,4.66,3.97,7.41,,,,,,,,,,,,,,
1799999995931254997,2027-01-15T07:59:55.931254997Z,-4.31,-0.69,-1.38,0.34,1.90,2.24,2.24,2.41,5.00,4.66,3.28,6.55,4.31,6.72,,,,,,,,,,,,,,
1799999995939248602,2027-01-15T07:59:55.939248602Z,-3.45,-2.07,-2.24,0.17,1.55,1.55,1.72,1.90,3.45,3.62,5.00,7.59,4.31,6.72,,,,,,,,,,,,,,
1799999995947242207,2027-01-15T07:59:55.947242207Z,-2.07,-2.07,-0.69,0.86,2.24,0.52,2.41,2.59,2.41,3.10,6.72,6.55,4.83,5.52,,,,,,,,,,,,,,
1799999995955235812,2027-01-15T07:59:55.955235812Z,-2.07,-2.24,0.69,1.90,3.97,0.69,2.24,4.14,4.48,4.31,7.59,5.17,5.69,2.59,,,,,,,,,,,,,,
1799999995963229417,2027-01-15T07:59:55.963229417Z,,-1.03,-0.34,2.76,4.14,0.17,2.59,4.14,5.69,4.48,5.86,4.31,6.03,2.76,,,,,,,,,,,,,,
1799999995971223022,2027-01-15T07:59:55.971223022Z,-3.10,-1.21,-1.72,3.10,2.07,-0.69,2.76,2.59,3.79,2.24,3.97,3.62,5.69,6.03,,,,,,,,,,,,,,
1799999995979216627,2027-01-15T07:59:55.979216627Z,-3.28,-1.03,-1.38,3.28,1.72,0.34,2.24,3.97,2.93,0.86,4.14,3.79,5.00,7.76,,,,,,,,,,,,,,
1799999995987210232,2027-01-15T07:59:55.987210232Z,-1.03,0.86,-0.86,2.24,2.76,1.38,2.59,6.38,4.31,2.76,3.62,5.34,5.52,7.07,,,,,,,,,,,,,,
1799999995995203837,2027-01-15T07:59:55.995203837Z,-1.03,0.00,-1.55,0.86,1.90,0.52,3.28,5.52,3.79,5.00,2.41,7.07,6.72,7.41,,,,,,,,,,,,,,
1799999996003197443,2027-01-15T07:59:56.003197443Z,-0.69,-0.69,-1.55,0.52,0.17,-0.17,3.28,2.93,2.41,4.14,3.28,6.90,7.24,6.72,,,,,,,,,,,,,,
1799999996011191048,2027-01-15T07:59:56.011191048Z,-0.17,0.17,-1.21,0.69,-0.17,0.52,2.76,1.55,1.55,1.90,4.14,4.66,6.38,5.52,,,,,,,,,,,,,,
1799999996019184653,2027-01-15T07:59:56.019184653Z,0.17,-1.55,-1.90,-0.69,0.69,0.34,2.07,1.90,1.90,1.72,3.28,4.14,6.03,5.00,,,,,,,,,,,,,,
1799999996027178258,2027-01-15T07:59:56.027178258Z,-0.34,-2.59,-1.72,-1.38,1.21,-0.34,2.93,1.90,1.72,2.24,3.45,6.90,6.55,6.21,,,,,,,,,,,,,,
1799999996035171863,2027-01-15T07:59:56.035171863Z,0.17,0.17,-0.69,0.52,0.69,-0.17,4.31,2.07,0.86,1.90,5.00,7.07,6.72,6.90,,,,,,,,,,,,,,
1799999996043165468,2027-01-15T07:59:56.043165468Z,0.17,1.55,0.52,3.28,-0.34,0.00,2.76,2.93,1.55,3.10,4.14,3.97,5.86,5.52,,,,,,,,,,,,,,
1799999996051159073,2027-01-15T07:59:56.051159073Z,-0.17,-0.69,0.34,3.28,-0.69,0.00,0.17,4.14,3.28,5.17,3.28,2.59,4.66,4.66,,,,,,,,,,,,,,
1799999996059152678,2027-01-15T07:59:56.059152678Z,-1.72,-2.07,0.34,0.52,-0.69,0.17,0.69,4.48,2.76,5.69,4.48,3.79,4.48,6.38,,,,,,,,,,,,,,
1799999996067146283,2027-01-15T07:59:56.067146283Z,-1.21,-0.69,1.72,0.00,-0.17,1.03,2.07,2.93,1.72,5.00,4.66,4.14,5.17,6.21,,,,,,,,,,,,,,
1799999996075139889,2027-01-15T07:59:56.075139889Z,0.86,-1.21,1.38,1.38,1.21,2.07,2.24,1.55,2.59,4.66,2.76,3.62,5.34,4.48,,,,,,,,,,,,,,
1799999996083133494,2027-01-15T07:59:56.083133494Z,0.69,-2.41,0.17,1.38,1.90,2.93,2.59,1.90,3.62,3.79,3.10,4.31,6.03,5.52,,,,,,,,,,,,,,
1799999996091127099,2027-01-15T07:59:56.091127099Z,0.00,-1.55,0.52,1.03,0.69,2.41,1.03,2.59,3.45,3.62,5.17,5.00,7.24,5.86,,,,,,,,,,,,,,
1799999996099120704,2027-01-15T07:59:56.099120704Z,-0.52,-0.69,0.52,3.10,-0.69,1.72,-0.86,3.28,2.93,3.79,3.97,5.00,7.07,3.45,,,,,,,,,,,,,,
1799999996107114309,2027-01-15T07:59:56.107114309Z,-1.03,0.52,0.00,4.83,-0.34,2.07,-1.38,3.79,2.59,3.62,2.24,4.14,5.17,4.14,,,,,,,,,,,,,,
1799999996115107914,2027-01-15T07:59:56.115107914Z,-0.69,0.69,-0.69,3.10,0.69,2.59,-0.69,4.48,1.90,3.62,4.14,3.62,4.14,7.07,,,,,,,,,,,,,,
1799999996123101519,2027-01-15T07:59:56.123101519Z,-0.69,-0.34,-0.52,0.69,0.86,2.07,-0.69,4.14,2.41,4.31,5.86,3.97,5.00,7.76,,,,,,,,,,,,,,
1799999996131095124,2027-01-15T07:59:56.131095124Z,1.55,-0.34,1.21,0.69,0.00,1.55,0.34,3.10,3.45,4.66,4.31,5.00,5.86,7.07,,,,,,,,,,,,,,
1799999996139088730,2027-01-15T07:59:56.139088730Z,0.17,0.69,2.59,-0.17,-0.52,2.41,1.90,3.28,2.76,4.14,2.93,4.83,6.03,7.59,,,,,,,,,,,,,,
1799999996147082335,2027-01-15T07:59:56.147082335Z,0.34,1.03,1.38,-1.90,-0.52,2.93,1.55,3.10,1.21,3.97,3.28,3.97,5.86,7.07,,,,,,,,,,,,,,
1799999996155075940,2027-01-15T07:59:56.155075940Z,0.52,0.69,0.17,-1.38,-0.69,1.38,1.38,1.90,2.41,4.83,3.28,3.97,5.86,6.21,,,,,,,,,,,,,,
1799999996163069545,2027-01-15T07:59:56.163069545Z,1.21,1.03,-0.69,0.52,0.52,1.55,3.10,2.07,2.07,3.97,3.45,4.66,5.34,6.72,,,,,,,,,,,,,,
1799999996171063150,2027-01-15T07:59:56.171063150Z,1.90,0.52,-1.21,2.07,1.38,1.90,3.10,3.10,1.38,3.45,3.28,4.66,5.34,5.34,,,,,,,,,,,,,,
1799999996179056755,2027-01-15T07:59:56.179056755Z,0.52,-0.69,-2.07,2.59,1.55,1.21,1.55,4.31,1.38,2.24,3.28,4.66,4.66,4.66,,,,,,,,,,,,,,
1799999996187050360,2027-01-15T07:59:56.187050360Z,-0.52,-0.86,0.34,0.69,-0.17,0.17,2.24,3.62,2.24,2.24,4.31,3.79,3.97,7.41,,,,,,,,,,,,,,
1799999996195043965,2027-01-15T07:59:56.195043965Z,-0.69,-0.17,2.41,-0.52,0.34,2.76,3.45,2.07,2.76,3.10,4.31,2.59,3.97,7.41,,,,,,,,,,,,,,
1799999996203037570,2027-01-15T07:59:56.203037570Z,-0.17,0.00,1.72,1.90,1.72,3.62,2.93,2.07,2.59,3.45,3.62,4.83,4.66,5.34,,,,,,,,,,,,,,
1799999996211031176,2027-01-15T07:59:56.211031176Z,0.34,-1.03,1.38,2.93,0.86,1.38,2.24,3.10,2.76,3.79,4.31,8.28,5.52,5.52,,,,,,,,,,,,,,
1799999996219024781,2027-01-15T07:59:56.219024781Z,-0.34,-0.86,1.38,0.69,-0.17,0.86,2.93,2.07,3.45,4.48,4.83,6.55,5.69,6.72,,,,,,,,,,,,,,
1799999996227018386,2027-01-15T07:59:56.227018386Z,0.34,-0.17,-0.17,-0.86,1.21,2.24,3.62,0.52,3.28,4.31,3.28,3.10,5.34,6.03,,,,,,,,,,,,,,
1799999996235011991,2027-01-15T07:59:56.235011991Z,-1.90,-0.52,-1.90,-1.21,2.59,1.90,3.28,0.69,3.45,4.31,2.07,3.97,6.38,5.17,,,,,,,,,,,,,,
1799999996243005596,2027-01-15T07:59:56.243005596Z,-0.34,0.00,-2.07,-1.55,1.72,0.69,2.41,1.21,4.31,3.97,3.28,5.52,7.24,6.55,,,,,,,,,,,,,,
1799999996250999201,2027-01-15T07:59:56.250999201Z,0.34,0.86,-0.86,-0.69,0.52,0.00,2.59,1.38,3.79,2.76,4.66,3.79,6.38,8.28,,,,,,,,,,,,,,
1799999996258992806,2027-01-15T07:59:56.258992806Z,-0.69,0.52,0.52,-0.17,0.86,0.00,2.76,1.03,2.59,1.55,3.45,3.10,5.52,7.93,,,,,,,,,,,,,,
1799999996266986411,2027-01-15T07:59:56.266986411Z,-0.69,-0.69,0.52,-0.52,1.03,0.69,2.24,0.69,2.59,1.21,1.90,4.48,6.21,5.69,,,,,,,,,,,,,,
1799999996274980016,2027-01-15T07:59:56.274980016Z,-0.52,-1.55,-1.03,0.00,0.17,1.38,2.59,1.21,3.62,2.76,3.45,4.14,6.21,4.66,,,,,,,,,,,,,,
1799999996282973622,2027-01-15T07:59:56.282973622Z,0.17,-0.17,-1.72,1.03,0.34,2.07,2.76,1.21,3.28,4.48,6.38,2.76,4.48,6.03,,,,,,,,,,,,,,
1799999996290967227,2027-01-15T07:59:56.290967227Z,-3.62,0.69,-0.69,1.38,1.72,3.28,2.76,1.55,1.90,3.62,7.07,2.93,3.79,6.21,,,,,,,,,,,,,,
1799999996298960832,2027-01-15T07:59:56.298960832Z,-3.45,-1.03,0.17,1.03,1.90,3.45,3.10,2.24,2.07,2.76,4.83,3.97,5.52,5.17,,,,,,,,,,,,,,
1799999996306954437,2027-01-15T07:59:56.306954437Z,-0.86,-2.76,0.34,0.52,0.69,1.90,1.72,2.24,3.97,4.31,3.97,5.86,7.07,6.21,,,,,,,,,,,,,,
1799999996314948042,2027-01-15T07:59:56.314948042Z,-0.86,-1.55,-0.52,-0.86,1.55,0.52,-0.69,3.28,5.86,4.66,5.52,7.76,7.07,7.07,,,,,,,,,,,,,,
1799999996322941647,2027-01-15T07:59:56.322941647Z,0.00,1.03,0.52,-0.86,3.45,0.86,-0.52,3.79,5.52,3.28,5.52,7.41,7.07,5.17,,,,,,,,,,,,,,
1799999996330935252,2027-01-15T07:59:56.330935252Z,0.00,0.86,1.55,0.52,3.10,1.38,1.90,3.10,3.97,2.41,2.93,5.17,5.86,3.97,,,,,,,,,,,,,,
1799999996338928857,2027-01-15T07:59:56.338928857Z,-2.41,-0.52,0.00,1.55,1.90,1.03,2.07,3.28,2.93,2.41,1.72,3.28,4.66,5.52,,,,,,,,,,,,,,
1799999996346922463,2027-01-15T07:59:56.346922463Z,-2.59,-0.17,-0.86,1.21,2.41,0.52,1.55,3.62,2.93,2.41,3.97,2.59,4.48,6.03,,,,,,,,,,,,,,
1799999996354916068,2027-01-15T07:59:56.354916068Z,-2.59,-1.72,0.17,0.52,2.24,1.72,3.10,2.76,3.79,2.93,3.97,3.62,3.97,6.21,,,,,,,,,,,,,,
1799999996362909673,2027-01-15T07:59:56.362909673Z,-0.86,-3.28,0.00,-0.34,0.69,3.45,2.76,1.90,4.83,3.79,1.03,5.69,4.14,7.41,,,,,,,,,,,,,,
1799999996370903278,2027-01-15T07:59:56.370903278Z,-0.34,-2.76,-1.03,-1.90,-0.86,4.66,0.52,2.07,3.28,4.31,1.72,5.86,4.31,6.03,,,,,,,,,,,,,,
1799999996378896883,2027-01-15T07:59:56.378896883Z,0.17,-2.59,-1.55,-1.90,-0.34,3.97,0.17,2.59,1.21,3.79,5.69,4.48,3.45,2.76,,,,,,,,,,,,,,
1799999996386890488,2027-01-15T07:59:56.386890488Z,-0.34,-1.90,-1.21,0.86,1.03,2.59,0.86,1.90,1.90,2.59,5.86,5.00,3.28,3.10,,,,,,,,,,,,,,
1799999996394884093,2027-01-15T07:59:56.394884093Z,-3.45,-1.21,-1.72,2.41,0.86,1.55,0.34,1.55,3.79,1.90,3.45,6.21,4.83,6.21,,,,,,,,,,,,,,
1799999996402877698,2027-01-15T07:59:56.402877698Z,-4.14,-0.52,-2.24,1.03,-0.34,1.21,0.86,2.41,3.79,2.93,3.97,6.38,5.52,6.55,,,,,,,,,,,,,,
1799999996410871303,2027-01-15T07:59:56.410871303Z,-3.79,-1.03,-1.38,0.00,0.34,1.90,2.07,3.62,2.76,4.48,5.34,5.86,4.48,3.97,,,,,,,,,,,,,,
1799999996418864909,2027-01-15T07:59:56.418864909Z,-3.62,-2.24,-0.34,0.86,1.55,2.76,1.72,4.48,1.55,5.86,5.00,6.21,5.00,4.14,,,,,,,,,,,,,,
1799999996426858514,2027-01-15T07:59:56.426858514Z,0.17,-2.59,0.86,1.55,1.21,2.41,1.03,3.10,0.52,5.69,4.66,6.55,6.55,6.90,,,,,,,,,,,,,,
1799999996434852119,2027-01-15T07:59:56.434852119Z,0.34,-2.24,0.69,0.52,1.38,1.21,2.76,1.38,1.55,4.83,3.79,5.86,6.55,6.90,,,,,,,,,,,,,,
1799999996442845724,2027-01-15T07:59:56.442845724Z,0.34,-1.90,-0.17,-0.34,1.21,1.38,3.79,1.03,4.14,4.31,3.62,4.48,4.83,4.31,,,,,,,,,,,,,,
1799999996450839329,2027-01-15T07:59:56.450839329Z,-0.86,0.00,-1.03,-0.52,0.00,2.59,1.38,1.72,4.83,4.31,5.34,3.10,4.48,4.66,,,,,,,,,,,,,,
1799999996458832934,2027-01-15T07:59:56.458832934Z,-1.38,0.86,-1.90,-1.21,-0.17,2.59,0.17,3.28,2.59,3.62,5.69,2.93,5.34,7.41,,,,,,,,,,,,,,
1799999996466826539,2027-01-15T07:59:56.466826539Z,-2.41,-0.86,-1.72,-0.69,0.52,0.86,2.24,4.14,0.69,2.76,2.93,4.31,4.66,8.10,,,,,,,,,,,,,,
1799999996474820144,2027-01-15T07:59:56.474820144Z,-0.86,-1.21,-0.52,0.52,0.52,1.55,3.45,3.10,1.21,2.41,2.07,5.00,4.31,7.41,,,,,,,,,,,,,,
1799999996482813750,2027-01-15T07:59:56.482813750Z,-0.69,0.86,0.17,0.52,1.03,4.14,1.72,1.90,1.90,3.28,5.34,4.31,6.03,7.76,,,,,,,,,,,,,,
1799999996490807355,2027-01-15T07:59:56.490807355Z,,0.17,-0.52,-0.52,2.07,3.28,0.52,1.72,2.24,4.66,7.07,4.48,7.59,5.69,,,,,,,,,,,,,,
1799999996498800960,2027-01-15T07:59:56.498800960Z,0.00,-0.17,0.00,1.55,2.07,2.76,2.41,1.72,3.79,5.86,5.52,4.31,6.55,5.52,,,,,,,,,,,,,,
1799999996506794565,2027-01-15T07:59:56.506794565Z,0.86,0.17,0.17,2.07,1.55,2.76,3.10,2.24,3.79,5.34,5.17,4.14,5.52,5.52,,,,,,,,,,,,,,
1799999996514788170,2027-01-15T07:59:56.514788170Z,-1.38,2.59,1.21,-0.52,1.55,2.76,2.76,2.41,1.90,4.14,4.14,5.00,5.52,6.55,,,,,,,,,,,,,,
1799999996522781775,2027-01-15T07:59:56.522781775Z,0.00,0.69,0.52,-0.69,0.69,1.55,1.38,1.72,2.59,4.31,4.14,5.34,4.31,6.55,,,,,,,,,,,,,,
1799999996530775380,2027-01-15T07:59:56.530775380Z,-0.52,-0.34,-0.34,0.69,-0.17,2.07,1.90,2.59,4.31,3.79,5.69,4.14,4.14,8.10,,,,,,,,,,,,,,
1799999996538768985,2027-01-15T07:59:56.538768985Z,-0.34,-0.52,0.17,1.55,-0.52,2.07,2.24,2.59,2.59,2.93,5.34,2.41,5.69,7.41,,,,,,,,,,,,,,
1799999996546762590,2027-01-15T07:59:56.546762590Z,0.17,0.00,1.55,1.03,0.86,2.41,2.41,2.59,0.69,2.24,3.97,2.76,6.72,5.69,,,,,,,,,,,,,,
1799999996554756196,2027-01-15T07:59:56.554756196Z,1.38,-1.21,2.07,0.69,1.72,2.93,2.24,2.24,2.24,2.59,2.24,4.83,6.38,4.83,,,,,,,,,,,,,,
1799999996562749801,2027-01-15T07:59:56.562749801Z,-1.55,-2.07,1.21,1.03,0.86,2.24,0.69,1.03,3.62,2.41,1.55,5.34,6.21,5.00,,,,,,,,,,,,,,
1799999996570743406,2027-01-15T07:59:56.570743406Z,-2.24,-1.03,1.03,1.72,0.69,1.55,-0.34,2.93,3.28,2.59,2.93,4.83,5.69,4.66,,,,,,,,,,,,,,
1799999996578737011,2027-01-15T07:59:56.578737011Z,-0.52,-0.86,0.69,3.28,0.86,1.72,-0.34,5.69,2.76,4.48,3.45,5.00,5.00,5.17,,,,,,,,,,,,,,
1799999996586730616,2027-01-15T07:59:56.586730616Z,-0.34,-1.90,0.00,3.28,0.17,2.41,0.52,5.52,3.10,5.17,3.28,4.48,5.00,6.55,,,,,,,,,,,,,,
1799999996594724221,2027-01-15T07:59:56.594724221Z,0.69,-1.55,0.69,1.55,-0.17,2.24,2.59,4.66,3.45,3.97,4.66,4.31,5.34,7.41,,,,,,,,,,,,,,
1799999996602717826,2027-01-15T07:59:56.602717826Z,0.86,-1.21,1.03,2.41,0.52,1.21,3.62,5.00,2.76,4.66,6.21,4.66,5.34,6.38,,,,,,,,,,,,,,
1799999996610711431,2027-01-15T07:59:56.610711431Z,-1.55,-2.07,-0.86,2.24,1.21,1.21,1.72,5.00,2.59,6.38,5.69,4.66,5.69,5.86,,,,,,,,,,,,,,
1799999996618705036,2027-01-15T07:59:56.618705036Z,-0.69,-0.86,-2.24,-1.03,1.90,1.90,0.34,4.31,2.93,5.17,4.31,5.52,6.03,7.07,,,,,,,,,,,,,,
1799999996626698642,2027-01-15T07:59:56.626698642Z,0.34,1.72,-1.72,-1.72,2.24,1.55,0.69,3.62,2.24,2.07,3.28,6.55,4.83,8.45,,,,,,,,,,,,,,
1799999996634692247,2027-01-15T07:59:56.634692247Z,0.00,2.93,-1.03,0.17,1.21,0.17,-0.17,4.31,1.55,1.38,3.62,7.07,3.97,7.93,,,,,,,,,,,,,,
1799999996642685852,2027-01-15T07:59:56.642685852Z,0.52,1.72,0.00,0.69,0.17,-0.34,0.34,5.17,2.41,3.45,5.17,5.52,4.31,7.59,,,,,,,,,,,,,,
1799999996650679457,2027-01-15T07:59:56.650679457Z,1.03,-1.03,0.17,0.17,0.52,1.55,3.45,3.79,3.28,4.66,4.48,3.45,4.14,6.55,,,,,,,,,,,,,,
1799999996658673062,2027-01-15T07:59:56.658673062Z,0.34,-2.07,-0.69,0.00,1.21,3.79,3.79,2.07,3.45,4.14,1.03,3.28,3.62,5.00,,,,,,,,,,,,,,
1799999996666666667,2027-01-15T07:59:56.666666667Z,0.34,0.34,-0.69,-0.69,1.90,2.76,0.52,2.07,3.45,4.48,-0.34,4.31,4.83,5.69,,,,,,,,,,,,,,
1799999996674660272,2027-01-15T07:59:56.674660272Z,-0.34,-0.69,-0.17,-1.55,1.38,1.55,-0.34,1.72,3.10,5.34,2.41,3.97,6.21,6.38,,,,,,,,,,,,,,
1799999996682653877,2027-01-15T07:59:56.682653877Z,-0.52,-2.41,-0.34,-1.72,0.17,2.76,1.72,1.03,2.24,4.48,4.83,4.66,6.38,5.00,,,,,,,,,,,,,,
1799999996690647483,2027-01-15T07:59:56.690647483Z,1.90,-0.69,-0.52,-1.90,0.34,2.93,1.90,2.41,1.90,3.62,5.00,6.21,5.17,5.34,,,,,,,,,,,,,,
1799999996698641088,2027-01-15T07:59:56.698641088Z,-0.69,1.72,-0.52,-0.69,1.72,0.69,0.52,3.79,3.45,4.14,5.34,6.55,4.66,7.07,,,,,,,,,,,,,,
1799999996706634693,2027-01-15T07:59:56.706634693Z,-1.21,0.52,-0.17,1.90,1.72,0.34,1.55,2.93,5.17,4.66,5.00,7.07,6.03,6.03,,,,,,,,,,,,,,
1799999996714628298,2027-01-15T07:59:56.714628298Z,-2.93,-2.07,-0.52,2.76,0.52,2.41,3.10,2.24,4.66,4.14,3.28,6.90,7.41,4.31,,,,,,,,,,,,,,
1799999996722621903,2027-01-15T07:59:56.722621903Z,1.21,-1.90,-1.90,1.90,0.52,2.93,2.76,1.72,2.59,3.62,2.93,4.83,5.86,4.48,,,,,,,,,,,,,,
1799999996730615508,2027-01-15T07:59:56.730615508Z,0.17,0.00,-1.55,0.86,1.21,1.55,2.76,0.69,2.41,4.14,4.31,3.97,3.28,5.34,,,,,,,,,,,,,,
1799999996738609113,2027-01-15T07:59:56.738609113Z,-0.17,-0.34,0.17,-0.34,1.21,1.55,3.28,0.34,3.97,5.17,4.83,5.86,3.45,5.69,,,,,,,,,,,,,,
1799999996746602718,2027-01-15T07:59:56.746602718Z,-2.76,-1.90,-0.52,-0.52,0.52,2.24,2.59,2.24,3.10,5.69,4.66,6.38,4.31,6.55,,,,,,,,,,,,,,
1799999996754596323,2027-01-15T07:59:56.754596323Z,-3.10,-1.72,-1.38,0.52,-0.34,1.72,3.10,5.34,2.93,6.38,3.97,4.66,2.76,6.90,,,,,,,,,,,,,,
1799999996762589929,2027-01-15T07:59:56.762589929Z,-3.28,-0.52,-0.34,1.21,0.17,2.07,4.14,5.69,4.83,5.17,2.59,3.62,3.62,6.72,,,,,,,,,,,,,,
1799999996770583534,2027-01-15T07:59:56.770583534Z,-3.10,-0.17,0.17,1.21,1.38,2.59,2.76,2.07,3.62,2.41,2.59,4.31,6.03,5.86,,,,,,,,,,,,,,
1799999996778577139,2027-01-15T07:59:56.778577139Z,-0.52,-0.52,0.52,1.90,0.86,1.55,1.03,1.38,1.38,1.90,4.66,4.66,6.72,4.66,,,,,,,,,,,,,,
1799999996786570744,2027-01-15T07:59:56.786570744Z,0.34,0.17,2.59,2.07,-0.52,1.21,1.03,3.28,2.76,3.10,5.69,4.31,6.03,5.00,,,,,,,,,,,,,,
1799999996794564349,2027-01-15T07:59:56.794564349Z,-1.55,-0.69,2.59,-0.17,-0.34,1.90,2.24,0.69,4.14,2.59,5.00,5.00,5.34,6.90,,,,,,,,,,,,,,
1799999996802557954,2027-01-15T07:59:56.802557954Z,-2.59,-1.72,-1.03,-1.55,0.86,0.69,3.45,-1.55,2.76,2.07,5.17,6.21,3.62,7.07,,,,,,,,,,,,,,
1799999996810551559,2027-01-15T07:59:56.810551559Z,-2.93,-0.86,-3.28,0.52,1.21,-0.52,3.62,1.72,3.45,2.76,5.17,6.38,3.10,5.86,,,,,,,,,,,,,,
1799999996818545164,2027-01-15T07:59:56.818545164Z,-2.07,-0.17,-1.90,2.07,1.21,0.69,2.93,4.31,6.03,2.59,4.66,5.86,5.00,6.21,,,,,,,,,,,,,,
1799999996826538769,2027-01-15T07:59:56.826538769Z,-1.72,-1.03,-0.17,1.21,2.07,2.41,2.41,3.28,6.03,3.45,5.52,5.69,6.55,7.76,,,,,,,,,,,,,,
1799999996834532375,2027-01-15T07:59:56.834532375Z,-3.45,-0.86,0.86,0.00,2.07,2.76,2.24,3.97,3.45,4.83,4.31,5.00,6.38,6.03,,,,,,,,,,,,,,
1799999996842525980,2027-01-15T07:59:56.842525980Z,0.00,-0.34,2.41,0.00,1.90,2.24,1.90,2.07,3.28,5.69,3.79,4.83,6.21,4.83,,,,,,,,,,,,,,
1799999996850519585,2027-01-15T07:59:56.850519585Z,0.34,1.21,2.93,1.03,1.03,1.21,2.59,-0.52,3.97,6.21,5.52,5.34,6.03,5.52,,,,,,,,,,,,,,
1799999996858513190,2027-01-15T07:59:56.858513190Z,-0.17,1.21,1.03,0.52,1.38,2.07,3.97,1.90,3.28,4.66,5.00,5.69,5.86,4.66,,,,,,,,,,,,,,
1799999996866506795,2027-01-15T07:59:56.866506795Z,0.00,1.90,-0.69,-0.52,1.38,3.10,4.14,4.66,3.79,2.93,3.97,5.86,5.86,4.66,,,,,,,,,,,,,,
1799999996874500400,2027-01-15T07:59:56.874500400Z,-3.62,1.38,-0.52,0.17,1.72,3.45,2.93,4.83,3.97,2.59,3.97,5.69,6.38,6.38,,,,,,,,,,,,,,
1799999996882494005,2027-01-15T07:59:56.882494005Z,0.17,1.90,-1.21,0.86,1.55,3.62,2.41,3.28,3.45,3.97,3.62,5.86,6.03,6.90,,,,,,,,,,,,,,
1799999996890487610,2027-01-15T07:59:56.890487610Z,0.69,1.21,-2.59,1.55,1.38,3.45,2.07,2.76,3.45,4.48,4.14,6.03,5.00,5.69,,,,,,,,,,,,,,
1799999996898481216,2027-01-15T07:59:56.898481216Z,-0.52,-0.52,-1.90,2.59,1.90,1.72,2.24,2.76,2.59,3.97,5.00,6.03,4.31,5.52,,,,,,,,,,,,,,
1799999996906474821,2027-01-15T07:59:56.906474821Z,-0.34,-0.34,0.00,1.55,1.55,0.69,3.28,1.90,2.07,4.83,5.00,6.21,4.83,6.38,,,,,,,,,,,,,,
1799999996914468426,2027-01-15T07:59:56.914468426Z,0.34,0.52,0.86,-0.17,0.52,1.55,2.41,2.76,3.28,5.00,5.52,6.55,5.52,6.03,,,,,,,,,,,,,,
1799999996922462031,2027-01-15T07:59:56.922462031Z,0.00,0.00,0.86,-0.34,-0.17,1.72,1.72,5.17,2.76,3.62,6.72,6.38,5.17,6.21,,,,,,,,,,,,,,
1799999996930455636,2027-01-15T07:59:56.930455636Z,-1.72,-1.03,0.52,0.00,0.17,1.21,3.62,6.38,1.03,3.45,6.03,5.86,4.66,6.90,,,,,,,,,,,,,,
1799999996938449241,2027-01-15T07:59:56.938449241Z,0.34,-1.55,-0.34,0.52,1.03,1.72,2.93,5.86,2.07,4.48,4.31,5.69,5.00,5.34,,,,,,,,,,,,,,
1799999996946442846,2027-01-15T07:59:56.946442846Z,0.52,-0.69,-2.07,1.38,-0.17,1.55,-0.52,5.34,3.97,3.28,3.62,6.21,5.34,4.48,,,,,,,,,,,,,,
1799999996954436451,2027-01-15T07:59:56.954436451Z,0.69,0.34,-2.76,1.55,-2.07,0.52,-0.86,4.48,4.83,1.72,3.62,5.17,4.48,6.21,,,,,,,,,,,,,,
1799999996962430056,2027-01-15T07:59:56.962430056Z,1.21,1.55,0.00,1.38,-0.86,0.00,2.41,3.97,5.86,2.59,3.28,2.41,4.48,6.72,,,,,,,,,,,,,,
1799999996970423662,2027-01-15T07:59:56.970423662Z,1.55,1.55,2.07,1.55,1.72,1.03,5.00,4.83,7.07,4.14,3.79,1.72,4.83,5.52,,,,,,,,,,,,,,
