# spacing_uv=20.0
timestamp_ns,timestamp_iso,AF3,F7,F3,FC5,T7,P7,O1,O2,P8,T8,FC6,F4,F8,AF4,AF3_q,F7_q,F3_q,FC5_q,T7_q,P7_q,O1_q,O2_q,P8_q,T8_q,FC6_q,F4_q,F8_q,AF4_q
1799999990000000000,2027-01-15T07:59:50.000000000Z,,,,,,,,,,,,,,,,,,,,,,,,,,,,
1799999990007686396,2027-01-15T07:59:50.007686396Z,2.35,,,,,,,,4.71,1.32,2.94,4.71,,,,,,,,,,,,,,,,
1799999990015372791,2027-01-15T07:59:50.015372791Z,0.15,-0.88,0.00,-1.32,1.32,2.50,3.09,1.03,2.94,2.50,3.82,5.15,3.82,6.18,,,,,,,,,,,,,,
1799999990023059186,2027-01-15T07:59:50.023059186Z,-0.44,0.74,0.00,0.15,1.18,2.35,2.79,0.59,1.32,3.97,3.82,5.15,2.79,5.00,,,,,,,,,,,,,,
1799999990030745581,2027-01-15T07:59:50.030745581Z,-2.50,1.91,-1.62,1.62,1.03,2.06,3.82,1.32,2.65,2.94,3.24,5.00,3.24,2.65,,,,,,,,,,,,,,
1799999990038431976,2027-01-15T07:59:50.038431976Z,0.44,0.44,-2.79,0.74,1.62,1.47,3.82,2.21,3.24,1.91,3.97,5.44,5.00,1.47,,,,,,,,,,,,,,
1799999990046118371,2027-01-15T07:59:50.046118371Z,0.59,-0.59,-0.29,1.03,0.74,1.32,1.76,1.91,1.18,3.24,4.12,5.74,5.15,2.35,,,,,,,,,,,,,,
1799999990053804766,2027-01-15T07:59:50.053804766Z,0.74,0.15,1.18,0.59,-0.74,1.91,0.74,2.50,1.91,4.12,4.41,4.85,4.41,3.68,,,,,,,,,,,,,,
1799999990061491161,2027-01-15T07:59:50.061491161Z,-0.15,-0.15,-0.74,-0.44,0.29,2.50,0.59,3.97,3.53,2.94,5.29,3.09,5.00,4.26,,,,,,,,,,,,,,
1799999990069177556,2027-01-15T07:59:50.069177556Z,0.88,-1.76,-0.74,0.00,1.32,2.35,-0.74,5.29,2.79,3.97,4.71,1.91,5.59,5.29,,,,,,,,,,,,,,
1799999990076863951,2027-01-15T07:59:50.076863951Z,0.59,-1.91,0.88,-0.15,0.15,2.21,0.15,4.85,3.82,6.03,2.94,2.50,4.12,6.47,,,,,,,,,,,,,,
1799999990084550346,2027-01-15T07:59:50.084550346Z,0.88,0.15,0.00,-0.15,0.44,1.62,3.82,3.38,4.71,5.29,3.09,2.79,3.53,6.03,,,,,,,,,,,,,,
1799999990092236741,2027-01-15T07:59:50.092236741Z,-0.44,2.06,-1.76,2.21,1.91,0.88,5.44,2.50,3.68,3.53,3.68,3.09,5.29,5.15,,,,,,,,,,,,,,
1799999990099923137,2027-01-15T07:59:50.099923137Z,-0.59,1.18,-1.62,4.85,1.62,1.03,1.76,2.21,3.68,2.65,2.50,4.56,6.91,6.18,,,,,,,,,,,,,,
1799999990107609532,2027-01-15T07:59:50.107609532Z,-2.35,-3.09,-0.44,3.38,-0.15,1.18,0.00,3.09,3.68,3.09,2.06,6.18,6.76,6.03,,,,,,,,,,,,,,
1799999990115295927,2027-01-15T07:59:50.115295927Z,-2.35,-5.44,-0.29,0.44,-0.88,0.74,1.62,3.68,2.06,3.97,2.21,5.88,5.00,4.26,,,,,,,,,,,,,,
1799999990122982322,2027-01-15T07:59:50.122982322Z,-0.88,-2.21,-0.15,-0.44,0.44,1.62,0.88,1.91,0.74,5.00,2.35,4.85,3.24,5.29,,,,,,,,,,,,,,
1799999990130668717,2027-01-15T07:59:50.130668717Z,-0.59,0.74,1.47,-0.59,1.62,3.09,0.29,1.03,1.76,5.29,3.09,5.00,3.82,6.47,,,,,,,,,,,,,,
1799999990138355112,2027-01-15T07:59:50.138355112Z,-0.74,0.29,2.35,-0.29,0.74,2.79,1.91,2.35,4.12,3.97,2.79,3.97,5.74,5.44,,,,,,,,,,,,,,
1799999990146041507,2027-01-15T07:59:50.146041507Z,1.62,1.18,0.29,1.62,0.29,1.47,2.50,2.65,3.68,2.94,2.21,3.09,6.18,4.56,,,,,,,,,,,,,,
1799999990153727902,2027-01-15T07:59:50.153727902Z,1.32,1.03,-1.47,2.21,1.03,0.59,1.76,1.91,0.29,3.82,2.94,4.41,5.29,3.24,,,,,,,,,,,,,,
1799999990161414297,2027-01-15T07:59:50.161414297Z,1.18,-1.03,-1.47,1.18,0.88,1.03,1.62,2.21,-1.18,3.97,2.65,5.88,5.74,2.79,,,,,,,,,,,,,,
1799999990169100692,2027-01-15T07:59:50.169100692Z,1.03,-2.21,-1.32,0.59,0.88,2.50,1.62,2.50,1.62,2.21,1.91,5.15,7.35,4.71,,,,,,,,,,,,,,
1799999990176787087,2027-01-15T07:59:50.176787087Z,-0.74,-0.88,-1.47,0.88,1.32,1.62,0.88,1.62,4.41,2.06,3.82,4.41,5.88,5.29,,,,,,,,,,,,,,
1799999990184473482,2027-01-15T07:59:50.184473482Z,-0.59,0.29,-0.74,0.15,1.03,-0.44,0.44,0.74,4.56,4.26,5.59,5.00,2.06,3.82,,,,,,,,,,,,,,
1799999990192159878,2027-01-15T07:59:50.192159878Z,0.74,-0.59,0.29,-1.62,1.18,0.59,0.74,1.18,3.68,5.29,4.12,3.82,2.06,5.00,,,,,,,,,,,,,,
1799999990199846273,2027-01-15T07:59:50.199846273Z,-2.79,0.29,1.47,-1.47,1.76,2.06,1.03,1.32,3.38,4.12,1.91,2.65,5.88,6.62,,,,,,,,,,,,,,
1799999990207532668,2027-01-15T07:59:50.207532668Z,,1.18,2.79,1.18,1.47,1.62,1.03,1.62,2.21,2.79,1.91,3.24,7.50,5.88,,,,,,,,,,,,,,
1799999990215219063,2027-01-15T07:59:50.215219063Z,,-1.18,1.76,1.91,1.47,1.47,1.62,2.50,0.29,1.76,3.09,3.97,6.32,5.29,,,,,,,,,,,,,,
1799999990222905458,2027-01-15T07:59:50.222905458Z,-3.68,-3.38,0.00,0.29,0.88,1.62,2.50,2.50,-0.15,1.76,2.94,4.26,5.88,5.74,,,,,,,,,,,,,,
1799999990230591853,2027-01-15T07:59:50.230591853Z,-2.35,-2.65,0.59,0.44,-0.88,0.59,2.50,1.62,2.50,3.24,3.38,4.41,5.59,4.85,,,,,,,,,,,,,,
1799999990238278248,2027-01-15T07:59:50.238278248Z,1.76,0.15,3.24,1.76,-1.32,-0.59,1.62,0.59,4.85,3.82,6.18,4.26,5.59,3.24,,,,,,,,,,,,,,
1799999990245964643,2027-01-15T07:59:50.245964643Z,-1.47,1.18,4.26,0.74,0.88,-0.59,1.03,0.59,4.41,3.82,7.79,4.41,5.44,2.50,,,,,,,,,,,,,,
1799999990253651038,2027-01-15T07:59:50.253651038Z,-1.91,-0.29,2.79,-0.88,2.50,0.29,1.32,1.47,2.65,4.71,6.47,4.41,4.56,3.38,,,,,,,,,,,,,,
1799999990261337433,2027-01-15T07:59:50.261337433Z,-3.82,-0.74,1.18,-1.47,2.06,0.74,1.76,2.35,0.74,5.74,4.85,4.12,3.82,5.00,,,,,,,,,,,,,,
1799999990269023828,2027-01-15T07:59:50.269023828Z,-1.62,0.44,0.00,-1.32,1.32,0.15,3.09,2.50,-0.59,5.29,4.26,3.97,5.00,6.18,,,,,,,,,,,,,,
1799999990276710223,2027-01-15T07:59:50.276710223Z,-1.03,0.44,-0.15,-2.06,1.03,0.15,4.56,1.47,0.88,3.97,3.82,4.26,6.76,6.62,,,,,,,,,,,,,,
1799999990284396618,2027-01-15T07:59:50.284396618Z,-1.18,-1.32,-0.15,-1.91,1.18,2.06,4.71,0.15,3.82,3.68,2.35,4.71,5.74,6.03,,,,,,,,,,,,,,
1799999990292083014,2027-01-15T07:59:50.292083014Z,0.59,-1.76,-1.32,0.00,1.32,4.26,4.26,1.18,4.71,2.94,1.32,4.41,3.97,5.44,,,,,,,,,,,,,,
1799999990299769409,2027-01-15T07:59:50.299769409Z,0.74,-1.47,-1.62,1.47,1.91,4.71,4.56,3.82,2.94,2.06,1.76,3.97,4.26,4.41,,,,,,,,,,,,,,
1799999990307455804,2027-01-15T07:59:50.307455804Z,-1.03,-1.18,0.15,0.59,1.47,3.38,3.24,3.97,1.18,2.50,2.35,3.38,4.56,3.38,,,,,,,,,,,,,,
1799999990315142199,2027-01-15T07:59:50.315142199Z,-2.65,-0.59,-0.15,-1.18,0.44,2.65,1.62,2.35,1.62,2.21,2.79,2.79,3.09,3.68,,,,,,,,,,,,,,
1799999990322828594,2027-01-15T07:59:50.322828594Z,-1.62,-1.18,-2.06,-1.03,0.29,3.68,0.74,2.06,3.09,1.62,3.24,3.24,3.09,4.12,,,,,,,,,,,,,,
1799999990330514989,2027-01-15T07:59:50.330514989Z,-1.62,-2.21,-2.35,0.15,1.18,3.68,0.29,3.09,4.41,2.21,3.24,4.12,5.29,4.71,,,,,,,,,,,,,,
1799999990338201384,2027-01-15T07:59:50.338201384Z,-4.26,-0.88,-1.47,-0.44,1.76,2.06,1.32,4.12,5.59,1.91,3.09,5.00,6.32,5.44,,,,,,,,,,,,,,
1799999990345887779,2027-01-15T07:59:50.345887779Z,0.15,0.74,-0.74,-0.59,1.47,0.44,2.79,2.94,5.29,2.35,2.94,4.56,5.29,5.00,,,,,,,,,,,,,,
1799999990353574174,2027-01-15T07:59:50.353574174Z,0.88,-0.15,-1.03,0.59,1.32,-0.15,1.76,1.32,3.82,3.53,3.68,3.38,5.15,4.12,,,,,,,,,,,,,,
1799999990361260569,2027-01-15T07:59:50.361260569Z,0.88,-1.03,-2.21,0.29,1.03,-0.29,0.00,2.21,4.12,3.38,5.29,4.12,5.44,4.26,,,,,,,,,,,,,,
1799999990368946964,2027-01-15T07:59:50.368946964Z,0.59,-0.29,-1.18,-0.44,0.44,0.29,-0.29,3.09,5.59,3.24,5.59,4.41,5.15,4.71,,,,,,,,,,,,,,
1799999990376633359,2027-01-15T07:59:50.376633359Z,0.29,0.15,0.59,-0.15,0.59,1.18,0.74,2.65,4.12,4.26,5.00,2.65,5.59,3.24,,,,,,,,,,,,,,
1799999990384319755,2027-01-15T07:59:50.384319755Z,0.59,1.32,0.88,0.59,0.59,0.74,1.32,2.06,1.91,4.41,6.76,1.91,4.85,3.97,,,,,,,,,,,,,,
1799999990392006150,2027-01-15T07:59:50.392006150Z,-0.29,1.91,0.00,0.44,-0.15,-0.59,0.88,2.50,2.21,3.97,7.50,2.94,3.53,6.91,,,,,,,,,,,,,,
1799999990399692545,2027-01-15T07:59:50.399692545Z,-0.59,0.88,-0.74,0.00,0.44,0.44,1.18,3.24,2.21,4.26,4.71,3.09,3.97,7.21,,,,,,,,,,,,,,
1799999990407378940,2027-01-15T07:59:50.407378940Z,-0.29,0.74,-1.03,0.29,1.03,2.35,2.21,1.76,0.88,3.53,1.91,2.94,5.74,5.44,,,,,,,,,,,,,,
1799999990415065335,2027-01-15T07:59:50.415065335Z,0.00,-0.59,-1.76,0.29,-0.44,1.91,3.24,0.74,1.62,3.68,2.65,4.26,6.03,6.32,,,,,,,,,,,,,,
1799999990422751730,2027-01-15T07:59:50.422751730Z,0.44,-0.59,-1.47,0.00,-0.44,1.18,3.09,1.18,2.50,4.71,4.41,5.59,4.41,6.62,,,,,,,,,,,,,,
1799999990430438125,2027-01-15T07:59:50.430438125Z,0.29,2.06,-0.59,0.44,0.59,1.62,1.47,0.15,1.47,2.94,4.26,5.88,3.09,3.68,,,,,,,,,,,,,,
1799999990438124520,2027-01-15T07:59:50.438124520Z,-0.88,3.24,0.15,2.35,-0.59,1.03,0.59,0.29,1.91,0.44,3.38,4.85,3.53,2.79,,,,,,,,,,,,,,
1799999990445810915,2027-01-15T07:59:50.445810915Z,0.59,1.62,0.74,3.82,-1.91,0.88,1.32,2.06,4.26,1.32,3.82,4.41,3.68,5.29,,,,,,,,,,,,,,
1799999990453497310,2027-01-15T07:59:50.453497310Z,-0.29,-0.29,1.18,2.21,-0.59,1.76,1.76,2.21,4.56,2.94,4.71,5.29,3.24,5.29,,,,,,,,,,,,,,
1799999990461183705,2027-01-15T07:59:50.461183705Z,-2.65,-0.59,1.76,0.29,0.88,1.76,1.18,1.03,2.50,2.35,5.59,5.74,3.24,3.53,,,,,,,,,,,,,,
1799999990468870100,2027-01-15T07:59:50.468870100Z,0.29,-0.44,1.62,0.44,0.44,0.88,1.18,1.32,2.65,2.79,5.74,5.44,3.53,3.97,,,,,,,,,,,,,,
1799999990476556496,2027-01-15T07:59:50.476556496Z,0.88,-1.18,0.74,0.29,-0.44,1.76,1.91,2.06,3.82,4.26,5.29,5.74,3.82,5.15,,,,,,,,,,,,,,
1799999990484242891,2027-01-15T07:59:50.484242891Z,0.15,-0.29,0.59,0.15,0.74,3.24,2.94,2.06,2.79,4.26,5.29,5.88,4.12,5.74,,,,,,,,,,,,,,
1799999990491929286,2027-01-15T07:59:50.491929286Z,-0.15,1.47,1.62,0.59,3.24,2.35,4.26,1.91,0.44,3.09,4.12,5.15,4.26,5.44,,,,,,,,,,,,,,
1799999990499615681,2027-01-15T07:59:50.499615681Z,-0.59,1.18,2.50,1.03,2.94,0.74,4.41,1.32,-1.32,3.38,2.35,3.53,4.41,5.44,,,,,,,,,,,,,,
1799999990507302076,2027-01-15T07:59:50.507302076Z,-0.59,-0.15,2.21,0.88,-0.15,0.74,3.53,1.76,-0.59,4.41,1.91,1.91,4.56,6.32,,,,,,,,,,,,,,
1799999990514988471,2027-01-15T07:59:50.514988471Z,-0.44,0.29,0.44,0.44,-0.29,1.62,3.38,1.32,1.76,3.68,3.09,2.50,4.26,6.91,,,,,,,,,,,,,,
1799999990522674866,2027-01-15T07:59:50.522674866Z,-0.59,0.74,-0.74,1.47,0.29,1.18,3.53,0.44,3.53,3.09,4.12,4.71,3.97,7.50,,,,,,,,,,,,,,
1799999990530361261,2027-01-15T07:59:50.530361261Z,0.00,-1.32,-0.44,1.91,-2.79,1.32,4.41,1.76,2.94,4.41,4.41,6.03,4.56,7.94,,,,,,,,,,,,,,
1799999990538047656,2027-01-15T07:59:50.538047656Z,0.74,-2.50,0.15,0.44,-2.94,2.65,3.97,2.65,2.21,4.85,3.09,5.59,3.68,6.47,,,,,,,,,,,,,,
1799999990545734051,2027-01-15T07:59:50.545734051Z,0.00,-0.74,1.03,-1.03,0.44,3.09,1.62,1.32,1.76,3.24,2.21,4.41,0.74,3.97,,,,,,,,,,,,,,
1799999990553420446,2027-01-15T07:59:50.553420446Z,-0.44,1.18,0.44,-1.03,0.15,2.35,1.03,2.21,2.21,1.76,3.38,3.09,0.15,2.94,,,,,,,,,,,,,,
1799999990561106841,2027-01-15T07:59:50.561106841Z,-1.18,2.79,-1.32,0.74,-1.32,2.06,2.94,3.68,2.21,2.06,4.12,3.09,3.09,2.50,,,,,,,,,,,,,,
1799999990568793236,2027-01-15T07:59:50.568793236Z,-0.74,1.18,-2.06,1.76,0.74,2.21,2.65,3.38,2.35,2.50,3.53,2.79,5.29,2.50,,,,,,,,,,,,,,
1799999990576479632,2027-01-15T07:59:50.576479632Z,-2.35,-2.21,-1.47,0.44,2.50,2.06,-0.15,1.76,4.71,2.06,4.26,1.76,5.88,4.85,,,,,,,,,,,,,,
1799999990584166027,2027-01-15T07:59:50.584166027Z,-2.21,-2.65,-1.32,0.88,2.21,2.21,-0.88,1.76,5.44,2.79,5.15,3.53,6.47,6.47,,,,,,,,,,,,,,
1799999990591852422,2027-01-15T07:59:50.591852422Z,-1.32,-1.47,-0.74,3.24,1.91,2.35,1.18,4.41,2.94,3.97,4.12,6.62,6.03,5.29,,,,,,,,,,,,,,
1799999990599538817,2027-01-15T07:59:50.599538817Z,-0.59,-1.47,0.74,3.53,1.62,1.76,2.65,4.56,2.65,3.38,3.82,6.32,5.44,4.41,,,,,,,,,,,,,,
1799999990607225212,2027-01-15T07:59:50.607225212Z,0.59,-1.03,1.62,1.18,1.91,1.62,2.79,1.32,4.26,2.79,5.29,3.53,6.47,5.00,,,,,,,,,,,,,,
1799999990614911607,2027-01-15T07:59:50.614911607Z,-2.50,-0.29,1.18,-0.74,2.21,1.32,2.06,0.29,2.79,3.82,4.12,2.21,7.06,4.26,,,,,,,,,,,,,,
1799999990622598002,2027-01-15T07:59:50.622598002Z,-3.82,0.59,0.59,-1.18,1.62,0.44,1.62,2.06,0.29,3.97,1.91,2.65,6.32,4.41,,,,,,,,,,,,,,
1799999990630284397,2027-01-15T07:59:50.630284397Z,-2.21,-0.15,0.44,-0.44,1.91,0.29,2.21,3.09,1.03,3.53,2.35,3.38,5.74,5.29,,,,,,,,,,,,,,
1799999990637970792,2027-01-15T07:59:50.637970792Z,0.44,-0.44,1.32,0.15,1.91,0.44,2.50,2.94,2.50,4.26,2.94,3.24,5.15,4.71,,,,,,,,,,,,,,
1799999990645657187,2027-01-15T07:59:50.645657187Z,0.29,1.18,2.06,0.15,1.32,0.59,2.21,1.76,2.79,4.85,2.21,3.09,3.53,4.41,,,,,,,,,,,,,,
1799999990653343582,2027-01-15T07:59:50.653343582Z,0.29,1.18,1.32,-0.59,2.06,1.91,1.47,1.62,3.38,4.12,3.24,4.26,2.65,5.59,,,,,,,,,,,,,,
1799999990661029977,2027-01-15T07:59:50.661029977Z,1.03,-0.29,0.15,-0.88,0.59,2.35,-0.15,2.94,4.26,3.97,4.71,5.44,4.71,6.03,,,,,,,,,,,,,,
1799999990668716373,2027-01-15T07:59:50.668716373Z,-0.29,-1.62,0.44,-0.29,-2.50,0.74,-0.88,2.06,3.82,4.85,3.97,4.71,6.18,5.44,,,,,,,,,,,,,,
1799999990676402768,2027-01-15T07:59:50.676402768Z,-0.59,-1.32,0.88,0.74,-2.50,0.15,1.18,0.29,3.53,4.26,4.12,3.24,5.44,4.85,,,,,,,,,,,,,,
1799999990684089163,2027-01-15T07:59:50.684089163Z,-2.65,0.00,0.00,0.74,0.15,1.62,1.76,1.76,4.71,2.65,5.29,3.38,5.00,4.12,,,,,,,,,,,,,,
1799999990691775558,2027-01-15T07:59:50.691775558Z,-2.21,-1.03,-0.88,-0.74,1.32,1.62,-0.44,4.26,5.59,2.21,4.56,3.97,5.88,3.68,,,,,,,,,,,,,,
1799999990699461953,2027-01-15T07:59:50.699461953Z,-1.32,-2.35,0.29,-0.44,1.32,0.29,-0.88,2.94,4.85,2.79,2.21,4.56,6.03,4.56,,,,,,,,,,,,,,
1799999990707148348,2027-01-15T07:59:50.707148348Z,2.21,-1.91,1.32,0.74,2.50,1.62,0.74,2.06,4.41,2.35,1.76,5.15,5.88,5.74,,,,,,,,,,,,,,
1799999990714834743,2027-01-15T07:59:50.714834743Z,1.47,-2.06,0.88,-0.44,2.35,3.24,0.00,4.41,4.56,2.21,4.26,4.85,5.00,6.03,,,,,,,,,,,,,,
1799999990722521138,2027-01-15T07:59:50.722521138Z,-1.62,-2.21,0.74,-1.47,1.47,2.06,-1.03,5.00,3.97,3.38,5.88,5.15,3.68,5.44,,,,,,,,,,,,,,
1799999990730207533,2027-01-15T07:59:50.730207533Z,-1.47,-1.76,-0.59,-0.59,2.06,1.03,0.88,3.09,3.53,3.97,4.71,5.29,3.68,4.85,,,,,,,,,,,,,,
1799999990737893928,2027-01-15T07:59:50.737893928Z,-1.32,-0.74,-2.21,0.88,2.06,3.09,2.94,1.91,3.97,3.53,3.68,4.56,3.97,4.85,,,,,,,,,,,,,,
1799999990745580323,2027-01-15T07:59:50.745580323Z,-1.32,0.00,-2.79,1.18,1.03,3.09,2.50,2.35,3.68,3.68,3.09,4.12,3.53,4.26,,,,,,,,,,,,,,
1799999990753266718,2027-01-15T07:59:50.753266718Z,-1.91,-0.29,-2.50,0.29,0.44,0.74,1.47,3.24,2.79,4.41,2.06,4.26,3.97,4.26,,,,,,,,,,,,,,
1799999990760953113,2027-01-15T07:59:50.760953113Z,-0.74,-0.59,-2.06,-0.15,0.44,-0.74,0.74,3.68,1.91,4.85,1.32,4.26,5.00,5.15,,,,,,,,,,,,,,
1799999990768639509,2027-01-15T07:59:50.768639509Z,-0.44,-0.74,-0.59,0.74,0.59,1.18,0.88,3.38,1.32,4.41,1.76,3.68,6.03,5.88,,,,,,,,,,,,,,
1799999990776325904,2027-01-15T07:59:50.776325904Z,-0.59,-1.18,0.44,1.62,1.18,3.97,1.76,3.24,1.91,3.24,2.50,3.09,5.74,4.12,,,,,,,,,,,,,,
1799999990784012299,2027-01-15T07:59:50.784012299Z,-0.74,-0.74,0.00,0.29,1.91,2.06,2.06,2.79,2.79,2.94,3.38,3.97,4.26,2.94,,,,,,,,,,,,,,
1799999990791698694,2027-01-15T07:59:50.791698694Z,-1.32,0.29,-0.44,-1.32,1.76,-0.88,1.76,1.76,2.65,4.26,4.85,4.85,3.82,5.59,,,,,,,,,,,,,,
1799999990799385089,2027-01-15T07:59:50.799385089Z,-1.76,0.29,0.00,-0.59,1.32,0.44,3.09,1.62,1.18,5.00,3.68,4.41,3.82,7.21,,,,,,,,,,,,,,
1799999990807071484,2027-01-15T07:59:50.807071484Z,-1.32,-0.44,0.00,0.74,1.62,2.35,3.53,2.06,0.88,3.68,0.59,3.97,2.79,5.15,,,,,,,,,,,,,,
1799999990814757879,2027-01-15T07:59:50.814757879Z,1.62,-1.76,-1.76,0.29,1.47,1.47,0.88,2.06,3.09,2.06,1.03,4.26,3.09,3.68,,,,,,,,,,,,,,
1799999990822444274,2027-01-15T07:59:50.822444274Z,-0.74,-2.35,-3.53,0.44,1.03,0.00,-1.03,2.65,4.26,1.03,3.24,4.71,5.00,4.26,,,,,,,,,,,,,,
1799999990830130669,2027-01-15T07:59:50.830130669Z,-0.15,-1.18,-3.09,0.88,1.32,0.59,0.59,3.38,2.50,1.62,3.09,4.41,4.26,3.82,,,,,,,,,,,,,,
1799999990837817064,2027-01-15T07:59:50.837817064Z,2.65,0.29,-1.76,-0.29,1.03,1.91,2.06,3.53,0.74,2.50,2.65,4.41,2.94,2.94,,,,,,,,,,,,,,
1799999990845503459,2027-01-15T07:59:50.845503459Z,-0.74,1.91,-0.74,-1.32,0.88,1.76,1.03,1.62,0.29,2.35,3.24,4.85,4.56,3.97,,,,,,,,,,,,,,
1799999990853189854,2027-01-15T07:59:50.853189854Z,-1.18,0.59,-0.44,-0.88,1.62,1.03,0.88,0.29,0.74,1.91,3.82,3.97,6.32,5.59,,,,,,,,,,,,,,
1799999990860876250,2027-01-15T07:59:50.860876250Z,-1.32,-1.18,0.00,0.74,2.06,0.74,1.47,1.62,0.88,3.09,3.82,2.21,5.74,5.44,,,,,,,,,,,,,,
1799999990868562645,2027-01-15T07:59:50.868562645Z,-0.74,0.00,0.44,1.47,1.91,0.00,2.35,2.79,1.32,4.56,3.68,1.91,5.15,4.26,,,,,,,,,,,,,,
1799999990876249040,2027-01-15T07:59:50.876249040Z,-1.32,-0.44,-0.74,-0.59,2.50,0.00,4.26,1.32,2.06,4.26,4.12,3.82,5.15,3.68,,,,,,,,,,,,,,
1799999990883935435,2027-01-15T07:59:50.883935435Z,-0.59,-1.91,-0.44,-1.91,2.21,1.47,4.71,0.15,1.47,3.09,4.85,5.74,4.56,4.26,,,,,,,,,,,,,,
1799999990891621830,2027-01-15T07:59:50.891621830Z,0.29,-1.03,1.18,-1.32,0.44,2.21,3.24,1.18,0.29,3.24,5.15,5.59,4.26,4.26,,,,,,,,,,,,,,
1799999990899308225,2027-01-15T07:59:50.899308225Z,0.59,0.00,1.32,-1.32,-0.44,1.32,4.12,1.62,-0.44,4.71,4.41,4.85,4.71,4.71,,,,,,,,,,,,,,
1799999990906994620,2027-01-15T07:59:50.906994620Z,0.44,-0.44,1.62,-0.29,1.03,2.06,5.15,0.44,0.15,4.71,3.97,4.85,5.29,5.59,,,,,,,,,,,,,,
1799999990914681015,2027-01-15T07:59:50.914681015Z,0.00,-0.88,2.94,0.29,1.62,2.94,4.12,1.18,1.47,3.38,3.09,5.00,5.00,5.59,,,,,,,,,,,,,,
1799999990922367410,2027-01-15T07:59:50.922367410Z,1.18,0.29,2.65,0.44,0.59,2.06,2.79,1.62,2.06,3.53,2.35,5.00,3.97,5.29,,,,,,,,,,,,,,
1799999990930053805,2027-01-15T07:59:50.930053805Z,-0.44,0.88,0.59,1.62,1.03,1.62,3.24,0.74,1.91,4.12,3.09,5.00,3.97,4.71,,,,,,,,,,,,,,
1799999990937740200,2027-01-15T07:59:50.937740200Z,-0.74,0.15,-0.44,1.32,2.35,1.76,2.21,1.91,2.21,3.38,3.24,4.71,5.00,4.12,,,,,,,,,,,,,,
1799999990945426595,2027-01-15T07:59:50.945426595Z,1.32,0.44,0.59,-0.15,0.88,1.18,0.44,4.41,1.32,2.06,2.21,3.97,4.71,4.71,,,,,,,,,,,,,,
1799999990953112991,2027-01-15T07:59:50.953112991Z,1.76,0.44,0.59,0.00,-1.18,-0.29,0.59,4.85,0.88,2.65,3.24,3.38,4.26,4.85,,,,,,,,,,,,,,
1799999990960799386,2027-01-15T07:59:50.960799386Z,1.47,0.88,-0.29,1.32,-0.15,-2.06,1.62,2.21,1.76,3.97,4.56,4.12,5.44,4.12,,,,,,,,,,,,,,
1799999990968485781,2027-01-15T07:59:50.968485781Z,-0.74,1.47,-0.88,0.74,0.74,-2.35,2.50,1.76,2.65,4.85,3.68,5.44,6.03,4.41,,,,,,,,,,,,,,
1799999990976172176,2027-01-15T07:59:50.976172176Z,-0.74,0.44,-0.29,0.74,-0.88,-1.62,3.68,3.53,3.97,4.85,3.53,5.74,5.15,5.44,,,,,,,,,,,,,,
1799999990983858571,2027-01-15T07:59:50.983858571Z,-1.03,1.03,0.44,2.65,-0.74,-2.06,3.97,2.65,4.71,3.97,5.15,4.71,4.85,5.59,,,,,,,,,,,,,,
1799999990991544966,2027-01-15T07:59:50.991544966Z,1.03,2.06,0.59,2.65,0.74,-0.59,2.35,1.62,3.82,2.65,4.71,3.68,4.85,4.41,,,,,,,,,,,,,,
1799999990999231361,2027-01-15T07:59:50.999231361Z,-0.29,0.44,0.44,0.88,0.74,1.32,0.88,3.53,2.79,2.79,2.35,3.38,4.56,3.09,,,,,,,,,,,,,,
1799999991006917756,2027-01-15T07:59:51.006917756Z,0.00,-0.15,1.32,-0.59,1.03,0.29,1.18,4.41,1.47,4.56,1.47,3.09,4.41,2.35,,,,,,,,,,,,,,
1799999991014604151,2027-01-15T07:59:51.014604151Z,1.03,1.32,1.47,-1.62,1.76,-0.29,2.06,2.50,1.32,5.00,2.94,2.65,4.56,3.97,,,,,,,,,,,,,,
1799999991022290546,2027-01-15T07:59:51.022290546Z,0.59,1.91,0.44,-0.15,1.18,1.91,1.76,1.62,3.09,3.97,4.41,4.12,4.85,5.88,,,,,,,,,,,,,,
1799999991029976941,2027-01-15T07:59:51.029976941Z,-1.91,0.88,-0.44,1.76,0.74,1.47,1.18,2.65,3.82,3.97,4.41,5.00,4.26,5.88,,,,,,,,,,,,,,
1799999991037663336,2027-01-15T07:59:51.037663336Z,-0.44,0.74,-0.44,1.32,1.32,-0.59,2.65,2.79,2.50,4.71,3.53,2.94,4.41,4.85,,,,,,,,,,,,,,
1799999991045349731,2027-01-15T07:59:51.045349731Z,0.00,-1.03,0.29,0.00,1.62,0.74,3.53,1.91,3.09,4.26,3.53,2.35,5.29,5.15,,,,,,,,,,,,,,
1799999991053036127,2027-01-15T07:59:51.053036127Z,0.59,-4.71,1.18,-1.03,1.47,1.91,2.94,1.76,3.97,2.94,5.00,3.82,5.44,5.29,,,,,,,,,,,,,,
1799999991060722522,2027-01-15T07:59:51.060722522Z,-2.65,-5.15,1.62,-0.74,0.88,-1.32,2.21,1.76,2.35,2.50,6.62,3.53,4.85,4.85,,,,,,,,,,,,,,
1799999991068408917,2027-01-15T07:59:51.068408917Z,-0.74,-2.21,0.88,0.15,0.74,-2.06,1.62,1.18,1.91,3.09,6.32,3.68,5.15,6.03,,,,,,,,,,,,,,
1799999991076095312,2027-01-15T07:59:51.076095312Z,-1.03,0.00,0.00,0.00,1.47,2.06,2.21,0.88,3.53,2.50,4.85,5.15,5.15,6.32,,,,,,,,,,,,,,
1799999991083781707,2027-01-15T07:59:51.083781707Z,-3.82,0.44,-0.59,-0.15,1.18,3.38,2.79,0.44,4.12,2.65,3.82,4.41,3.97,5.00,,,,,,,,,,,,,,
1799999991091468102,2027-01-15T07:59:51.091468102Z,-2.94,-1.91,0.00,0.29,-0.74,1.18,1.32,2.06,4.56,4.41,4.12,3.38,2.94,4.71,,,,,,,,,,,,,,
1799999991099154497,2027-01-15T07:59:51.099154497Z,1.18,-3.68,1.47,0.15,-2.06,1.76,-0.44,4.12,5.29,4.26,5.15,4.85,2.94,5.44,,,,,,,,,,,,,,
1799999991106840892,2027-01-15T07:59:51.106840892Z,0.59,-2.79,1.76,0.15,-1.18,3.82,0.74,3.53,4.56,1.76,5.00,5.74,4.26,5.00,,,,,,,,,,,,,,
1799999991114527287,2027-01-15T07:59:51.114527287Z,-3.82,-1.76,-0.15,0.74,0.74,2.65,2.79,1.76,3.97,1.32,4.71,4.56,5.29,4.85,,,,,,,,,,,,,,
1799999991122213682,2027-01-15T07:59:51.122213682Z,1.62,-0.29,-1.76,0.44,0.88,0.59,2.50,2.50,4.85,3.09,6.32,3.97,4.85,6.03,,,,,,,,,,,,,,
1799999991129900077,2027-01-15T07:59:51.129900077Z,-0.29,-0.29,-1.76,0.15,-0.44,2.06,2.21,3.53,3.82,2.79,5.44,4.12,4.71,6.62,,,,,,,,,,,,,,
1799999991137586472,2027-01-15T07:59:51.137586472Z,-0.88,-1.47,-0.74,0.59,-0.44,3.68,2.35,1.18,0.44,1.91,2.35,3.68,5.15,6.32,,,,,,,,,,,,,,
1799999991145272868,2027-01-15T07:59:51.145272868Z,-3.82,-1.91,0.29,-0.15,0.74,1.91,1.32,0.15,-0.29,2.94,2.06,3.53,3.97,5.74,,,,,,,,,,,,,,
1799999991152959263,2027-01-15T07:59:51.152959263Z,-2.06,-1.32,0.88,-0.88,1.91,1.18,1.03,3.09,2.06,3.82,2.35,3.38,2.65,5.00,,,,,,,,,,,,,,
1799999991160645658,2027-01-15T07:59:51.160645658Z,-2.35,-0.74,1.32,0.29,1.47,3.38,1.18,3.38,1.32,3.09,1.03,3.09,2.65,4.41,,,,,,,,,,,,,,
1799999991168332053,2027-01-15T07:59:51.168332053Z,-2.65,-1.03,0.29,0.59,0.44,4.12,0.29,1.62,0.59,2.50,1.91,3.82,2.94,4.12,,,,,,,,,,,,,,
1799999991176018448,2027-01-15T07:59:51.176018448Z,-1.18,-2.06,-1.18,-0.44,0.88,2.21,0.44,2.79,3.82,3.09,3.82,5.44,3.53,4.26,,,,,,,,,,,,,,
1799999991183704843,2027-01-15T07:59:51.183704843Z,-0.59,-3.24,-1.62,0.74,0.29,0.74,2.21,3.82,5.15,3.68,3.68,5.29,3.82,5.15,,,,,,,,,,,,,,
1799999991191391238,2027-01-15T07:59:51.191391238Z,1.18,-3.38,-1.62,2.50,-1.18,1.47,3.82,2.06,1.32,4.41,2.79,3.24,3.09,6.32,,,,,,,,,,,,,,
1799999991199077633,2027-01-15T07:59:51.199077633Z,-1.47,-1.03,-1.18,1.91,0.00,2.65,3.38,0.88,-0.88,3.38,3.09,3.38,3.53,6.32,,,,,,,,,,,,,,
1799999991206764028,2027-01-15T07:59:51.206764028Z,-1.32,1.47,-1.62,0.59,2.79,2.06,1.18,1.76,1.47,1.32,3.97,4.85,5.15,5.59,,,,,,,,,,,,,,
1799999991214450423,2027-01-15T07:59:51.214450423Z,,0.88,-2.65,0.00,2.79,0.74,0.44,2.35,3.97,1.32,5.59,3.97,3.53,5.15,,,,,,,,,,,,,,
1799999991222136818,2027-01-15T07:59:51.222136818Z,-1.03,-1.32,-2.50,0.29,0.44,0.59,3.24,1.62,3.68,2.65,6.18,2.94,-0.74,5.44,,,,,,,,,,,,,,
1799999991229823213,2027-01-15T07:59:51.229823213Z,-1.03,-2.94,-2.21,0.29,-0.88,1.76,3.53,1.91,3.09,2.79,4.41,3.97,-0.59,5.74,,,,,,,,,,,,,,
1799999991237509608,2027-01-15T07:59:51.237509608Z,-1.18,-1.47,-0.74,-0.29,-1.18,2.79,-0.15,2.21,4.56,2.06,4.26,5.29,4.56,5.74,,,,,,,,,,,,,,
1799999991245196004,2027-01-15T07:59:51.245196004Z,2.06,0.59,1.18,-1.62,-1.91,2.65,-0.15,1.62,4.71,2.65,4.85,5.15,6.91,5.59,,,,,,,,,,,,,,
1799999991252882399,2027-01-15T07:59:51.252882399Z,0.59,1.18,1.62,-2.35,-1.91,2.35,2.21,1.18,3.38,3.68,3.82,4.56,5.15,5.59,,,,,,,,,,,,,,
1799999991260568794,2027-01-15T07:59:51.260568794Z,0.29,1.76,0.74,-1.62,-1.32,1.91,2.65,1.47,2.06,3.82,2.65,4.12,4.12,5.74,,,,,,,,,,,,,,
1799999991268255189,2027-01-15T07:59:51.268255189Z,,3.24,0.15,0.00,-0.88,1.03,0.15,2.06,2.35,3.24,2.06,3.68,4.41,6.18,,,,,,,,,,,,,,
1799999991275941584,2027-01-15T07:59:51.275941584Z,-1.32,3.97,0.88,1.91,-0.88,1.18,-1.47,2.94,3.68,3.24,3.38,2.94,4.71,6.03,,,,,,,,,,,,,,
1799999991283627979,2027-01-15T07:59:51.283627979Z,0.74,2.65,1.47,3.24,0.44,2.94,1.18,3.38,3.68,3.97,5.74,2.50,3.68,5.00,,,,,,,,,,,,,,
1799999991291314374,2027-01-15T07:59:51.291314374Z,1.03,0.74,0.29,2.21,2.65,3.24,3.09,4.26,2.21,3.68,6.32,3.38,5.00,4.12,,,,,,,,,,,,,,
1799999991299000769,2027-01-15T07:59:51.299000769Z,1.18,-1.32,-0.88,1.18,2.65,0.74,2.06,5.44,0.74,3.82,3.09,5.74,7.50,4.71,,,,,,,,,,,,,,
1799999991306687164,2027-01-15T07:59:51.306687164Z,-1.18,-0.88,-0.29,2.79,1.03,0.15,1.76,5.15,0.15,3.09,0.88,8.09,7.21,5.88,,,,,,,,,,,,,,
1799999991314373559,2027-01-15T07:59:51.314373559Z,-1.62,0.15,0.15,1.76,1.03,1.91,3.24,4.41,1.03,1.47,2.65,7.50,5.44,6.18,,,,,,,,,,,,,,
1799999991322059954,2027-01-15T07:59:51.322059954Z,-2.06,-0.74,-0.29,-0.88,1.47,1.76,3.09,4.26,2.35,1.62,3.97,4.41,4.56,6.18,,,,,,,,,,,,,,
1799999991329746349,2027-01-15T07:59:51.329746349Z,-1.91,-0.59,0.15,0.74,1.18,1.91,1.76,3.09,3.53,2.06,3.09,2.21,4.26,6.47,,,,,,,,,,,,,,
1799999991337432745,2027-01-15T07:59:51.337432745Z,-0.44,1.18,0.15,3.53,1.18,3.38,2.21,2.06,3.24,0.74,4.71,2.79,4.26,6.03,,,,,,,,,,,,,,
1799999991345119140,2027-01-15T07:59:51.345119140Z,-0.15,1.62,-0.74,2.50,1.32,2.79,0.59,2.79,1.62,2.35,6.03,3.82,4.12,6.47,,,,,,,,,,,,,,
1799999991352805535,2027-01-15T07:59:51.352805535Z,1.03,-0.44,-2.35,0.59,0.88,1.18,-1.76,4.71,1.76,5.59,4.41,2.94,2.94,6.03,,,,,,,,,,,,,,
1799999991360491930,2027-01-15T07:59:51.360491930Z,-1.47,-1.18,-2.06,1.03,1.03,0.59,-0.15,4.26,3.38,5.44,3.24,1.47,3.53,4.41,,,,,,,,,,,,,,
1799999991368178325,2027-01-15T07:59:51.368178325Z,-0.15,-0.15,0.29,0.88,1.91,0.00,2.21,1.76,3.24,3.82,3.97,2.50,6.03,4.26,,,,,,,,,,,,,,
1799999991375864720,2027-01-15T07:59:51.375864720Z,-0.29,-1.32,1.03,0.29,2.06,-0.59,1.18,0.88,3.68,3.82,3.53,4.26,6.76,4.71,,,,,,,,,,,,,,
1799999991383551115,2027-01-15T07:59:51.383551115Z,-0.74,-1.76,0.00,1.47,1.18,0.59,1.03,2.21,4.71,3.38,2.06,3.82,4.85,3.38,,,,,,,,,,,,,,
1799999991391237510,2027-01-15T07:59:51.391237510Z,-0.88,0.00,-0.15,1.47,0.29,1.76,3.97,1.91,3.82,2.35,2.21,2.35,3.38,3.97,,,,,,,,,,,,,,
1799999991398923905,2027-01-15T07:59:51.398923905Z,0.44,0.59,0.15,0.59,0.59,1.18,3.82,0.44,3.24,2.65,3.68,2.35,3.24,6.47,,,,,,,,,,,,,,
1799999991406610300,2027-01-15T07:59:51.406610300Z,1.03,-0.15,-0.88,1.32,1.47,1.32,1.62,-0.88,4.12,4.71,3.53,2.79,3.82,5.74,,,,,,,,,,,,,,
1799999991414296695,2027-01-15T07:59:51.414296695Z,1.76,-0.88,-0.88,-0.74,1.76,2.65,3.38,0.15,4.71,5.88,2.94,2.35,4.85,2.79,,,,,,,,,,,,,,
1799999991421983090,2027-01-15T07:59:51.421983090Z,1.47,-0.88,1.47,-2.65,1.62,2.79,5.15,2.50,3.68,4.26,3.97,3.68,3.82,3.38,,,,,,,,,,,,,,
1799999991429669486,2027-01-15T07:59:51.429669486Z,3.38,-1.18,2.94,-0.74,0.88,1.62,2.50,3.53,2.94,2.79,4.85,5.59,2.50,5.44,,,,,,,,,,,,,,
1799999991437355881,2027-01-15T07:59:51.437355881Z,-0.88,-1.03,1.62,0.88,0.00,1.18,0.59,2.50,4.26,3.53,4.85,6.03,3.97,4.71,,,,,,,,,,,,,,
1799999991445042276,2027-01-15T07:59:51.445042276Z,-1.32,0.74,0.15,0.59,0.88,1.76,1.62,2.06,5.00,3.09,5.88,5.15,5.74,3.97,,,,,,,,,,,,,,
1799999991452728671,2027-01-15T07:59:51.452728671Z,-0.44,1.32,-0.88,0.74,3.09,1.62,2.94,2.50,3.38,1.32,5.59,4.12,6.76,5.88,,,,,,,,,,,,,,
1799999991460415066,2027-01-15T07:59:51.460415066Z,-0.74,0.15,-1.76,0.29,3.09,1.03,3.38,1.62,2.50,2.21,3.38,3.68,7.65,6.91,,,,,,,,,,,,,,
1799999991468101461,2027-01-15T07:59:51.468101461Z,-0.88,0.15,-1.62,-0.44,0.29,1.62,4.12,0.44,3.38,4.12,1.76,4.41,6.76,5.15,,,,,,,,,,,,,,
1799999991475787856,2027-01-15T07:59:51.475787856Z,-0.74,-0.88,-0.15,-0.29,-1.91,2.50,5.15,0.15,2.35,4.26,2.06,4.26,5.00,4.41,,,,,,,,,,,,,,
1799999991483474251,2027-01-15T07:59:51.483474251Z,-0.29,-2.06,0.88,0.15,-1.03,1.91,6.32,-0.15,0.59,3.38,2.21,2.79,3.97,4.41,,,,,,,,,,,,,,
1799999991491160646,2027-01-15T07:59:51.491160646Z,1.91,-1.32,0.88,-0.88,0.74,1.03,4.71,1.47,1.32,3.24,3.24,3.38,3.53,2.65,,,,,,,,,,,,,,
1799999991498847041,2027-01-15T07:59:51.498847041Z,-1.76,0.74,0.44,-1.47,1.18,0.29,1.76,3.38,2.65,3.38,5.88,5.88,3.82,1.91,,,,,,,,,,,,,,
1799999991506533436,2027-01-15T07:59:51.506533436Z,-0.88,0.59,-1.18,-0.59,0.74,-0.15,0.29,3.09,2.50,2.94,7.50,6.03,5.15,3.09,,,,,,,,,,,,,,
1799999991514219831,2027-01-15T07:59:51.514219831Z,-1.47,-1.18,-1.91,0.59,1.18,0.88,0.00,2.21,1.62,2.06,5.00,3.97,6.03,3.82,,,,,,,,,,,,,,
1799999991521906226,2027-01-15T07:59:51.521906226Z,-2.65,0.29,0.59,0.59,1.47,2.06,-1.32,1.91,1.62,2.35,1.32,4.12,5.59,5.00,,,,,,,,,,,,,,
1799999991529592622,2027-01-15T07:59:51.529592622Z,-1.91,1.47,1.91,-0.15,1.18,2.21,-0.88,1.62,2.50,3.38,1.76,4.85,5.44,6.47,,,,,,,,,,,,,,
1799999991537279017,2027-01-15T07:59:51.537279017Z,0.59,-1.18,-0.44,-0.74,0.59,1.91,1.03,1.47,2.50,4.71,5.59,3.82,5.74,5.74,,,,,,,,,,,,,,
1799999991544965412,2027-01-15T07:59:51.544965412Z,1.03,-1.91,-0.74,-0.29,0.15,1.91,0.88,0.88,1.32,5.74,6.47,3.38,5.15,4.56,,,,,,,,,,,,,,
1799999991552651807,2027-01-15T07:59:51.552651807Z,-0.44,0.74,1.03,0.59,0.44,1.47,0.88,0.44,1.18,5.15,4.71,4.26,4.26,5.15,,,,,,,,,,,,,,
1799999991560338202,2027-01-15T07:59:51.560338202Z,-0.59,1.62,-0.15,0.00,0.59,1.62,2.35,0.88,2.79,3.53,5.29,4.12,4.26,4.85,,,,,,,,,,,,,,
1799999991568024597,2027-01-15T07:59:51.568024597Z,-1.03,-1.18,-2.50,-1.91,-0.29,2.50,1.76,1.91,4.12,3.82,5.29,3.97,4.56,3.97,,,,,,,,,,,,,,
1799999991575710992,2027-01-15T07:59:51.575710992Z,-1.32,-3.09,-2.06,-1.91,0.00,1.62,0.74,2.65,3.24,5.29,3.24,4.41,5.15,3.82,,,,,,,,,,,,,,
1799999991583397387,2027-01-15T07:59:51.583397387Z,-1.62,-1.62,-0.74,0.29,-0.59,0.15,1.32,3.24,2.06,4.26,2.35,3.38,5.29,4.26,,,,,,,,,,,,,,
1799999991591083782,2027-01-15T07:59:51.591083782Z,-2.94,-1.91,-1.62,0.88,-2.65,1.47,1.62,4.41,1.76,2.50,3.24,3.38,3.82,5.44,,,,,,,,,,,,,,
1799999991598770177,2027-01-15T07:59:51.598770177Z,-1.91,-3.68,-0.44,-0.15,-2.79,3.24,1.03,3.68,2.35,3.38,4.56,5.29,3.09,5.00,,,,,,,,,,,,,,
1799999991606456572,2027-01-15T07:59:51.606456572Z,-1.47,-3.53,2.35,-0.74,-1.47,2.06,1.03,1.76,3.24,5.29,4.26,6.32,4.71,2.79,,,,,,,,,,,,,,
1799999991614142967,2027-01-15T07:59:51.614142967Z,-0.59,-2.06,2.65,0.15,-0.44,1.62,1.76,1.18,3.68,4.71,1.32,5.15,5.59,3.24,,,,,,,,,,,,,,
1799999991621829363,2027-01-15T07:59:51.621829363Z,-0.29,-1.62,1.47,1.47,1.18,3.09,2.79,1.18,2.94,2.94,1.18,4.26,4.26,6.03,,,,,,,,,,,,,,
1799999991629515758,2027-01-15T07:59:51.629515758Z,1.03,-2.65,0.74,0.88,2.94,2.79,2.79,1.47,2.21,3.38,3.97,4.12,3.68,5.15,,,,,,,,,,,,,,
1799999991637202153,2027-01-15T07:59:51.637202153Z,0.15,-2.06,0.59,-0.29,2.79,2.06,1.47,2.35,1.62,4.12,4.85,3.68,4.71,2.65,,,,,,,,,,,,,,
1799999991644888548,2027-01-15T07:59:51.644888548Z,0.59,-1.18,1.47,0.15,0.88,1.76,0.88,2.79,1.18,4.12,3.97,3.38,4.71,3.24,,,,,,,,,,,,,,
1799999991652574943,2027-01-15T07:59:51.652574943Z,-1.03,-1.47,0.88,0.59,0.15,0.88,0.29,3.82,2.06,5.15,3.82,3.38,3.82,4.56,,,,,,,,,,,,,,
1799999991660261338,2027-01-15T07:59:51.660261338Z,-1.47,0.59,-1.03,0.74,1.03,0.44,-0.44,4.12,3.09,4.41,3.24,4.12,3.97,4.12,,,,,,,,,,,,,,
1799999991667947733,2027-01-15T07:59:51.667947733Z,-1.76,1.91,-1.18,1.32,0.74,1.18,1.47,2.65,3.24,3.09,3.82,5.29,4.41,4.26,,,,,,,,,,,,,,
1799999991675634128,2027-01-15T07:59:51.675634128Z,-1.76,1.76,0.15,1.18,0.74,1.91,3.53,1.91,4.26,3.97,3.82,6.76,3.97,5.29,,,,,,,,,,,,,,
1799999991683320523,2027-01-15T07:59:51.683320523Z,-1.62,2.79,-0.29,0.44,2.35,2.35,2.35,2.79,4.71,4.41,1.76,7.79,4.56,5.00,,,,,,,,,,,,,,
1799999991691006918,2027-01-15T07:59:51.691006918Z,-2.06,1.32,-1.32,0.29,2.50,1.62,0.59,3.38,2.94,3.09,2.65,6.62,5.00,3.38,,,,,,,,,,,,,,
1799999991698693313,2027-01-15T07:59:51.698693313Z,-0.59,-1.03,-0.44,1.03,0.29,0.88,-0.15,3.68,2.35,2.65,6.18,4.26,3.53,2.65,,,,,,,,,,,,,,
1799999991706379708,2027-01-15T07:59:51.706379708Z,-0.44,-0.59,-1.03,0.29,0.59,1.91,-0.44,2.94,3.53,3.09,6.91,3.24,2.65,3.68,,,,,,,,,,,,,,
1799999991714066103,2027-01-15T07:59:51.714066103Z,-0.29,0.44,-1.91,-0.88,1.76,2.35,0.74,2.06,2.65,3.09,5.59,4.26,3.68,4.56,,,,,,,,,,,,,,
1799999991721752499,2027-01-15T07:59:51.721752499Z,0.00,1.32,0.29,0.00,0.15,1.32,2.50,1.91,1.18,1.76,5.44,4.56,4.56,3.97,,,,,,,,,,,,,,
1799999991729438894,2027-01-15T07:59:51.729438894Z,0.15,2.35,1.76,1.03,-1.32,1.32,1.76,2.50,1.76,-0.29,4.26,3.68,3.97,3.24,,,,,,,,,,,,,,
1799999991737125289,2027-01-15T07:59:51.737125289Z,0.44,3.09,1.03,1.03,0.44,1.76,0.00,2.79,1.62,-0.88,2.79,3.38,3.24,4.12,,,,,,,,,,,,,,
1799999991744811684,2027-01-15T07:59:51.744811684Z,2.06,1.76,0.29,1.32,0.88,0.88,0.59,3.68,1.76,1.18,3.24,3.97,3.68,5.00,,,,,,,,,,,,,,
1799999991752498079,2027-01-15T07:59:51.752498079Z,0.44,-0.29,-0.74,1.03,-0.59,1.03,1.62,3.38,3.09,3.24,4.26,4.12,4.71,4.71,,,,,,,,,,,,,,
1799999991760184474,2027-01-15T07:59:51.760184474Z,0.15,-1.32,-1.76,0.44,-1.03,1.91,1.32,1.62,3.97,4.12,4.71,3.82,5.74,4.41,,,,,,,,,,,,,,
1799999991767870869,2027-01-15T07:59:51.767870869Z,-1.03,-0.59,-1.47,0.00,0.15,2.65,0.88,-0.88,3.09,4.56,4.26,3.24,5.44,5.29,,,,,,,,,,,,,,
1799999991775557264,2027-01-15T07:59:51.775557264Z,-0.88,0.00,0.44,0.15,1.47,2.06,1.47,-1.47,1.47,4.12,3.09,3.09,3.82,5.59,,,,,,,,,,,,,,
1799999991783243659,2027-01-15T07:59:51.783243659Z,1.47,-1.18,2.21,0.88,0.88,0.88,2.21,0.15,2.06,3.68,2.06,3.68,3.38,4.12,,,,,,,,,,,,,,
1799999991790930054,2027-01-15T07:59:51.790930054Z,0.15,-1.91,2.79,0.44,0.88,0.29,2.79,1.03,3.68,3.97,2.21,3.97,4.41,4.41,,,,,,,,,,,,,,
1799999991798616449,2027-01-15T07:59:51.798616449Z,-0.29,0.15,2.21,-1.62,1.32,0.74,2.21,2.06,2.65,2.50,4.12,4.26,4.85,6.91,,,,,,,,,,,,,,
1799999991806302844,2027-01-15T07:59:51.806302844Z,-0.88,2.94,0.74,-1.47,0.74,1.91,0.44,3.38,-0.15,0.15,5.88,5.29,4.85,6.76,,,,,,,,,,,,,,
1799999991813989240,2027-01-15T07:59:51.813989240Z,1.03,1.47,-0.88,1.03,0.74,2.79,1.76,3.68,0.59,0.00,4.41,4.71,5.44,4.26,,,,,,,,,,,,,,
1799999991821675635,2027-01-15T07:59:51.821675635Z,-3.38,-1.32,-1.03,2.35,1.47,3.09,4.85,2.35,3.82,2.21,2.06,3.68,5.74,4.12,,,,,,,,,,,,,,
1799999991829362030,2027-01-15T07:59:51.829362030Z,1.03,-2.06,-1.03,1.76,1.76,3.38,4.71,2.50,3.97,4.12,2.35,4.56,5.88,5.88,,,,,,,,,,,,,,
1799999991837048425,2027-01-15T07:59:51.837048425Z,1.47,-0.88,-2.35,1.91,1.32,1.91,2.50,3.68,2.65,4.56,4.12,5.00,4.85,5.44,,,,,,,,,,,,,,
1799999991844734820,2027-01-15T07:59:51.844734820Z,1.03,-1.18,-2.21,1.62,1.03,-0.59,2.79,2.21,3.24,4.56,5.88,4.12,3.24,5.15,,,,,,,,,,,,,,
1799999991852421215,2027-01-15T07:59:51.852421215Z,0.88,-3.97,0.00,0.00,1.76,-0.88,4.41,0.29,2.21,4.85,5.44,4.26,3.82,6.18,,,,,,,,,,,,,,
1799999991860107610,2027-01-15T07:59:51.860107610Z,-0.29,-3.82,1.47,-0.29,1.91,0.74,4.12,1.18,0.44,4.26,2.06,4.71,5.44,6.62,,,,,,,,,,,,,,
1799999991867794005,2027-01-15T07:59:51.867794005Z,-0.29,-0.59,-0.15,1.32,1.18,1.62,3.09,2.79,1.18,3.68,0.59,3.97,4.41,6.18,,,,,,,,,,,,,,
1799999991875480400,2027-01-15T07:59:51.875480400Z,-0.29,-0.74,-1.76,1.03,1.03,2.35,3.09,2.21,2.50,3.68,2.50,4.41,3.09,6.18,,,,,,,,,,,,,,
1799999991883166795,2027-01-15T07:59:51.883166795Z,0.00,-0.88,-0.74,1.47,1.03,2.79,2.06,1.91,1.76,3.53,3.09,4.56,3.53,5.74,,,,,,,,,,,,,,
1799999991890853190,2027-01-15T07:59:51.890853190Z,0.15,1.76,0.29,2.65,0.74,1.91,0.44,3.68,2.35,3.38,2.50,3.24,3.09,5.29,,,,,,,,,,,,,,
1799999991898539585,2027-01-15T07:59:51.898539585Z,-1.47,0.74,-0.59,1.91,1.62,1.32,0.59,4.12,4.85,3.38,3.38,2.21,3.09,6.47,,,,,,,,,,,,,,
1799999991906225981,2027-01-15T07:59:51.906225981Z,-2.35,-1.91,-0.15,1.03,2.35,1.91,1.03,2.21,5.00,2.79,3.24,2.65,5.15,7.35,,,,,,,,,,,,,,
1799999991913912376,2027-01-15T07:59:51.913912376Z,-2.50,-1.32,1.76,1.32,1.62,1.62,0.29,1.91,2.21,2.21,1.91,3.09,7.35,6.47,,,,,,,,,,,,,,
1799999991921598771,2027-01-15T07:59:51.921598771Z,-1.76,-0.15,1.32,0.88,0.59,0.00,-0.15,2.50,0.88,2.65,1.32,2.65,6.47,6.03,,,,,,,,,,,,,,
1799999991929285166,2027-01-15T07:59:51.929285166Z,-1.62,-1.32,-0.29,0.00,1.03,-0.74,1.18,1.62,2.50,3.38,2.21,3.38,4.26,6.47,,,,,,,,,,,,,,
1799999991936971561,2027-01-15T07:59:51.936971561Z,-1.76,-1.91,0.88,0.29,1.91,1.03,3.24,1.03,3.38,3.24,3.97,5.00,3.24,5.44,,,,,,,,,,,,,,
1799999991944657956,2027-01-15T07:59:51.944657956Z,-0.44,-0.15,3.09,0.44,1.32,2.06,3.97,1.32,2.21,3.82,5.74,5.15,4.12,4.12,,,,,,,,,,,,,,
1799999991952344351,2027-01-15T07:59:51.952344351Z,-1.03,0.29,2.21,-0.59,0.44,0.44,2.94,1.91,2.21,4.56,5.29,4.12,4.85,3.97,,,,,,,,,,,,,,
1799999991960030746,2027-01-15T07:59:51.960030746Z,-2.21,-1.18,1.18,-0.44,0.29,-1.18,2.21,1.76,3.82,4.12,3.09,4.41,5.29,3.68,,,,,,,,,,,,,,
1799999991967717141,2027-01-15T07:59:51.967717141Z,-2.06,-1.03,2.06,0.44,1.76,-0.29,2.50,1.91,3.38,3.97,1.18,5.00,5.44,3.53,,,,,,,,,,,,,,
1799999991975403536,2027-01-15T07:59:51.975403536Z,-4.56,-0.29,1.62,0.15,3.09,1.18,2.79,3.38,1.62,4.71,1.76,3.68,5.29,4.41,,,,,,,,,,,,,,
1799999991983089931,2027-01-15T07:59:51.983089931Z,-2.50,-0.59,0.44,1.03,2.79,2.21,3.38,4.71,0.88,5.44,3.68,2.94,5.59,5.59,,,,,,,,,,,,,,
1799999991990776326,2027-01-15T07:59:51.990776326Z,-2.06,-2.65,0.00,1.62,2.35,2.50,3.82,5.00,1.47,5.44,3.68,3.38,5.74,6.76,,,,,,,,,,,,,,
1799999991998462721,2027-01-15T07:59:51.998462721Z,-1.62,-3.53,-0.29,0.15,2.06,1.91,2.35,3.24,2.21,4.71,2.50,3.38,5.00,6.91,,,,,,,,,,,,,,
1799999992006149117,2027-01-15T07:59:52.006149117Z,-1.32,-2.50,-1.76,-0.88,0.88,2.21,0.88,1.18,2.50,4.56,3.24,4.56,5.44,5.59,,,,,,,,,,,,,,
1799999992013835512,2027-01-15T07:59:52.013835512Z,1.91,-2.79,-3.82,0.00,-0.44,3.53,1.03,1.76,3.53,4.56,3.53,6.03,6.32,5.29,,,,,,,,,,,,,,
1799999992021521907,2027-01-15T07:59:52.021521907Z,0.44,-1.32,-3.24,1.03,-0.15,3.38,1.62,2.35,4.26,3.24,1.91,5.15,5.44,5.44,,,,,,,,,,,,,,
1799999992029208302,2027-01-15T07:59:52.029208302Z,-0.15,0.74,-1.18,0.29,1.03,1.91,2.35,0.44,3.68,2.50,1.91,3.24,3.82,4.26,,,,,,,,,,,,,,
1799999992036894697,2027-01-15T07:59:52.036894697Z,-2.79,1.62,-0.88,-0.59,1.03,1.47,3.38,-0.88,2.79,3.53,3.24,2.35,3.97,5.00,,,,,,,,,,,,,,
1799999992044581092,2027-01-15T07:59:52.044581092Z,-0.15,1.18,-1.32,0.00,0.29,0.88,2.79,0.00,2.50,4.41,3.09,2.79,4.41,6.62,,,,,,,,,,,,,,
1799999992052267487,2027-01-15T07:59:52.052267487Z,0.15,-0.29,-0.44,0.44,0.59,0.74,1.47,1.91,3.09,4.26,2.94,3.38,3.53,5.74,,,,,,,,,,,,,,
1799999992059953882,2027-01-15T07:59:52.059953882Z,-0.88,-1.47,-0.29,0.59,1.62,1.32,1.76,2.94,3.09,3.68,3.82,4.12,3.68,4.56,,,,,,,,,,,,,,
1799999992067640277,2027-01-15T07:59:52.067640277Z,1.91,-1.91,-1.62,0.59,1.91,1.32,2.50,2.35,2.79,2.65,4.56,3.97,4.56,5.59,,,,,,,,,,,,,,
1799999992075326672,2027-01-15T07:59:52.075326672Z,-0.29,-1.62,-1.32,-1.03,0.74,1.62,2.50,1.62,3.68,2.06,5.74,3.82,5.44,5.74,,,,,,,,,,,,,,
1799999992083013067,2027-01-15T07:59:52.083013067Z,-0.29,-0.29,-0.15,-2.35,0.44,2.79,2.94,1.91,4.71,1.18,6.62,4.71,6.18,5.00,,,,,,,,,,,,,,
1799999992090699462,2027-01-15T07:59:52.090699462Z,0.88,-0.15,-1.32,-0.59,1.62,2.65,2.21,2.35,4.26,-0.29,4.71,4.85,5.59,4.56,,,,,,,,,,,,,,
1799999992098385858,2027-01-15T07:59:52.098385858Z,-2.06,-0.29,-2.50,1.91,0.88,0.88,0.44,1.32,3.24,0.44,3.24,4.12,4.26,4.12,,,,,,,,,,,,,,
1799999992106072253,2027-01-15T07:59:52.106072253Z,-3.24,-0.44,-1.91,1.03,-1.03,0.44,0.44,0.88,2.35,3.53,3.38,3.97,3.68,3.68,,,,,,,,,,,,,,
1799999992113758648,2027-01-15T07:59:52.113758648Z,0.29,-1.91,-2.21,-1.18,-1.18,1.03,1.91,1.76,1.91,4.85,2.21,4.85,4.12,5.00,,,,,,,,,,,,,,
1799999992121445043,2027-01-15T07:59:52.121445043Z,1.18,-1.62,-1.18,-0.74,-1.47,0.44,1.62,1.47,3.09,2.94,1.76,5.74,4.26,6.76,,,,,,,,,,,,,,
1799999992129131438,2027-01-15T07:59:52.129131438Z,2.21,-0.74,0.59,0.15,-3.09,0.74,1.18,0.88,3.53,2.06,3.24,6.03,4.56,6.62,,,,,,,,,,,,,,
1799999992136817833,2027-01-15T07:59:52.136817833Z,0.74,-1.32,0.59,-0.15,-1.47,1.76,1.18,1.91,1.03,3.09,4.56,5.15,5.15,5.15,,,,,,,,,,,,,,
1799999992144504228,2027-01-15T07:59:52.144504228Z,0.00,-1.03,-0.15,0.15,2.06,1.76,0.44,3.09,-0.29,2.65,5.88,3.82,5.88,4.41,,,,,,,,,,,,,,
1799999992152190623,2027-01-15T07:59:52.152190623Z,-0.15,-0.59,0.29,1.03,2.65,0.88,0.15,3.24,2.21,1.47,7.79,2.65,5.74,4.41,,,,,,,,,,,,,,
1799999992159877018,2027-01-15T07:59:52.159877018Z,0.15,0.15,1.18,0.88,0.88,1.32,0.74,1.62,3.24,1.32,7.50,3.38,4.26,4.41,,,,,,,,,,,,,,
1799999992167563413,2027-01-15T07:59:52.167563413Z,0.59,1.18,1.62,-0.74,1.47,2.65,1.32,1.03,2.35,1.62,5.15,5.59,3.24,5.00,,,,,,,,,,,,,,
1799999992175249808,2027-01-15T07:59:52.175249808Z,0.44,1.62,1.18,-1.18,1.32,3.68,2.21,2.06,3.09,1.76,3.09,6.62,3.97,5.59,,,,,,,,,,,,,,
1799999992182936203,2027-01-15T07:59:52.182936203Z,0.74,1.18,0.74,0.00,-1.03,3.09,3.68,2.35,3.97,2.94,1.91,5.44,5.00,5.59,,,,,,,,,,,,,,
1799999992190622599,2027-01-15T07:59:52.190622599Z,-0.74,1.62,0.88,-0.59,-1.76,2.35,3.82,2.06,3.38,3.24,2.50,3.24,4.26,5.59,,,,,,,,,,,,,,
1799999992198308994,2027-01-15T07:59:52.198308994Z,0.88,3.09,1.76,0.59,0.15,1.91,1.32,1.47,3.09,2.35,3.24,1.91,3.82,5.74,,,,,,,,,,,,,,
1799999992205995389,2027-01-15T07:59:52.205995389Z,0.00,2.21,1.91,2.94,1.76,1.18,-0.29,1.76,2.50,2.50,2.94,2.06,5.00,4.56,,,,,,,,,,,,,,
1799999992213681784,2027-01-15T07:59:52.213681784Z,-0.15,0.29,1.03,2.65,1.18,0.29,0.59,2.94,0.88,3.82,1.91,3.09,6.18,3.68,,,,,,,,,,,,,,
1799999992221368179,2027-01-15T07:59:52.221368179Z,-1.18,1.03,0.00,1.03,-0.59,0.88,1.18,3.97,1.03,4.85,2.50,4.41,6.32,5.29,,,,,,,,,,,,,,
1799999992229054574,2027-01-15T07:59:52.229054574Z,-0.59,1.03,-1.03,0.74,-1.18,2.21,1.47,3.97,3.68,4.41,4.12,5.15,5.44,6.62,,,,,,,,,,,,,,
1799999992236740969,2027-01-15T07:59:52.236740969Z,0.00,-1.18,-0.88,0.74,0.15,1.62,2.21,3.24,3.82,3.97,3.82,4.26,5.74,5.74,,,,,,,,,,,,,,
1799999992244427364,2027-01-15T07:59:52.244427364Z,3.97,-2.21,0.15,-0.59,1.03,0.88,3.09,2.50,2.06,4.41,2.65,3.68,6.62,5.00,,,,,,,,,,,,,,
1799999992252113759,2027-01-15T07:59:52.252113759Z,2.06,-0.74,0.59,-1.62,0.88,1.76,3.24,2.21,2.50,5.15,2.79,4.26,6.03,5.15,,,,,,,,,,,,,,
1799999992259800154,2027-01-15T07:59:52.259800154Z,-0.29,1.03,0.74,-1.32,0.88,2.35,2.06,1.91,3.68,5.00,3.68,5.15,4.56,5.15,,,,,,,,,,,,,,
1799999992267486549,2027-01-15T07:59:52.267486549Z,-1.03,2.21,1.91,-0.59,0.29,2.06,0.44,1.62,3.97,3.53,4.41,5.29,3.38,4.71,,,,,,,,,,,,,,
1799999992275172944,2027-01-15T07:59:52.275172944Z,-1.76,1.32,2.65,-0.88,-0.88,1.03,-0.44,1.62,2.79,2.06,4.41,4.41,3.53,4.26,,,,,,,,,,,,,,
1799999992282859339,2027-01-15T07:59:52.282859339Z,-2.79,0.15,1.62,-0.59,-0.74,0.88,0.59,2.35,2.50,2.50,4.26,4.12,3.53,4.71,,,,,,,,,,,,,,
1799999992290545735,2027-01-15T07:59:52.290545735Z,-1.91,-1.18,0.88,0.74,1.32,1.32,1.18,3.09,3.53,3.38,5.00,4.71,2.50,5.29,,,,,,,,,,,,,,
1799999992298232130,2027-01-15T07:59:52.298232130Z,-1.03,-1.76,1.62,1.18,2.21,1.32,0.88,2.50,4.41,4.41,4.56,4.56,2.79,5.44,,,,,,,,,,,,,,
1799999992305918525,2027-01-15T07:59:52.305918525Z,0.15,0.29,1.62,1.76,0.15,1.03,1.18,1.76,4.56,3.82,3.24,4.26,3.68,5.00,,,,,,,,,,,,,,
1799999992313604920,2027-01-15T07:59:52.313604920Z,0.00,0.88,-0.15,2.50,-1.47,0.44,1.47,1.47,2.79,3.24,3.09,4.85,3.82,4.12,,,,,,,,,,,,,,
1799999992321291315,2027-01-15T07:59:52.321291315Z,-0.44,-1.18,-1.32,2.50,-0.74,-0.15,1.76,1.32,1.18,4.71,3.97,5.74,4.12,3.82,,,,,,,,,,,,,,
1799999992328977710,2027-01-15T07:59:52.328977710Z,-0.59,-2.21,-0.15,2.06,-0.29,0.29,3.09,1.62,1.03,5.00,3.53,5.44,4.85,3.97,,,,,,,,,,,,,,
1799999992336664105,2027-01-15T07:59:52.336664105Z,-3.38,-1.76,0.59,1.47,-0.44,1.32,3.68,2.50,2.21,3.68,3.53,4.41,5.00,4.26,,,,,,,,,,,,,,
1799999992344350500,2027-01-15T07:59:52.344350500Z,-3.38,-1.47,-0.74,0.88,-0.15,1.91,2.65,2.94,3.09,4.12,4.26,3.38,3.53,4.85,,,,,,,,,,,,,,
1799999992352036895,2027-01-15T07:59:52.352036895Z,-3.09,-1.62,-0.74,1.18,0.29,0.74,2.21,3.38,2.79,4.85,4.71,2.79,1.76,5.88,,,,,,,,,,,,,,
1799999992359723290,2027-01-15T07:59:52.359723290Z,-2.94,-1.32,0.15,2.06,0.88,-0.74,2.65,3.24,2.50,3.24,6.18,3.38,2.65,7.06,,,,,,,,,,,,,,
1799999992367409685,2027-01-15T07:59:52.367409685Z,-1.62,-0.59,-1.03,2.50,1.91,-0.15,2.79,1.76,3.09,1.62,6.76,4.12,4.26,7.79,,,,,,,,,,,,,,
1799999992375096080,2027-01-15T07:59:52.375096080Z,-1.03,0.15,-1.91,1.91,2.35,1.32,1.76,1.03,3.53,0.59,5.15,3.82,3.24,7.21,,,,,,,,,,,,,,
1799999992382782476,2027-01-15T07:59:52.382782476Z,-0.59,0.59,-0.44,1.32,0.88,0.88,0.44,2.21,3.68,1.03,4.71,2.94,2.35,5.88,,,,,,,,,,,,,,
1799999992390468871,2027-01-15T07:59:52.390468871Z,-1.91,1.18,0.74,0.88,-0.29,0.29,0.74,3.24,3.68,2.79,5.15,3.68,3.82,4.41,,,,,,,,,,,,,,
1799999992398155266,2027-01-15T07:59:52.398155266Z,-2.21,1.91,0.29,0.00,0.44,0.88,2.06,3.97,3.38,4.41,4.56,5.74,4.71,3.38,,,,,,,,,,,,,,
1799999992405841661,2027-01-15T07:59:52.405841661Z,0.00,0.74,0.15,0.15,1.18,0.59,1.62,3.97,2.21,4.12,4.56,5.44,4.12,3.53,,,,,,,,,,,,,,
1799999992413528056,2027-01-15T07:59:52.413528056Z,0.15,-1.62,-0.88,0.29,-0.29,0.15,1.76,2.94,0.88,3.97,3.97,3.24,4.41,5.00,,,,,,,,,,,,,,
1799999992421214451,2027-01-15T07:59:52.421214451Z,-0.88,-2.21,-0.44,-0.88,-0.44,0.59,3.24,2.35,0.44,4.71,2.79,3.24,5.00,5.74,,,,,,,,,,,,,,
1799999992428900846,2027-01-15T07:59:52.428900846Z,-1.03,-1.47,1.32,-1.62,1.91,1.32,3.24,3.53,1.03,5.59,2.94,4.71,5.29,4.12,,,,,,,,,,,,,,
1799999992436587241,2027-01-15T07:59:52.436587241Z,-0.88,-0.88,1.03,-0.29,2.50,1.91,1.91,2.21,1.76,6.03,4.12,4.85,6.62,2.94,,,,,,,,,,,,,,
1799999992444273636,2027-01-15T07:59:52.444273636Z,-0.59,0.88,0.74,1.32,1.18,1.62,1.91,-0.74,2.35,4.85,3.38,4.56,7.35,3.97,,,,,,,,,,,,,,
1799999992451960031,2027-01-15T07:59:52.451960031Z,0.15,0.74,1.91,1.03,1.47,1.03,2.35,0.74,1.91,3.38,2.94,5.15,5.29,4.71,,,,,,,,,,,,,,
1799999992459646426,2027-01-15T07:59:52.459646426Z,-2.65,-1.03,1.32,-0.29,2.06,1.32,1.91,4.26,0.74,3.38,4.56,5.15,3.97,5.00,,,,,,,,,,,,,,
1799999992467332821,2027-01-15T07:59:52.467332821Z,-2.94,-1.91,-0.44,-1.62,1.32,1.62,2.94,3.68,1.47,3.97,5.44,4.26,4.71,6.32,,,,,,,,,,,,,,
1799999992475019216,2027-01-15T07:59:52.475019216Z,-2.06,-3.09,-0.15,-2.06,0.74,1.76,4.26,1.62,2.94,3.68,3.53,3.09,5.29,5.88,,,,,,,,,,,,,,
1799999992482705612,2027-01-15T07:59:52.482705612Z,-1.47,-2.79,1.18,-1.76,1.03,1.47,3.24,1.18,2.06,3.82,1.62,2.50,5.00,4.41,,,,,,,,,,,,,,
1799999992490392007,2027-01-15T07:59:52.490392007Z,-1.18,-0.44,0.00,-2.21,1.47,0.88,1.76,0.88,1.32,4.71,2.50,2.94,4.41,5.59,,,,,,,,,,,,,,
1799999992498078402,2027-01-15T07:59:52.498078402Z,-1.62,0.59,-2.06,-1.18,1.18,1.47,2.06,1.03,2.94,4.56,4.71,3.24,3.53,6.47,,,,,,,,,,,,,,
1799999992505764797,2027-01-15T07:59:52.505764797Z,-0.59,-0.15,-2.79,0.15,0.15,3.38,1.76,2.65,4.12,3.53,5.44,2.94,3.82,4.12,,,,,,,,,,,,,,
1799999992513451192,2027-01-15T07:59:52.513451192Z,-0.29,-0.74,-2.50,-0.29,-0.59,3.09,0.29,3.53,3.24,3.09,4.41,2.79,4.85,2.94,,,,,,,,,,,,,,
1799999992521137587,2027-01-15T07:59:52.521137587Z,0.88,0.29,-1.76,-0.44,-0.88,0.00,-0.88,2.94,2.79,4.26,4.56,3.24,5.00,4.71,,,,,,,,,,,,,,
1799999992528823982,2027-01-15T07:59:52.528823982Z,-0.44,-0.29,-1.32,-0.15,-1.62,-0.74,-0.29,3.09,3.68,5.59,5.00,4.12,4.71,4.71,,,,,,,,,,,,,,
1799999992536510377,2027-01-15T07:59:52.536510377Z,-0.59,-1.62,-0.15,-0.59,-1.18,1.62,-0.29,2.21,3.53,5.59,3.09,4.41,5.29,3.38,,,,,,,,,,,,,,
1799999992544196772,2027-01-15T07:59:52.544196772Z,-0.29,-0.44,1.03,-0.15,0.44,1.91,-1.18,-0.29,2.50,4.12,0.88,3.38,5.44,4.85,,,,,,,,,,,,,,
1799999992551883167,2027-01-15T07:59:52.551883167Z,0.00,0.00,0.29,0.88,0.74,0.29,-0.88,0.88,2.94,2.50,1.76,2.94,4.85,6.47,,,,,,,,,,,,,,
1799999992559569562,2027-01-15T07:59:52.559569562Z,-0.29,-0.29,-1.32,0.74,0.44,0.74,0.88,3.68,2.94,3.09,4.26,3.53,5.29,5.88,,,,,,,,,,,,,,
1799999992567255957,2027-01-15T07:59:52.567255957Z,-0.88,0.74,-2.21,0.29,2.06,2.06,2.65,3.24,1.91,5.00,4.12,3.38,5.88,5.29,,,,,,,,,,,,,,
1799999992574942353,2027-01-15T07:59:52.574942353Z,0.44,0.88,-2.21,1.18,3.09,1.47,3.68,2.21,2.06,4.85,1.76,3.82,4.71,5.15,,,,,,,,,,,,,,
1799999992582628748,2027-01-15T07:59:52.582628748Z,0.15,0.00,-1.47,1.32,2.35,1.03,3.24,2.94,3.24,3.82,1.47,5.00,3.24,4.26,,,,,,,,,,,,,,
1799999992590315143,2027-01-15T07:59:52.590315143Z,-0.15,-0.88,-0.29,-0.15,2.50,2.21,2.21,2.35,3.82,4.56,3.09,5.74,3.09,4.41,,,,,,,,,,,,,,
1799999992598001538,2027-01-15T07:59:52.598001538Z,1.62,-0.59,0.88,0.74,2.06,1.76,1.32,2.21,3.24,4.85,2.79,5.44,3.82,6.32,,,,,,,,,,,,,,
1799999992605687933,2027-01-15T07:59:52.605687933Z,1.91,0.15,0.74,1.62,0.44,0.00,1.18,3.68,2.94,2.79,2.21,5.00,3.68,6.62,,,,,,,,,,,,,,
1799999992613374328,2027-01-15T07:59:52.613374328Z,-0.44,-0.59,-0.29,-1.03,-0.15,-0.59,1.62,3.82,2.79,1.32,2.94,4.12,3.24,4.56,,,,,,,,,,,,,,
1799999992621060723,2027-01-15T07:59:52.621060723Z,-0.59,-0.74,-0.74,-0.88,0.59,0.44,2.50,2.94,3.24,2.35,4.26,3.97,4.41,2.79,,,,,,,,,,,,,,
1799999992628747118,2027-01-15T07:59:52.628747118Z,1.03,0.29,-1.62,2.79,1.47,1.91,3.24,4.12,4.12,2.65,4.41,4.41,6.03,3.09,,,,,,,,,,,,,,
1799999992636433513,2027-01-15T07:59:52.636433513Z,0.15,0.44,-1.47,2.65,2.06,2.65,2.35,4.85,4.85,1.91,2.79,4.26,6.62,4.12,,,,,,,,,,,,,,
1799999992644119908,2027-01-15T07:59:52.644119908Z,-0.15,-0.88,0.00,0.29,1.03,1.47,2.35,3.53,5.00,2.21,2.79,3.82,6.18,4.26,,,,,,,,,,,,,,
1799999992651806303,2027-01-15T07:59:52.651806303Z,0.59,-1.32,-0.15,1.03,-0.44,-0.15,3.97,1.32,3.38,2.35,4.26,4.12,5.44,3.82,,,,,,,,,,,,,,
1799999992659492698,2027-01-15T07:59:52.659492698Z,1.18,0.00,-1.03,1.76,0.59,0.59,3.24,0.59,1.76,3.24,3.53,5.00,5.00,3.68,,,,,,,,,,,,,,
1799999992667179094,2027-01-15T07:59:52.667179094Z,0.29,0.74,0.29,0.44,2.21,2.50,1.62,2.35,1.18,4.85,2.06,5.00,4.85,3.82,,,,,,,,,,,,,,
1799999992674865489,2027-01-15T07:59:52.674865489Z,0.00,1.91,1.62,1.03,1.62,3.82,0.29,2.50,0.59,4.41,2.50,4.12,4.71,3.97,,,,,,,,,,,,,,
1799999992682551884,2027-01-15T07:59:52.682551884Z,-1.47,2.79,0.88,0.74,1.32,3.82,-1.03,1.03,0.88,1.76,3.24,3.68,4.12,4.26,,,,,,,,,,,,,,
1799999992690238279,2027-01-15T07:59:52.690238279Z,-1.47,0.88,0.15,-1.76,2.21,1.91,-1.32,1.91,2.94,0.88,4.12,3.97,4.41,4.71,,,,,,,,,,,,,,
1799999992697924674,2027-01-15T07:59:52.697924674Z,0.88,-1.18,0.15,-1.62,1.76,0.44,0.44,3.82,3.82,2.94,6.03,3.82,5.59,4.71,,,,,,,,,,,,,,
1799999992705611069,2027-01-15T07:59:52.705611069Z,1.32,-1.62,-0.59,0.29,1.47,1.62,2.65,3.97,2.65,4.71,6.32,3.09,5.44,4.56,,,,,,,,,,,,,,
1799999992713297464,2027-01-15T07:59:52.713297464Z,3.09,-0.88,-0.44,0.00,1.91,2.50,2.94,2.50,2.35,4.26,4.26,3.68,3.82,4.12,,,,,,,,,,,,,,
1799999992720983859,2027-01-15T07:59:52.720983859Z,-1.03,-0.29,0.29,1.18,1.32,1.32,1.03,1.03,2.65,3.68,2.94,4.41,3.97,3.24,,,,,,,,,,,,,,
1799999992728670254,2027-01-15T07:59:52.728670254Z,-1.62,-1.47,1.32,2.06,0.74,0.88,0.29,1.18,3.24,4.26,3.38,3.24,5.44,3.24,,,,,,,,,,,,,,
1799999992736356649,2027-01-15T07:59:52.736356649Z,0.88,-1.62,2.35,0.74,0.29,1.91,1.18,2.79,3.68,3.82,4.26,3.53,4.85,5.00,,,,,,,,,,,,,,
1799999992744043044,2027-01-15T07:59:52.744043044Z,-0.15,-0.44,1.62,-0.59,-0.74,2.50,1.03,3.97,3.38,3.09,5.15,5.29,3.09,6.03,,,,,,,,,,,,,,
1799999992751729439,2027-01-15T07:59:52.751729439Z,-0.29,-0.29,0.00,-0.74,-1.18,1.62,0.88,4.12,3.09,3.24,5.59,5.59,2.50,5.00,,,,,,,,,,,,,,
1799999992759415834,2027-01-15T07:59:52.759415834Z,-1.62,-0.29,-1.03,-0.15,-0.44,0.15,1.76,3.97,2.79,3.24,5.15,4.71,3.24,4.12,,,,,,,,,,,,,,
1799999992767102230,2027-01-15T07:59:52.767102230Z,-0.88,0.00,-1.62,0.15,1.18,0.74,2.65,3.09,2.35,3.38,4.12,3.82,4.56,3.97,,,,,,,,,,,,,,
1799999992774788625,2027-01-15T07:59:52.774788625Z,-0.59,0.00,-1.47,0.74,2.06,3.68,2.35,1.32,1.47,4.12,4.12,3.53,5.59,4.85,,,,,,,,,,,,,,
1799999992782475020,2027-01-15T07:59:52.782475020Z,-1.32,-0.88,0.00,2.21,1.62,4.56,1.47,-0.44,1.18,3.97,5.88,3.38,5.00,5.59,,,,,,,,,,,,,,
1799999992790161415,2027-01-15T07:59:52.790161415Z,-2.94,-1.32,1.62,3.09,2.35,2.21,1.91,-0.74,1.76,2.06,6.18,2.94,3.68,5.29,,,,,,,,,,,,,,
1799999992797847810,2027-01-15T07:59:52.797847810Z,-4.41,-0.88,0.88,2.06,2.50,1.91,2.94,-0.29,1.47,0.74,4.41,3.09,3.97,3.82,,,,,,,,,,,,,,
1799999992805534205,2027-01-15T07:59:52.805534205Z,0.15,-0.74,0.15,2.35,2.06,3.09,2.50,0.59,0.88,1.91,2.94,3.38,4.85,2.35,,,,,,,,,,,,,,
1799999992813220600,2027-01-15T07:59:52.813220600Z,0.74,-2.21,1.18,2.35,2.21,2.06,1.62,2.50,2.65,3.24,2.50,4.26,4.12,3.68,,,,,,,,,,,,,,
1799999992820906995,2027-01-15T07:59:52.820906995Z,-2.06,-3.38,1.32,0.44,1.03,0.44,1.62,3.09,4.12,3.24,3.24,5.29,2.79,6.03,,,,,,,,,,,,,,
1799999992828593390,2027-01-15T07:59:52.828593390Z,-2.06,-2.21,0.15,0.29,0.44,0.74,1.18,2.35,2.50,3.68,4.12,5.15,3.53,5.29,,,,,,,,,,,,,,
1799999992836279785,2027-01-15T07:59:52.836279785Z,-1.18,0.00,0.15,2.65,1.62,0.88,0.59,2.94,1.62,3.68,5.00,5.44,6.03,3.24,,,,,,,,,,,,,,
1799999992843966180,2027-01-15T07:59:52.843966180Z,-0.88,1.32,1.32,1.76,1.76,-0.74,2.21,3.53,3.68,2.94,5.00,6.47,7.06,4.12,,,,,,,,,,,,,,
1799999992851652575,2027-01-15T07:59:52.851652575Z,1.32,-0.29,1.76,-1.91,-0.15,-1.47,3.53,3.09,3.68,3.09,3.97,6.18,5.59,6.62,,,,,,,,,,,,,,
1799999992859338971,2027-01-15T07:59:52.859338971Z,-2.94,-1.91,0.88,-2.35,-0.44,1.03,3.09,3.82,1.18,3.82,3.09,5.00,4.41,6.91,,,,,,,,,,,,,,
1799999992867025366,2027-01-15T07:59:52.867025366Z,-4.12,-2.21,-0.15,-0.29,1.03,3.38,4.71,4.71,1.76,4.12,3.09,4.85,5.00,5.88,,,,,,,,,,,,,,
1799999992874711761,2027-01-15T07:59:52.874711761Z,-3.97,-3.53,-1.47,-1.18,1.18,3.24,5.29,3.38,4.26,3.82,3.68,4.26,5.88,6.47,,,,,,,,,,,,,,
1799999992882398156,2027-01-15T07:59:52.882398156Z,,-3.53,-0.88,-1.18,1.03,2.06,2.94,1.47,2.94,3.68,4.85,3.09,5.88,7.35,,,,,,,,,,,,,,
1799999992890084551,2027-01-15T07:59:52.890084551Z,-2.50,-2.06,0.59,0.59,1.62,1.76,1.32,1.91,1.32,3.38,5.29,3.24,4.71,6.62,,,,,,,,,,,,,,
1799999992897770946,2027-01-15T07:59:52.897770946Z,0.74,-1.18,-0.44,0.74,1.32,2.21,1.32,3.09,2.94,2.65,4.71,4.56,3.97,5.29,,,,,,,,,,,,,,
1799999992905457341,2027-01-15T07:59:52.905457341Z,1.03,0.29,-1.76,-0.59,1.32,2.65,1.91,1.62,3.97,2.21,4.12,4.12,4.41,5.29,,,,,,,,,,,,,,
1799999992913143736,2027-01-15T07:59:52.913143736Z,-2.21,1.76,-0.88,-1.62,1.91,2.50,3.53,1.03,3.53,3.53,3.53,2.21,3.38,6.18,,,,,,,,,,,,,,
1799999992920830131,2027-01-15T07:59:52.920830131Z,-2.50,1.32,0.15,-1.47,1.47,1.91,2.50,3.09,4.41,4.12,3.97,1.91,2.21,6.03,,,,,,,,,,,,,,
1799999992928516526,2027-01-15T07:59:52.928516526Z,-1.91,-0.59,-0.15,-0.44,1.47,1.62,0.15,4.71,4.26,2.50,5.00,3.09,3.68,4.85,,,,,,,,,,,,,,
1799999992936202921,2027-01-15T07:59:52.936202921Z,-3.24,-1.18,-0.74,0.00,1.03,1.62,2.06,3.97,3.53,2.06,4.85,3.68,6.03,4.41,,,,,,,,,,,,,,
1799999992943889316,2027-01-15T07:59:52.943889316Z,-1.18,-0.29,-0.29,-0.15,-0.88,0.44,4.12,2.79,4.26,3.24,3.97,4.26,6.47,4.85,,,,,,,,,,,,,,
1799999992951575711,2027-01-15T07:59:52.951575711Z,-0.74,-1.32,-0.15,-0.15,-1.62,0.00,1.76,2.06,4.26,2.65,4.12,4.26,5.44,4.85,,,,,,,,,,,,,,
1799999992959262107,2027-01-15T07:59:52.959262107Z,-0.44,-0.74,-0.29,-0.88,0.15,0.88,-0.44,1.62,2.79,1.62,4.12,2.65,4.41,3.82,,,,,,,,,,,,,,
1799999992966948502,2027-01-15T07:59:52.966948502Z,-0.29,1.47,-0.44,-1.62,-0.29,0.59,1.32,1.32,1.32,2.65,3.53,1.76,3.68,2.50,,,,,,,,,,,,,,
1799999992974634897,2027-01-15T07:59:52.974634897Z,0.44,2.35,-0.59,-0.88,-1.47,-0.74,3.09,2.06,0.44,4.26,3.82,2.79,3.97,3.38,,,,,,,,,,,,,,
1799999992982321292,2027-01-15T07:59:52.982321292Z,-1.47,1.62,-0.44,-0.59,0.29,-0.44,2.06,2.35,0.59,4.71,3.82,3.38,5.29,5.15,,,,,,,,,,,,,,
1799999992990007687,2027-01-15T07:59:52.990007687Z,,0.15,-1.18,-1.32,3.09,0.88,0.74,2.79,1.62,4.12,3.24,3.38,5.88,3.68,,,,,,,,,,,,,,
1799999992997694082,2027-01-15T07:59:52.997694082Z,-1.32,-0.88,-1.76,0.00,2.94,0.15,0.44,3.97,2.50,3.38,3.53,4.41,4.26,2.21,,,,,,,,,,,,,,
1799999993005380477,2027-01-15T07:59:53.005380477Z,-0.88,-0.44,-0.88,1.18,1.32,-1.03,-0.15,3.38,3.09,2.21,4.12,4.41,2.65,3.97,,,,,,,,,,,,,,
1799999993013066872,2027-01-15T07:59:53.013066872Z,-0.44,-1.62,0.29,0.00,1.32,-0.15,-0.29,1.91,3.09,1.47,3.97,2.79,2.94,5.74,,,,,,,,,,,,,,
1799999993020753267,2027-01-15T07:59:53.020753267Z,2.21,-1.76,0.74,0.44,0.74,0.88,0.15,1.32,3.24,1.47,3.38,3.09,3.68,4.71,,,,,,,,,,,,,,
1799999993028439662,2027-01-15T07:59:53.028439662Z,0.00,-0.88,0.29,1.76,-1.18,0.29,-0.15,1.47,3.38,1.03,2.06,4.85,3.68,3.24,,,,,,,,,,,,,,
1799999993036126057,2027-01-15T07:59:53.036126057Z,-0.44,-1.03,0.29,1.03,-1.62,-0.88,1.03,2.06,2.50,1.91,1.03,5.44,4.12,5.29,,,,,,,,,,,,,,
1799999993043812452,2027-01-15T07:59:53.043812452Z,0.15,0.88,-0.15,0.29,0.15,-1.03,3.24,2.94,2.21,3.82,2.21,5.29,5.00,9.12,,,,,,,,,,,,,,
1799999993051498848,2027-01-15T07:59:53.051498848Z,0.44,2.35,-1.03,0.74,1.32,-0.15,3.38,2.35,2.65,4.85,2.79,5.59,5.74,9.12,,,,,,,,,,,,,,
1799999993059185243,2027-01-15T07:59:53.059185243Z,-0.44,0.44,0.29,0.00,0.59,0.74,2.06,0.88,0.44,3.53,1.76,5.00,5.15,5.15,,,,,,,,,,,,,,
1799999993066871638,2027-01-15T07:59:53.066871638Z,-0.44,-2.21,1.91,-1.32,0.29,1.32,2.65,1.18,-0.88,1.62,2.35,3.68,5.00,3.68,,,,,,,,,,,,,,
1799999993074558033,2027-01-15T07:59:53.074558033Z,0.88,-1.32,1.62,-1.91,1.03,1.91,2.35,3.24,1.47,1.32,2.65,3.09,6.03,5.59,,,,,,,,,,,,,,
1799999993082244428,2027-01-15T07:59:53.082244428Z,1.76,0.88,2.06,-1.03,1.62,1.76,1.62,3.68,3.09,2.79,0.88,4.71,6.03,6.47,,,,,,,,,,,,,,
1799999993089930823,2027-01-15T07:59:53.089930823Z,0.74,0.74,1.76,0.00,1.47,1.03,3.82,2.35,1.47,3.68,1.76,5.74,4.41,5.88,,,,,,,,,,,,,,
1799999993097617218,2027-01-15T07:59:53.097617218Z,0.59,-1.18,0.88,1.03,0.74,1.03,5.15,1.18,1.03,2.94,4.56,5.15,3.38,5.59,,,,,,,,,,,,,,
1799999993105303613,2027-01-15T07:59:53.105303613Z,1.03,-2.35,-0.15,0.00,0.59,2.50,3.09,1.03,3.38,2.94,4.41,4.26,3.68,5.88,,,,,,,,,,,,,,
1799999993112990008,2027-01-15T07:59:53.112990008Z,-1.91,-1.32,-1.47,-0.29,1.03,3.24,-0.44,1.91,5.29,4.12,2.94,3.82,3.53,6.32,,,,,,,,,,,,,,
1799999993120676403,2027-01-15T07:59:53.120676403Z,1.32,-0.29,-2.06,2.35,0.15,1.76,-2.06,2.35,5.59,4.71,4.12,5.15,3.09,5.88,,,,,,,,,,,,,,
1799999993128362798,2027-01-15T07:59:53.128362798Z,1.32,-0.74,-1.32,2.50,-0.88,0.29,-0.74,2.79,6.03,3.68,4.56,6.18,3.68,5.00,,,,,,,,,,,,,,
1799999993136049193,2027-01-15T07:59:53.136049193Z,1.03,0.44,-1.47,-0.88,-0.15,0.88,-0.29,3.09,4.26,2.35,1.62,3.97,4.71,4.26,,,,,,,,,,,,,,
1799999993143735589,2027-01-15T07:59:53.143735589Z,0.44,1.47,-0.88,-0.44,0.44,1.47,0.59,2.21,1.76,1.47,0.44,2.94,4.26,4.41,,,,,,,,,,,,,,
1799999993151421984,2027-01-15T07:59:53.151421984Z,-1.32,-0.59,0.88,1.91,0.29,0.88,3.68,1.32,2.79,2.21,2.65,5.44,3.24,5.29,,,,,,,,,,,,,,
1799999993159108379,2027-01-15T07:59:53.159108379Z,-0.74,-1.91,2.06,0.44,0.44,2.06,4.85,1.47,3.82,3.38,4.41,6.32,3.97,6.32,,,,,,,,,,,,,,
1799999993166794774,2027-01-15T07:59:53.166794774Z,-0.29,0.15,1.18,-1.62,0.29,3.68,2.94,0.74,1.91,3.97,4.26,4.71,4.56,6.32,,,,,,,,,,,,,,
1799999993174481169,2027-01-15T07:59:53.174481169Z,1.18,0.00,0.15,-0.15,0.15,2.79,4.12,-0.59,1.76,4.12,4.71,4.26,3.97,5.59,,,,,,,,,,,,,,
1799999993182167564,2027-01-15T07:59:53.182167564Z,0.74,-2.35,-0.15,1.18,0.00,1.32,6.03,-0.15,3.38,4.85,4.71,4.56,4.26,4.71,,,,,,,,,,,,,,
1799999993189853959,2027-01-15T07:59:53.189853959Z,0.29,-2.35,-0.44,0.59,0.29,2.35,4.41,1.47,3.38,5.15,3.68,4.26,4.71,3.82,,,,,,,,,,,,,,
1799999993197540354,2027-01-15T07:59:53.197540354Z,0.15,0.44,0.15,1.76,1.03,2.21,2.65,2.35,3.09,4.12,3.82,4.56,3.68,4.56,,,,,,,,,,,,,,
1799999993205226749,2027-01-15T07:59:53.205226749Z,1.03,0.74,1.62,3.24,1.18,0.00,3.97,2.06,2.65,2.21,5.15,4.71,3.97,5.15,,,,,,,,,,,,,,
1799999993212913144,2027-01-15T07:59:53.212913144Z,-1.47,-0.88,1.76,2.79,1.32,0.15,3.09,1.62,0.29,1.32,5.29,4.41,6.32,3.38,,,,,,,,,,,,,,
1799999993220599539,2027-01-15T07:59:53.220599539Z,-2.06,0.00,-0.15,1.91,2.06,2.06,-0.15,2.35,-0.74,2.50,5.29,4.71,7.35,2.79,,,,,,,,,,,,,,
1799999993228285934,2027-01-15T07:59:53.228285934Z,-2.21,-0.15,-1.62,1.18,1.91,2.35,0.88,3.68,1.32,3.09,4.41,5.44,5.74,5.29,,,,,,,,,,,,,,
1799999993235972329,2027-01-15T07:59:53.235972329Z,-0.74,-2.79,-1.18,1.47,1.47,2.21,3.53,2.06,2.06,1.76,2.35,5.74,4.26,6.62,,,,,,,,,,,,,,
1799999993243658725,2027-01-15T07:59:53.243658725Z,-0.29,-4.12,-0.29,0.59,1.76,2.94,3.82,-0.44,1.32,1.76,1.62,4.85,4.41,5.15,,,,,,,,,,,,,,
1799999993251345120,2027-01-15T07:59:53.251345120Z,2.21,-2.94,0.44,-1.18,1.91,2.79,2.94,-0.15,2.06,3.09,2.35,3.82,4.41,4.26,,,,,,,,,,,,,,
1799999993259031515,2027-01-15T07:59:53.259031515Z,2.65,-1.62,0.59,-1.91,1.91,1.91,2.06,1.47,2.94,3.82,2.21,2.79,4.41,5.00,,,,,,,,,,,,,,
1799999993266717910,2027-01-15T07:59:53.266717910Z,0.74,-0.88,0.29,0.44,1.62,2.35,0.74,2.94,2.94,2.35,1.76,2.50,3.97,4.71,,,,,,,,,,,,,,
1799999993274404305,2027-01-15T07:59:53.274404305Z,0.29,-0.59,0.00,3.24,0.88,4.12,0.74,2.79,1.91,0.00,2.21,2.94,3.24,2.94,,,,,,,,,,,,,,
1799999993282090700,2027-01-15T07:59:53.282090700Z,0.59,0.88,0.44,2.06,0.44,4.41,2.35,1.76,2.50,0.29,2.50,3.09,3.09,2.50,,,,,,,,,,,,,,
1799999993289777095,2027-01-15T07:59:53.289777095Z,0.44,1.91,-0.15,-0.59,0.74,2.35,2.21,2.06,3.82,2.35,2.06,2.35,4.41,5.15,,,,,,,,,,,,,,
1799999993297463490,2027-01-15T07:59:53.297463490Z,0.44,0.29,-1.18,-1.18,0.29,2.65,1.62,3.24,3.09,3.97,4.12,3.09,4.85,6.76,,,,,,,,,,,,,,
1799999993305149885,2027-01-15T07:59:53.305149885Z,-0.15,-1.62,-1.91,-0.44,-0.15,4.26,3.68,3.38,2.65,5.00,6.03,5.00,3.53,5.00,,,,,,,,,,,,,,
1799999993312836280,2027-01-15T07:59:53.312836280Z,1.76,-1.32,-1.91,-0.44,0.74,2.50,4.71,2.50,3.24,4.85,4.56,5.74,3.97,5.15,,,,,,,,,,,,,,
1799999993320522675,2027-01-15T07:59:53.320522675Z,2.06,0.44,0.29,-0.88,1.03,-0.29,2.79,2.35,2.06,3.97,3.97,3.82,5.88,6.62,,,,,,,,,,,,,,
1799999993328209070,2027-01-15T07:59:53.328209070Z,-0.88,0.59,3.38,-1.32,-0.44,-0.44,1.76,2.94,1.03,4.26,5.59,1.91,5.74,5.59,,,,,,,,,,,,,,
1799999993335895466,2027-01-15T07:59:53.335895466Z,-1.62,-0.74,2.94,-1.62,-1.18,0.74,1.47,2.35,2.65,4.71,4.41,2.35,5.29,4.41,,,,,,,,,,,,,,
1799999993343581861,2027-01-15T07:59:53.343581861Z,-3.68,0.00,0.44,-0.88,-0.15,0.15,0.59,1.76,3.97,3.82,2.79,3.53,6.32,3.09,,,,,,,,,,,,,,
1799999993351268256,2027-01-15T07:59:53.351268256Z,-1.03,-0.88,-0.29,0.15,0.74,-0.88,0.74,2.94,3.97,4.12,3.38,3.53,5.44,1.32,,,,,,,,,,,,,,
1799999993358954651,2027-01-15T07:59:53.358954651Z,-0.74,-3.09,-0.44,1.18,0.74,1.03,1.76,3.68,4.85,5.00,4.71,3.97,3.68,2.79,,,,,,,,,,,,,,
1799999993366641046,2027-01-15T07:59:53.366641046Z,-0.74,-2.79,-1.32,0.59,1.32,4.56,1.91,2.35,5.44,4.41,4.41,5.29,4.56,5.44,,,,,,,,,,,,,,
1799999993374327441,2027-01-15T07:59:53.374327441Z,-3.82,-1.18,-0.59,-0.44,1.62,5.15,0.88,1.62,4.56,3.97,2.94,4.85,5.59,4.26,,,,,,,,,,,,,,
1799999993382013836,2027-01-15T07:59:53.382013836Z,-1.62,0.44,0.29,0.74,0.29,2.94,0.15,0.88,3.24,4.71,1.47,2.79,5.00,2.35,,,,,,,,,,,,,,
1799999993389700231,2027-01-15T07:59:53.389700231Z,-1.18,1.18,-1.47,2.21,0.00,2.94,0.00,-0.59,2.21,4.12,1.76,2.50,4.26,3.82,,,,,,,,,,,,,,
1799999993397386626,2027-01-15T07:59:53.397386626Z,-3.24,0.74,-3.24,1.32,1.18,3.53,0.74,-0.74,2.65,2.79,3.38,3.38,3.38,5.59,,,,,,,,,,,,,,
1799999993405073021,2027-01-15T07:59:53.405073021Z,-1.32,1.18,-2.21,0.59,-0.44,1.76,1.76,1.03,2.94,2.79,3.82,3.09,2.65,5.15,,,,,,,,,,,,,,
1799999993412759416,2027-01-15T07:59:53.412759416Z,-1.32,0.29,-0.29,1.32,-2.79,0.74,2.21,2.79,2.35,4.56,3.82,3.38,3.97,4.26,,,,,,,,,,,,,,
1799999993420445811,2027-01-15T07:59:53.420445811Z,-3.68,-1.76,-0.15,1.76,-1.18,1.76,1.62,2.65,1.91,5.44,5.59,4.56,5.29,4.12,,,,,,,,,,,,,,
1799999993428132206,2027-01-15T07:59:53.428132206Z,-2.35,-1.76,-1.03,0.59,0.74,1.76,1.32,1.62,2.21,3.53,6.18,5.15,4.56,4.26,,,,,,,,,,,,,,
1799999993435818602,2027-01-15T07:59:53.435818602Z,-0.29,1.62,-1.03,-0.59,-0.15,0.88,1.47,2.06,2.06,2.35,4.12,4.71,4.71,5.29,,,,,,,,,,,,,,
1799999993443504997,2027-01-15T07:59:53.443504997Z,-0.15,2.79,0.44,0.00,0.74,1.47,0.88,2.65,2.21,3.68,2.35,5.44,5.88,5.44,,,,,,,,,,,,,,
1799999993451191392,2027-01-15T07:59:53.451191392Z,-2.65,-1.76,1.76,-0.59,2.50,3.53,1.03,2.94,3.09,3.82,2.06,7.21,5.88,3.68,,,,,,,,,,,,,,
1799999993458877787,2027-01-15T07:59:53.458877787Z,-4.12,-3.53,1.32,-2.50,1.91,3.24,1.47,3.68,3.09,2.79,1.47,6.03,4.71,3.68,,,,,,,,,,,,,,
1799999993466564182,2027-01-15T07:59:53.466564182Z,-1.03,0.44,-0.15,-2.06,0.74,0.88,0.29,3.53,2.21,3.53,1.47,1.76,3.53,5.29,,,,,,,,,,,,,,
1799999993474250577,2027-01-15T07:59:53.474250577Z,-0.29,2.35,-0.44,0.44,1.03,-0.44,-0.44,2.65,2.50,4.71,3.24,-0.29,4.12,5.00,,,,,,,,,,,,,,
1799999993481936972,2027-01-15T07:59:53.481936972Z,0.29,0.74,1.18,2.35,1.32,0.00,1.03,2.65,4.26,4.12,5.29,2.50,4.71,5.29,,,,,,,,,,,,,,
1799999993489623367,2027-01-15T07:59:53.489623367Z,1.18,0.00,1.91,1.47,1.03,0.15,1.91,3.09,3.68,3.68,5.29,4.71,3.53,6.76,,,,,,,,,,,,,,
1799999993497309762,2027-01-15T07:59:53.497309762Z,0.74,1.18,1.76,-1.18,0.74,1.18,0.74,1.76,0.59,4.41,2.94,3.82,2.94,6.03,,,,,,,,,,,,,,
1799999993504996157,2027-01-15T07:59:53.504996157Z,-0.44,1.32,2.21,-2.06,1.18,2.65,-0.74,0.15,-0.29,4.41,2.94,2.94,4.71,5.00,,,,,,,,,,,,,,
1799999993512682552,2027-01-15T07:59:53.512682552Z,-0.88,-0.15,1.47,1.18,1.91,2.50,-0.44,0.29,0.44,3.82,5.44,3.68,6.18,5.74,,,,,,,,,,,,,,
1799999993520368947,2027-01-15T07:59:53.520368947Z,-0.59,0.00,0.88,4.71,1.62,1.03,0.29,1.32,-0.88,3.97,5.29,4.26,6.03,6.18,,,,,,,,,,,,,,
1799999993528055343,2027-01-15T07:59:53.528055343Z,-0.15,1.32,1.18,3.68,1.32,0.88,0.44,1.32,0.88,3.82,3.24,4.26,5.15,4.71,,,,,,,,,,,,,,
1799999993535741738,2027-01-15T07:59:53.535741738Z,0.44,0.88,1.03,0.59,0.88,1.76,0.74,0.74,4.85,3.97,3.24,4.56,4.26,4.26,,,,,,,,,,,,,,
1799999993543428133,2027-01-15T07:59:53.543428133Z,0.74,1.47,0.00,-0.44,0.44,1.32,1.47,0.59,4.85,5.00,4.26,3.82,3.68,5.74,,,,,,,,,,,,,,
1799999993551114528,2027-01-15T07:59:53.551114528Z,2.06,2.06,-0.29,0.29,1.62,1.03,2.79,1.18,1.91,4.12,4.71,2.50,3.82,5.88,,,,,,,,,,,,,,
1799999993558800923,2027-01-15T07:59:53.558800923Z,0.74,1.03,0.74,1.03,1.32,2.21,2.79,2.06,0.88,2.50,6.18,3.09,4.12,4.56,,,,,,,,,,,,,,
1799999993566487318,2027-01-15T07:59:53.566487318Z,0.44,-0.59,-0.29,1.18,-0.88,3.09,1.47,3.09,1.91,3.97,5.74,4.71,3.68,4.71,,,,,,,,,,,,,,
1799999993574173713,2027-01-15T07:59:53.574173713Z,-0.74,-0.44,-1.76,1.62,-1.62,3.24,1.76,3.97,3.53,5.44,3.24,4.71,3.68,4.85,,,,,,,,,,,,,,
1799999993581860108,2027-01-15T07:59:53.581860108Z,2.50,0.59,-1.32,1.76,-0.59,2.79,2.79,3.68,3.97,3.24,3.38,4.41,5.59,4.26,,,,,,,,,,,,,,
1799999993589546503,2027-01-15T07:59:53.589546503Z,-0.59,-0.44,-1.47,0.29,0.29,1.76,3.38,3.38,2.35,1.32,5.15,5.44,6.47,4.71,,,,,,,,,,,,,,
1799999993597232898,2027-01-15T07:59:53.597232898Z,0.59,-0.59,-1.47,-0.59,0.15,1.03,2.65,3.09,1.18,2.35,5.15,5.88,4.26,5.15,,,,,,,,,,,,,,
1799999993604919293,2027-01-15T07:59:53.604919293Z,0.88,0.74,-0.29,0.59,-0.59,1.18,2.35,3.24,2.06,3.53,3.82,4.85,3.09,4.56,,,,,,,,,,,,,,
1799999993612605688,2027-01-15T07:59:53.612605688Z,1.18,1.62,0.15,0.59,-0.29,2.06,2.35,4.12,2.79,3.68,2.65,4.12,4.85,4.71,,,,,,,,,,,,,,
1799999993620292084,2027-01-15T07:59:53.620292084Z,0.74,0.88,-0.29,-1.03,0.44,2.06,1.47,3.97,2.50,4.71,2.79,5.44,5.15,5.74,,,,,,,,,,,,,,
1799999993627978479,2027-01-15T07:59:53.627978479Z,-2.50,-0.15,-0.15,-1.76,-0.15,1.03,1.62,2.94,3.38,5.15,3.97,5.74,3.53,5.15,,,,,,,,,,,,,,
1799999993635664874,2027-01-15T07:59:53.635664874Z,-1.18,-0.15,-1.03,-0.74,-0.29,1.18,1.91,1.91,4.71,3.53,4.26,3.53,2.50,3.82,,,,,,,,,,,,,,
1799999993643351269,2027-01-15T07:59:53.643351269Z,-0.74,-0.88,-1.91,-0.44,0.44,2.94,1.32,2.21,4.56,1.91,4.12,2.94,2.35,4.26,,,,,,,,,,,,,,
1799999993651037664,2027-01-15T07:59:53.651037664Z,-0.74,-3.24,-1.18,-1.03,1.32,3.09,1.76,3.38,3.97,2.35,6.18,4.85,2.94,4.85,,,,,,,,,,,,,,
1799999993658724059,2027-01-15T07:59:53.658724059Z,-0.88,-3.38,-0.29,-0.44,1.32,0.74,3.09,2.65,4.41,3.38,6.91,4.12,4.71,4.41,,,,,,,,,,,,,,
1799999993666410454,2027-01-15T07:59:53.666410454Z,0.15,-1.76,0.44,-0.15,-0.15,-0.44,3.09,2.35,4.12,3.24,4.71,3.09,6.32,4.85,,,,,,,,,,,,,,
1799999993674096849,2027-01-15T07:59:53.674096849Z,-0.15,-1.03,0.59,-0.44,-0.74,0.29,2.50,4.12,3.97,2.50,5.15,4.85,5.44,5.44,,,,,,,,,,,,,,
1799999993681783244,2027-01-15T07:59:53.681783244Z,-0.59,-1.47,0.44,-0.15,0.88,0.88,2.50,4.85,3.97,2.35,6.47,5.29,2.94,5.29,,,,,,,,,,,,,,
1799999993689469639,2027-01-15T07:59:53.689469639Z,-1.18,-2.06,0.29,-0.74,1.47,1.18,2.21,4.26,3.38,2.79,4.71,3.82,2.94,5.88,,,,,,,,,,,,,,
1799999993697156034,2027-01-15T07:59:53.697156034Z,-1.47,-1.32,0.00,-0.15,0.88,1.32,3.24,4.56,3.38,2.79,3.53,4.85,5.59,6.18,,,,,,,,,,,,,,
1799999993704842429,2027-01-15T07:59:53.704842429Z,-1.03,0.15,-0.29,1.18,2.21,2.21,5.15,4.56,3.24,2.21,4.71,6.91,6.03,5.29,,,,,,,,,,,,,,
1799999993712528824,2027-01-15T07:59:53.712528824Z,-0.29,-0.59,0.29,1.18,2.21,2.94,4.26,2.79,1.91,2.65,5.00,7.21,3.82,5.59,,,,,,,,,,,,,,
1799999993720215220,2027-01-15T07:59:53.720215220Z,-0.74,-2.21,1.32,0.29,0.88,1.76,2.21,0.59,2.35,4.26,3.82,5.74,3.68,6.18,,,,,,,,,,,,,,
1799999993727901615,2027-01-15T07:59:53.727901615Z,-1.03,-1.62,1.76,-0.59,1.47,0.74,2.65,0.44,4.71,5.59,2.94,4.26,4.85,6.03,,,,,,,,,,,,,,
1799999993735588010,2027-01-15T07:59:53.735588010Z,0.00,-0.44,0.88,-0.88,1.18,2.06,2.79,2.21,4.56,4.71,4.12,3.38,4.26,7.21,,,,,,,,,,,,,,
1799999993743274405,2027-01-15T07:59:53.743274405Z,-1.18,-1.03,0.59,-0.15,-0.59,2.35,1.32,2.79,2.94,3.38,5.00,3.97,3.53,8.68,,,,,,,,,,,,,,
1799999993750960800,2027-01-15T07:59:53.750960800Z,-6.03,-1.76,0.59,0.44,-0.88,0.74,1.03,1.91,2.79,2.94,4.41,4.71,4.41,7.94,,,,,,,,,,,,,,
1799999993758647195,2027-01-15T07:59:53.758647195Z,-5.74,-1.18,0.44,0.74,0.15,-1.18,2.06,0.88,3.38,3.82,3.82,5.15,5.29,6.03,,,,,,,,,,,,,,
1799999993766333590,2027-01-15T07:59:53.766333590Z,-1.76,0.15,0.15,0.74,1.32,-1.91,2.94,0.88,3.09,5.59,4.56,5.74,5.74,3.97,,,,,,,,,,,,,,
1799999993774019985,2027-01-15T07:59:53.774019985Z,-1.62,0.88,0.29,0.59,1.91,0.00,2.94,0.59,2.94,5.74,5.59,5.59,5.15,3.53,,,,,,,,,,,,,,
1799999993781706380,2027-01-15T07:59:53.781706380Z,0.29,0.15,1.18,0.88,1.47,2.65,1.76,-1.03,3.68,4.12,4.56,4.85,5.00,4.26,,,,,,,,,,,,,,
1799999993789392775,2027-01-15T07:59:53.789392775Z,-0.29,0.59,1.62,0.15,1.47,3.09,1.47,-0.15,3.38,4.71,3.09,4.26,4.41,4.85,,,,,,,,,,,,,,
1799999993797079170,2027-01-15T07:59:53.797079170Z,-0.44,1.91,1.32,-0.74,1.18,2.06,2.94,2.94,2.21,5.59,2.79,3.53,3.53,5.74,,,,,,,,,,,,,,
1799999993804765565,2027-01-15T07:59:53.804765565Z,-2.35,1.62,0.44,-0.29,1.18,1.76,3.53,3.38,3.24,5.00,2.50,3.97,3.09,6.32,,,,,,,,,,,,,,
1799999993812451961,2027-01-15T07:59:53.812451961Z,-3.97,-0.74,-1.18,0.00,1.62,2.21,2.21,2.06,4.41,4.12,2.65,5.88,3.38,5.74,,,,,,,,,,,,,,
1799999993820138356,2027-01-15T07:59:53.820138356Z,-3.09,-2.06,-2.21,0.15,1.32,1.32,1.62,1.62,2.94,3.09,4.26,6.91,3.53,5.74,,,,,,,,,,,,,,
1799999993827824751,2027-01-15T07:59:53.827824751Z,-1.76,-2.06,-0.74,0.74,1.91,0.15,2.21,2.21,1.76,2.35,6.32,5.74,4.12,4.56,,,,,,,,,,,,,,
1799999993835511146,2027-01-15T07:59:53.835511146Z,-1.76,-2.21,0.74,1.62,3.68,0.44,1.91,3.68,3.82,3.68,7.21,4.41,4.85,1.62,,,,,,,,,,,,,,
1799999993843197541,2027-01-15T07:59:53.843197541Z,-2.35,-0.88,-0.15,2.50,3.97,-0.15,2.35,3.53,5.15,3.97,5.59,3.53,5.15,1.47,,,,,,,,,,,,,,
1799999993850883936,2027-01-15T07:59:53.850883936Z,-2.79,-1.03,-1.62,2.94,2.06,-0.88,2.65,2.06,3.38,1.62,3.53,2.65,4.85,4.85,,,,,,,,,,,,,,
1799999993858570331,2027-01-15T07:59:53.858570331Z,-2.94,-1.03,-1.32,3.09,1.47,0.15,1.91,3.38,2.65,0.29,3.68,2.79,4.12,6.47,,,,,,,,,,,,,,
1799999993866256726,2027-01-15T07:59:53.866256726Z,-0.59,0.88,-0.74,2.06,2.50,1.18,2.35,5.88,3.82,2.21,3.24,4.41,4.71,6.03,,,,,,,,,,,,,,
1799999993873943121,2027-01-15T07:59:53.873943121Z,-0.74,0.00,-1.47,0.59,1.62,0.29,3.09,5.00,3.38,4.56,1.91,6.32,6.03,6.47,,,,,,,,,,,,,,
1799999993881629516,2027-01-15T07:59:53.881629516Z,-0.29,-0.59,-1.62,0.29,0.00,-0.29,3.09,2.35,1.91,3.68,2.79,6.32,6.47,5.88,,,,,,,,,,,,,,
1799999993889315911,2027-01-15T07:59:53.889315911Z,0.15,0.29,-1.32,0.44,-0.29,0.29,2.65,1.03,1.18,1.47,3.82,3.97,5.59,4.41,,,,,,,,,,,,,,
1799999993897002306,2027-01-15T07:59:53.897002306Z,0.44,-1.62,-1.76,-0.88,0.59,0.15,1.91,1.47,1.47,1.32,2.94,3.24,5.15,3.82,,,,,,,,,,,,,,
1799999993904688701,2027-01-15T07:59:53.904688701Z,0.00,-2.65,-1.62,-1.47,1.03,-0.44,2.65,1.47,1.18,1.76,3.09,6.03,5.74,5.15,,,,,,,,,,,,,,
1799999993912375097,2027-01-15T07:59:53.912375097Z,-0.29,0.15,-0.44,0.29,0.44,-0.44,4.26,1.47,0.44,1.32,4.41,6.47,6.03,5.74,,,,,,,,,,,,,,
1799999993920061492,2027-01-15T07:59:53.920061492Z,0.74,1.62,0.59,2.94,-0.44,-0.29,2.79,2.21,1.18,2.65,3.68,3.38,5.00,4.26,,,,,,,,,,,,,,
1799999993927747887,2027-01-15T07:59:53.927747887Z,0.15,-0.44,0.44,3.09,-0.88,-0.29,0.15,3.38,2.79,4.56,2.79,1.76,3.82,3.68,,,,,,,,,,,,,,
1799999993935434282,2027-01-15T07:59:53.935434282Z,-1.62,-2.06,0.44,0.59,-0.88,-0.15,0.44,3.82,2.21,5.15,3.82,2.94,3.68,5.29,,,,,,,,,,,,,,
1799999993943120677,2027-01-15T07:59:53.943120677Z,-0.88,-0.74,1.91,-0.15,-0.44,0.59,1.76,2.50,1.18,4.56,4.12,3.38,4.26,5.15,,,,,,,,,,,,,,
1799999993950807072,2027-01-15T07:59:53.950807072Z,1.32,-1.18,1.62,1.18,0.88,1.62,2.21,1.18,2.06,4.12,2.21,2.79,4.56,3.38,,,,,,,,,,,,,,
1799999993958493467,2027-01-15T07:59:53.958493467Z,1.32,-2.35,0.29,1.18,1.47,2.50,2.50,1.18,3.09,3.38,2.50,3.53,5.29,4.41,,,,,,,,,,,,,,
1799999993966179862,2027-01-15T07:59:53.966179862Z,0.00,-1.47,0.59,0.88,0.29,2.21,1.03,2.06,2.94,3.09,4.71,4.26,6.47,4.71,,,,,,,,,,,,,,
1799999993973866257,2027-01-15T07:59:53.973866257Z,-0.15,-0.59,0.59,2.94,-1.18,1.62,-0.88,2.79,2.35,3.24,3.53,4.12,6.32,2.35,,,,,,,,,,,,,,
1799999993981552652,2027-01-15T07:59:53.981552652Z,-0.74,0.59,-0.15,4.85,-0.59,2.06,-1.47,3.38,1.91,3.09,1.62,3.38,4.41,2.94,,,,,,,,,,,,,,
1799999993989239047,2027-01-15T07:59:53.989239047Z,,0.74,-0.74,3.09,0.59,2.35,-0.88,3.97,1.32,3.24,3.68,2.79,3.38,5.88,,,,,,,,,,,,,,
1799999993996925442,2027-01-15T07:59:53.996925442Z,-0.44,-0.29,-0.59,0.59,0.59,1.76,-1.03,3.68,1.76,3.82,5.44,3.24,4.26,6.62,,,,,,,,,,,,,,
1799999994004611838,2027-01-15T07:59:54.004611838Z,1.91,-0.15,1.18,0.44,-0.15,1.32,0.00,2.65,2.94,4.12,3.97,4.12,5.15,6.03,,,,,,,,,,,,,,
1799999994012298233,2027-01-15T07:59:54.012298233Z,0.59,0.74,2.50,-0.44,-0.74,2.21,1.62,2.79,2.35,3.53,2.35,4.12,5.29,6.62,,,,,,,,,,,,,,
1799999994019984628,2027-01-15T07:59:54.019984628Z,0.74,1.18,1.62,-2.06,-0.74,2.65,1.18,2.50,0.59,3.38,2.65,3.24,5.15,6.18,,,,,,,,,,,,,,
1799999994027671023,2027-01-15T07:59:54.027671023Z,0.88,0.88,0.29,-1.62,-0.88,1.18,1.18,1.32,1.91,4.26,2.65,3.09,5.00,5.29,,,,,,,,,,,,,,
1799999994035357418,2027-01-15T07:59:54.035357418Z,4.26,1.18,0.44,0.29,-0.59,0.00,2.94,1.03,3.09,4.26,2.79,3.82,4.56,5.88,,,,,,,,,,,,,,
1799999994043043813,2027-01-15T07:59:54.043043813Z,0.44,1.03,-0.59,1.47,0.74,1.47,4.26,1.91,0.88,2.94,3.09,4.12,4.56,5.44,,,,,,,,,,,,,,
1799999994050730208,2027-01-15T07:59:54.050730208Z,-0.59,0.15,-2.35,1.91,2.06,2.94,2.94,2.94,-0.15,2.06,2.50,3.82,4.56,3.09,,,,,,,,,,,,,,
1799999994058416603,2027-01-15T07:59:54.058416603Z,0.88,-0.59,-2.06,2.35,1.32,1.03,1.18,3.82,0.88,1.76,2.79,3.97,3.82,3.53,,,,,,,,,,,,,,
1799999994066102998,2027-01-15T07:59:54.066102998Z,0.00,-0.74,0.59,0.29,-0.29,0.00,2.06,3.24,1.62,1.76,3.97,3.09,3.09,6.47,,,,,,,,,,,,,,
1799999994073789393,2027-01-15T07:59:54.073789393Z,-0.29,0.00,2.50,-0.74,0.15,2.65,3.53,1.62,2.21,2.50,3.82,1.91,3.24,6.32,,,,,,,,,,,,,,
1799999994081475788,2027-01-15T07:59:54.081475788Z,0.29,0.15,1.91,1.76,1.32,3.38,2.79,1.47,2.06,2.94,3.09,3.97,3.82,4.26,,,,,,,,,,,,,,
1799999994089162183,2027-01-15T07:59:54.089162183Z,0.00,-1.03,1.47,2.79,0.59,1.03,2.21,2.50,2.21,3.38,3.82,7.50,4.56,4.26,,,,,,,,,,,,,,
1799999994096848579,2027-01-15T07:59:54.096848579Z,0.15,-0.74,1.47,0.29,-0.15,0.74,2.79,1.47,2.79,3.97,4.26,5.88,4.85,5.59,,,,,,,,,,,,,,
1799999994104534974,2027-01-15T07:59:54.104534974Z,0.88,0.00,0.00,-1.32,1.18,2.06,3.53,0.00,2.79,3.97,2.79,2.35,4.56,5.00,,,,,,,,,,,,,,
1799999994112221369,2027-01-15T07:59:54.112221369Z,-1.32,-0.44,-1.76,-1.47,2.50,1.76,3.24,0.15,2.94,3.82,1.62,3.09,5.59,4.12,,,,,,,,,,,,,,
1799999994119907764,2027-01-15T07:59:54.119907764Z,0.00,0.00,-1.91,-1.62,1.47,0.44,2.21,0.59,3.68,3.38,2.79,4.56,6.47,5.44,,,,,,,,,,,,,,
1799999994127594159,2027-01-15T07:59:54.127594159Z,-0.15,0.74,-0.88,-0.88,0.29,-0.29,2.35,0.74,3.09,2.21,4.12,2.94,5.59,7.21,,,,,,,,,,,,,,
1799999994135280554,2027-01-15T07:59:54.135280554Z,-0.29,0.74,0.44,-0.44,0.74,-0.15,2.65,0.59,2.06,1.03,2.94,2.21,4.71,6.76,,,,,,,,,,,,,,
1799999994142966949,2027-01-15T07:59:54.142966949Z,-0.29,-0.59,0.59,-1.03,0.88,0.44,2.06,0.15,2.21,0.88,1.47,3.68,5.29,4.56,,,,,,,,,,,,,,
1799999994150653344,2027-01-15T07:59:54.150653344Z,0.00,-1.62,-1.03,-0.29,-0.15,1.03,2.35,0.59,3.24,2.35,2.94,3.38,5.29,3.53,,,,,,,,,,,,,,
1799999994158339739,2027-01-15T07:59:54.158339739Z,0.59,-0.15,-1.76,0.88,0.00,1.91,2.50,0.59,2.65,3.97,5.88,1.91,3.68,4.85,,,,,,,,,,,,,,
1799999994166026134,2027-01-15T07:59:54.166026134Z,-3.09,0.74,-0.74,1.03,1.62,3.24,2.35,0.88,1.47,3.09,6.47,2.06,3.09,5.15,,,,,,,,,,,,,,
1799999994173712529,2027-01-15T07:59:54.173712529Z,-3.09,-1.03,0.29,0.74,1.76,3.38,2.79,1.62,1.62,2.21,4.26,3.24,4.71,3.97,,,,,,,,,,,,,,
1799999994181398924,2027-01-15T07:59:54.181398924Z,-0.59,-2.94,0.44,0.29,0.44,1.62,1.47,1.91,3.53,3.82,3.24,5.15,6.18,5.00,,,,,,,,,,,,,,
1799999994189085319,2027-01-15T07:59:54.189085319Z,-0.44,-1.62,-0.44,-1.03,1.18,0.15,-0.88,2.79,5.44,4.26,4.85,7.06,6.32,5.88,,,,,,,,,,,,,,
1799999994196771715,2027-01-15T07:59:54.196771715Z,0.29,1.03,0.59,-1.18,3.09,0.59,-0.74,3.24,5.15,2.94,5.15,6.62,6.32,4.12,,,,,,,,,,,,,,
1799999994204458110,2027-01-15T07:59:54.204458110Z,0.15,0.74,1.62,0.29,3.09,1.03,1.62,2.65,3.53,1.91,2.50,4.26,5.15,2.94,,,,,,,,,,,,,,
1799999994212144505,2027-01-15T07:59:54.212144505Z,-2.21,-0.59,0.00,1.32,1.91,0.74,1.91,2.79,2.50,1.76,1.32,2.50,3.97,4.26,,,,,,,,,,,,,,
1799999994219830900,2027-01-15T07:59:54.219830900Z,-2.21,-0.29,-0.88,1.03,2.35,0.29,1.32,3.09,2.50,1.76,3.68,1.76,3.68,4.85,,,,,,,,,,,,,,
1799999994227517295,2027-01-15T07:59:54.227517295Z,-2.21,-1.76,0.00,0.29,2.06,1.47,2.94,2.21,3.38,2.35,3.68,2.65,3.24,5.00,,,,,,,,,,,,,,
1799999994235203690,2027-01-15T07:59:54.235203690Z,-0.44,-3.24,0.00,-0.59,0.44,3.38,2.65,1.32,4.26,3.24,0.59,4.85,3.38,6.32,,,,,,,,,,,,,,
1799999994242890085,2027-01-15T07:59:54.242890085Z,0.00,-2.65,-0.88,-2.21,-1.18,4.56,0.44,1.62,2.94,3.97,1.18,5.15,3.68,5.15,,,,,,,,,,,,,,
1799999994250576480,2027-01-15T07:59:54.250576480Z,1.32,-2.50,-1.47,-3.09,-1.18,4.12,-0.44,2.06,0.88,3.82,4.41,3.97,2.94,2.35,,,,,,,,,,,,,,
1799999994258262875,2027-01-15T07:59:54.258262875Z,0.29,-2.50,-1.18,-1.76,-0.15,3.24,0.44,1.91,0.00,3.09,6.62,3.53,2.35,0.59,,,,,,,,,,,,,,
1799999994265949270,2027-01-15T07:59:54.265949270Z,0.00,-1.76,-1.03,0.59,1.03,2.21,0.74,1.32,1.47,1.91,5.44,4.26,2.65,1.91,,,,,,,,,,,,,,
1799999994273635665,2027-01-15T07:59:54.273635665Z,-3.09,-1.03,-1.76,2.21,0.74,1.32,0.29,1.18,3.53,1.32,2.94,5.29,4.12,5.29,,,,,,,,,,,,,,
1799999994281322060,2027-01-15T07:59:54.281322060Z,-3.82,-0.29,-2.21,0.88,-0.44,1.03,0.88,2.06,3.38,2.35,3.53,5.44,4.71,5.44,,,,,,,,,,,,,,
1799999994289008456,2027-01-15T07:59:54.289008456Z,-3.53,-0.88,-1.47,0.00,0.15,1.76,1.91,3.24,2.21,3.97,4.85,5.15,3.82,2.79,,,,,,,,,,,,,,
1799999994296694851,2027-01-15T07:59:54.296694851Z,-3.24,-2.35,-0.15,0.74,1.32,2.65,1.32,3.82,1.03,5.29,4.41,5.44,4.26,3.09,,,,,,,,,,,,,,
1799999994304381246,2027-01-15T07:59:54.304381246Z,0.59,-2.65,1.18,1.18,1.03,2.21,0.88,2.50,0.00,5.15,4.12,5.59,5.88,5.88,,,,,,,,,,,,,,
1799999994312067641,2027-01-15T07:59:54.312067641Z,0.59,-2.35,0.88,0.15,1.18,1.03,2.65,1.03,1.03,4.26,3.24,5.00,5.74,5.74,,,,,,,,,,,,,,
1799999994319754036,2027-01-15T07:59:54.319754036Z,0.74,-1.76,-0.15,-0.74,1.03,1.18,3.68,0.59,3.53,3.68,2.94,3.68,3.97,3.09,,,,,,,,,,,,,,
1799999994327440431,2027-01-15T07:59:54.327440431Z,-0.44,0.00,-1.03,-0.88,-0.15,2.35,1.18,1.32,4.26,3.68,4.85,2.21,3.68,3.53,,,,,,,,,,,,,,
1799999994335126826,2027-01-15T07:59:54.335126826Z,-1.03,0.88,-1.91,-1.47,-0.29,2.35,-0.29,2.94,2.06,2.94,5.29,1.91,4.71,6.47,,,,,,,,,,,,,,
1799999994342813221,2027-01-15T07:59:54.342813221Z,-1.91,-0.74,-1.62,-1.03,0.44,0.44,1.91,3.68,0.29,2.06,2.35,3.38,3.97,7.06,,,,,,,,,,,,,,
1799999994350499616,2027-01-15T07:59:54.350499616Z,-0.59,-1.18,-0.59,0.15,0.29,1.03,3.09,2.50,0.88,1.91,1.62,4.12,3.53,6.32,,,,,,,,,,,,,,
1799999994358186011,2027-01-15T07:59:54.358186011Z,-0.29,0.88,0.15,0.00,0.74,3.82,1.47,1.32,1.62,2.79,4.85,3.38,5.29,6.62,,,,,,,,,,,,,,
1799999994365872406,2027-01-15T07:59:54.365872406Z,-0.29,0.29,-0.59,-0.88,1.91,3.09,0.29,1.32,1.91,4.12,6.47,3.68,6.76,4.56,,,,,,,,,,,,,,
1799999994373558801,2027-01-15T07:59:54.373558801Z,-0.29,-2.35,-1.32,0.59,2.21,1.18,1.32,0.74,2.79,5.29,5.00,3.82,6.03,2.79,,,,,,,,,,,,,,
1799999994381245197,2027-01-15T07:59:54.381245197Z,-0.59,0.00,0.15,2.94,1.47,2.65,2.94,1.18,3.97,5.59,4.71,3.09,4.71,4.41,,,,,,,,,,,,,,
1799999994388931592,2027-01-15T07:59:54.388931592Z,-0.74,3.53,1.76,1.76,1.32,4.12,3.82,2.35,3.38,4.56,5.15,3.24,4.85,6.32,,,,,,,,,,,,,,
1799999994396617987,2027-01-15T07:59:54.396617987Z,-0.74,2.65,1.32,-0.88,1.32,2.65,2.50,1.91,1.47,3.82,3.68,3.97,4.85,5.44,,,,,,,,,,,,,,
1799999994404304382,2027-01-15T07:59:54.404304382Z,0.59,1.03,0.59,-0.88,0.44,1.47,1.18,1.18,2.21,3.97,3.82,4.26,3.53,5.59,,,,,,,,,,,,,,
1799999994411990777,2027-01-15T07:59:54.411990777Z,0.00,-0.15,-0.15,0.59,-0.44,1.91,1.62,2.06,3.97,3.38,5.29,3.24,3.38,7.06,,,,,,,,,,,,,,
1799999994419677172,2027-01-15T07:59:54.419677172Z,0.00,-0.44,0.15,1.32,-0.59,1.91,2.06,2.06,2.06,2.35,5.00,1.47,5.00,6.32,,,,,,,,,,,,,,
1799999994427363567,2027-01-15T07:59:54.427363567Z,0.44,0.15,1.62,0.88,0.74,2.06,2.21,2.06,0.15,1.91,3.53,1.91,6.03,4.41,,,,,,,,,,,,,,
1799999994435049962,2027-01-15T07:59:54.435049962Z,-0.88,-1.03,2.35,0.44,1.62,2.50,1.91,1.76,1.76,2.21,1.76,3.97,5.59,3.68,,,,,,,,,,,,,,
1799999994442736357,2027-01-15T07:59:54.442736357Z,-1.47,-1.91,1.47,0.74,0.59,1.91,0.44,0.59,3.24,1.91,1.03,4.56,5.29,3.97,,,,,,,,,,,,,,
1799999994450422752,2027-01-15T07:59:54.450422752Z,-1.91,-1.03,1.18,1.62,0.44,1.32,-0.44,2.35,2.79,2.06,2.50,4.12,4.85,3.68,,,,,,,,,,,,,,
1799999994458109147,2027-01-15T07:59:54.458109147Z,-0.29,-0.88,0.74,3.09,0.74,1.47,-0.44,5.15,2.21,3.82,3.09,4.26,4.12,4.12,,,,,,,,,,,,,,
1799999994465795542,2027-01-15T07:59:54.465795542Z,-0.15,-1.91,0.00,3.24,0.00,2.06,0.29,5.00,2.50,4.71,2.94,3.82,4.12,5.44,,,,,,,,,,,,,,
1799999994473481937,2027-01-15T07:59:54.473481937Z,0.88,-1.47,0.74,1.32,-0.44,1.91,2.50,4.12,2.79,3.53,4.26,3.68,4.56,6.18,,,,,,,,,,,,,,
1799999994481168333,2027-01-15T07:59:54.481168333Z,1.18,-1.18,1.18,2.06,0.29,1.03,3.38,4.71,2.21,4.26,5.74,3.97,4.56,5.29,,,,,,,,,,,,,,
1799999994488854728,2027-01-15T07:59:54.488854728Z,-1.18,-2.21,-0.74,1.91,0.74,1.18,1.47,4.71,1.91,6.18,5.15,3.97,5.00,4.71,,,,,,,,,,,,,,
1799999994496541123,2027-01-15T07:59:54.496541123Z,-0.29,-1.03,-2.06,-1.32,1.47,1.91,0.15,3.97,2.21,4.71,3.82,4.85,5.15,6.18,,,,,,,,,,,,,,
1799999994504227518,2027-01-15T07:59:54.504227518Z,-0.29,1.62,-1.62,-1.91,2.06,1.32,0.44,3.38,1.62,1.47,2.94,5.88,3.97,7.21,,,,,,,,,,,,,,
1799999994511913913,2027-01-15T07:59:54.511913913Z,0.15,2.94,-0.88,-0.15,1.18,-0.15,-0.44,3.97,1.03,0.88,3.09,6.18,3.09,6.91,,,,,,,,,,,,,,
1799999994519600308,2027-01-15T07:59:54.519600308Z,0.88,1.76,0.15,0.29,0.15,-0.88,0.00,4.71,1.91,2.94,4.71,4.71,3.53,6.76,,,,,,,,,,,,,,
1799999994527286703,2027-01-15T07:59:54.527286703Z,1.32,-1.03,0.29,-0.15,0.29,1.18,3.24,3.38,2.79,4.12,3.97,2.65,3.38,5.44,,,,,,,,,,,,,,
1799999994534973098,2027-01-15T07:59:54.534973098Z,0.74,-2.06,-0.59,-0.29,1.03,3.38,3.68,1.76,2.94,3.68,0.59,2.50,2.94,3.82,,,,,,,,,,,,,,
1799999994542659493,2027-01-15T07:59:54.542659493Z,0.44,0.29,-0.44,-0.88,1.76,2.50,0.44,1.62,2.94,4.12,-1.03,3.68,4.12,4.56,,,,,,,,,,,,,,
1799999994550345888,2027-01-15T07:59:54.550345888Z,0.29,-0.74,0.15,-1.62,1.18,1.32,-0.59,1.18,2.65,4.71,1.76,3.24,5.59,5.29,,,,,,,,,,,,,,
1799999994558032283,2027-01-15T07:59:54.558032283Z,-0.15,-2.50,-0.15,-1.76,-0.15,2.65,1.32,0.29,1.76,3.97,4.12,3.82,5.59,4.12,,,,,,,,,,,,,,
1799999994565718678,2027-01-15T07:59:54.565718678Z,2.35,-0.59,-0.44,-2.06,0.15,2.79,1.47,1.76,1.47,3.09,4.41,5.44,4.56,4.41,,,,,,,,,,,,,,
1799999994573405074,2027-01-15T07:59:54.573405074Z,-0.29,1.62,-0.29,-0.74,1.47,0.44,0.29,3.38,2.94,3.68,4.71,5.74,3.97,5.88,,,,,,,,,,,,,,
1799999994581091469,2027-01-15T07:59:54.581091469Z,-0.88,0.59,0.15,1.62,1.32,0.00,1.47,2.50,4.71,4.26,4.56,6.18,5.29,4.85,,,,,,,,,,,,,,
1799999994588777864,2027-01-15T07:59:54.588777864Z,-2.65,-2.06,-0.44,2.65,0.15,2.06,3.24,1.76,4.26,3.68,2.94,6.03,6.76,2.94,,,,,,,,,,,,,,
1799999994596464259,2027-01-15T07:59:54.596464259Z,1.62,-1.91,-1.76,1.76,0.29,2.65,2.65,1.32,2.06,3.09,2.65,4.12,5.15,3.24,,,,,,,,,,,,,,
1799999994604150654,2027-01-15T07:59:54.604150654Z,0.59,-0.15,-1.32,0.74,1.03,1.18,2.65,0.15,2.06,3.68,3.82,3.24,2.35,4.26,,,,,,,,,,,,,,
1799999994611837049,2027-01-15T07:59:54.611837049Z,0.29,-0.44,0.29,-0.59,1.03,1.32,3.09,-0.15,3.53,4.71,4.41,5.00,2.50,4.71,,,,,,,,,,,,,,
1799999994619523444,2027-01-15T07:59:54.619523444Z,-2.50,-1.91,-0.44,-0.88,0.29,2.06,2.50,1.62,2.65,5.44,4.26,5.59,3.38,5.59,,,,,,,,,,,,,,
1799999994627209839,2027-01-15T07:59:54.627209839Z,-2.94,-1.76,-1.47,0.15,-0.74,1.47,3.09,4.71,2.50,6.03,3.68,3.82,1.91,5.74,,,,,,,,,,,,,,
1799999994634896234,2027-01-15T07:59:54.634896234Z,-3.09,-0.59,-0.44,1.03,-0.29,1.91,3.82,5.00,4.56,4.56,2.21,2.94,2.79,5.44,,,,,,,,,,,,,,
1799999994642582629,2027-01-15T07:59:54.642582629Z,-2.94,-0.15,0.15,0.88,1.03,2.35,2.35,1.47,3.24,1.91,2.21,3.53,5.44,4.71,,,,,,,,,,,,,,
1799999994650269024,2027-01-15T07:59:54.650269024Z,0.00,-0.44,0.59,1.62,0.59,1.18,0.88,0.88,1.03,1.47,4.26,3.97,6.18,3.53,,,,,,,,,,,,,,
1799999994657955419,2027-01-15T07:59:54.657955419Z,0.74,0.29,2.79,1.76,-0.74,0.88,0.88,2.65,2.35,2.65,5.29,3.53,5.44,3.82,,,,,,,,,,,,,,
1799999994665641814,2027-01-15T07:59:54.665641814Z,-1.18,-0.59,2.79,-0.44,-0.44,1.47,2.06,0.15,3.68,2.06,4.41,4.12,4.56,5.88,,,,,,,,,,,,,,
1799999994673328210,2027-01-15T07:59:54.673328210Z,-2.21,-1.76,-0.88,-1.76,0.74,0.44,3.24,-1.91,2.35,1.62,4.56,5.44,2.94,6.03,,,,,,,,,,,,,,
1799999994681014605,2027-01-15T07:59:54.681014605Z,-2.35,-0.88,-3.24,0.29,1.03,-0.74,3.38,1.32,3.09,2.21,4.56,5.59,2.50,4.71,,,,,,,,,,,,,,
1799999994688701000,2027-01-15T07:59:54.688701000Z,-0.88,-0.15,-2.06,1.91,1.03,0.44,2.65,3.82,5.74,2.21,4.26,5.15,4.12,5.29,,,,,,,,,,,,,,
1799999994696387395,2027-01-15T07:59:54.696387395Z,-1.32,-1.03,-0.15,1.03,1.91,2.21,2.21,2.65,5.59,2.94,5.00,4.85,5.59,6.76,,,,,,,,,,,,,,
1799999994704073790,2027-01-15T07:59:54.704073790Z,-3.97,-2.21,1.03,0.00,2.65,3.09,2.21,3.38,3.09,4.26,4.41,4.12,5.74,5.88,,,,,,,,,,,,,,
1799999994711760185,2027-01-15T07:59:54.711760185Z,-2.94,-0.88,1.18,-0.74,1.91,2.50,1.91,3.68,2.21,4.56,2.65,3.38,5.74,3.97,,,,,,,,,,,,,,
1799999994719446580,2027-01-15T07:59:54.719446580Z,0.29,1.32,2.50,-0.15,0.59,1.47,1.62,0.59,3.38,5.15,3.24,3.97,5.44,3.82,,,,,,,,,,,,,,
1799999994727132975,2027-01-15T07:59:54.727132975Z,0.00,1.18,3.09,0.88,0.74,1.18,2.35,-1.18,3.53,5.59,5.00,4.56,5.29,4.71,,,,,,,,,,,,,,
1799999994734819370,2027-01-15T07:59:54.734819370Z,0.00,1.32,1.18,0.29,1.18,1.91,3.82,1.18,2.79,4.12,4.56,4.85,5.15,3.68,,,,,,,,,,,,,,
1799999994742505765,2027-01-15T07:59:54.742505765Z,0.15,2.06,-0.59,-0.74,1.32,2.79,3.97,4.12,3.38,2.35,3.38,5.00,5.00,3.38,,,,,,,,,,,,,,
1799999994750192160,2027-01-15T07:59:54.750192160Z,-3.97,1.62,-0.74,-0.59,1.62,3.24,2.94,4.85,3.68,1.62,3.38,4.85,5.29,4.56,,,,,,,,,,,,,,
1799999994757878555,2027-01-15T07:59:54.757878555Z,-3.68,1.47,-0.44,0.00,1.62,3.24,2.21,3.82,3.38,2.06,3.38,4.85,5.59,5.88,,,,,,,,,,,,,,
1799999994765564951,2027-01-15T07:59:54.765564951Z,0.44,2.06,-1.03,0.44,1.32,3.38,2.21,2.65,2.94,3.24,3.09,5.15,5.15,5.88,,,,,,,,,,,,,,
1799999994773251346,2027-01-15T07:59:54.773251346Z,1.03,1.18,-2.35,1.32,1.18,3.24,1.91,2.21,2.94,3.97,3.53,5.44,4.26,4.56,,,,,,,,,,,,,,
1799999994780937741,2027-01-15T07:59:54.780937741Z,-0.29,-0.44,-1.76,2.21,1.62,1.76,2.06,2.21,2.06,3.68,4.41,5.44,3.68,4.26,,,,,,,,,,,,,,
1799999994788624136,2027-01-15T07:59:54.788624136Z,0.15,-0.44,0.00,1.18,1.18,0.59,3.09,1.18,1.47,4.41,4.41,5.44,3.82,5.15,,,,,,,,,,,,,,
1799999994796310531,2027-01-15T07:59:54.796310531Z,0.74,0.44,1.03,-0.59,0.29,1.18,2.21,2.21,2.79,4.41,5.15,5.74,4.56,4.85,,,,,,,,,,,,,,
1799999994803996926,2027-01-15T07:59:54.803996926Z,0.15,0.29,0.88,-0.74,-0.44,1.47,1.62,4.56,2.35,3.09,6.47,5.74,4.41,5.29,,,,,,,,,,,,,,
1799999994811683321,2027-01-15T07:59:54.811683321Z,-1.47,-0.88,0.44,-0.29,0.00,1.03,3.53,5.74,0.59,2.79,5.59,5.15,3.97,5.88,,,,,,,,,,,,,,
1799999994819369716,2027-01-15T07:59:54.819369716Z,0.74,-1.47,-0.29,0.29,0.74,1.47,2.94,5.44,1.47,3.68,3.82,5.00,4.41,4.26,,,,,,,,,,,,,,
1799999994827056111,2027-01-15T07:59:54.827056111Z,-0.15,-0.59,-2.06,1.18,-0.44,1.18,-0.74,5.00,3.53,2.65,3.24,5.59,4.56,3.38,,,,,,,,,,,,,,
1799999994834742506,2027-01-15T07:59:54.834742506Z,-0.29,0.74,-2.79,1.32,-2.21,0.15,-1.03,3.97,4.41,1.32,3.24,4.41,3.68,5.00,,,,,,,,,,,,,,
1799999994842428901,2027-01-15T07:59:54.842428901Z,1.47,1.76,0.15,1.18,-1.03,-0.44,2.35,3.53,5.44,2.21,2.79,1.76,3.68,5.59,,,,,,,,,,,,,,
1799999994850115296,2027-01-15T07:59:54.850115296Z,2.06,1.76,2.21,1.32,1.62,0.88,5.00,4.41,6.76,3.68,3.38,0.88,4.12,4.26,,,,,,,,,,,,,,
1799999994857801692,2027-01-15T07:59:54.857801692Z,1.47,0.74,1.32,1.32,1.76,2.35,4.12,4.26,6.32,4.12,3.68,2.65,3.97,3.53,,,,,,,,,,,,,,
1799999994865488087,2027-01-15T07:59:54.865488087Z,0.59,-0.29,0.74,1.47,-0.15,1.76,2.50,3.09,5.88,3.68,3.24,3.68,4.56,3.38,,,,,,,,,,,,,,
1799999994873174482,2027-01-15T07:59:54.873174482Z,0.59,-1.76,0.15,1.91,0.59,0.29,2.65,2.21,6.03,3.82,3.24,3.38,5.15,4.26,,,,,,,,,,,,,,
1799999994880860877,2027-01-15T07:59:54.880860877Z,-1.62,-2.50,0.15,1.47,1.91,0.29,1.91,1.62,4.71,4.85,2.50,4.12,4.85,5.88,,,,,,,,,,,,,,
1799999994888547272,2027-01-15T07:59:54.888547272Z,-1.18,-1.76,2.21,0.44,0.44,0.44,-0.29,1.32,2.79,4.56,1.62,4.12,4.85,5.29,,,,,,,,,,,,,,
1799999994896233667,2027-01-15T07:59:54.896233667Z,-0.59,-1.62,3.53,0.44,-1.18,-0.88,-0.29,1.76,1.32,2.50,2.50,2.79,4.26,3.53,,,,,,,,,,,,,,
1799999994903920062,2027-01-15T07:59:54.903920062Z,1.03,-2.21,2.35,0.88,0.00,-0.44,1.91,2.06,1.47,2.35,4.12,2.21,2.65,4.41,,,,,,,,,,,,,,
1799999994911606457,2027-01-15T07:59:54.911606457Z,-0.29,-1.91,1.91,-0.44,2.21,0.88,3.53,2.50,2.94,3.82,4.56,3.38,2.35,6.18,,,,,,,,,,,,,,
1799999994919292852,2027-01-15T07:59:54.919292852Z,0.00,0.29,3.09,0.00,1.32,0.00,3.68,3.24,2.94,3.24,4.56,4.56,5.00,6.47,,,,,,,,,,,,,,
1799999994926979247,2027-01-15T07:59:54.926979247Z,-0.44,1.47,3.24,1.76,-1.47,-0.44,3.82,4.56,2.06,2.21,3.97,4.71,6.47,6.76,,,,,,,,,,,,,,
1799999994934665642,2027-01-15T07:59:54.934665642Z,-2.94,-0.29,1.62,2.79,-1.91,1.32,2.94,4.85,3.24,3.09,2.94,3.97,4.85,7.50,,,,,,,,,,,,,,
1799999994942352037,2027-01-15T07:59:54.942352037Z,0.15,-0.74,0.44,2.65,-0.15,2.35,1.32,2.79,4.85,4.26,3.09,3.97,3.97,6.18,,,,,,,,,,,,,,
1799999994950038432,2027-01-15T07:59:54.950038432Z,1.03,0.88,0.74,2.35,0.59,1.76,0.59,1.91,4.85,3.82,4.26,4.26,5.44,4.12,,,,,,,,,,,,,,
1799999994957724828,2027-01-15T07:59:54.957724828Z,4.26,0.59,0.15,2.94,0.15,0.88,1.76,3.24,2.79,3.38,4.71,3.82,6.32,3.97,,,,,,,,,,,,,,
1799999994965411223,2027-01-15T07:59:54.965411223Z,-1.91,-2.21,-1.76,2.35,0.59,1.03,3.09,2.79,0.59,3.68,3.97,3.68,5.29,3.82,,,,,,,,,,,,,,
1799999994973097618,2027-01-15T07:59:54.973097618Z,-2.65,-3.82,-3.38,0.59,1.18,2.35,2.94,1.76,1.47,3.09,3.68,4.41,4.85,2.35,,,,,,,,,,,,,,
1799999994980784013,2027-01-15T07:59:54.980784013Z,1.32,-1.47,-2.35,0.88,1.03,2.94,1.47,2.35,3.68,1.76,4.12,5.59,5.15,3.38,,,,,,,,,,,,,,
1799999994988470408,2027-01-15T07:59:54.988470408Z,-0.74,1.03,-1.62,0.74,1.18,1.62,1.03,2.79,3.68,2.50,3.97,5.88,4.85,6.18,,,,,,,,,,,,,,
1799999994996156803,2027-01-15T07:59:54.996156803Z,-1.18,0.88,-1.76,-0.88,1.47,0.44,2.65,1.91,1.91,3.82,2.35,4.26,3.53,6.91,,,,,,,,,,,,,,
1799999995003843198,2027-01-15T07:59:55.003843198Z,-1.76,0.15,-1.03,0.59,1.76,1.03,3.68,1.62,0.88,3.53,2.21,2.79,3.09,6.18,,,,,,,,,,,,,,
1799999995011529593,2027-01-15T07:59:55.011529593Z,1.03,0.15,-0.44,2.21,1.76,1.03,3.82,2.21,0.74,3.53,4.41,3.68,4.12,6.03,,,,,,,,,,,,,,
1799999995019215988,2027-01-15T07:59:55.019215988Z,0.88,-0.44,-0.74,0.74,1.76,1.03,3.09,1.91,0.15,4.26,6.03,5.15,4.85,5.29,,,,,,,,,,,,,,
1799999995026902383,2027-01-15T07:59:55.026902383Z,-3.09,-1.47,-1.32,0.59,1.62,2.21,0.88,1.62,0.88,3.97,5.15,4.26,5.59,5.59,,,,,,,,,,,,,,
1799999995034588778,2027-01-15T07:59:55.034588778Z,-4.71,-1.18,-2.06,1.47,1.18,2.21,0.88,1.18,3.38,2.94,3.97,3.09,6.47,6.62,,,,,,,,,,,,,,
1799999995042275173,2027-01-15T07:59:55.042275173Z,-1.32,-0.29,-1.91,0.44,2.06,1.03,4.12,0.15,5.59,2.06,4.26,3.68,6.18,6.32,,,,,,,,,,,,,,
1799999995049961569,2027-01-15T07:59:55.049961569Z,-1.62,-1.03,-1.03,-0.59,2.94,1.47,4.12,-0.74,5.29,2.35,5.00,3.38,4.85,5.74,,,,,,,,,,,,,,
1799999995057647964,2027-01-15T07:59:55.057647964Z,-0.74,-0.59,-0.88,-0.44,1.91,2.65,0.44,-0.29,3.09,2.50,5.00,2.65,4.12,6.47,,,,,,,,,,,,,,
1799999995065334359,2027-01-15T07:59:55.065334359Z,-0.29,0.29,-0.88,-1.76,0.88,1.91,0.59,0.15,0.88,0.59,4.41,3.82,4.85,5.74,,,,,,,,,,,,,,
1799999995073020754,2027-01-15T07:59:55.073020754Z,1.03,-0.15,0.00,-2.65,1.76,0.74,2.50,-0.29,0.59,0.59,4.85,5.00,4.41,5.15,,,,,,,,,,,,,,
1799999995080707149,2027-01-15T07:59:55.080707149Z,-0.29,0.88,-0.59,-1.91,2.35,0.44,0.59,-0.59,1.62,4.12,4.85,4.41,3.68,6.76,,,,,,,,,,,,,,
1799999995088393544,2027-01-15T07:59:55.088393544Z,-0.74,1.18,-1.76,-2.21,1.62,-0.29,-1.47,0.88,2.65,5.88,3.53,4.12,3.82,6.18,,,,,,,,,,,,,,
1799999995096079939,2027-01-15T07:59:55.096079939Z,-2.21,0.59,-0.29,-1.91,1.32,-0.29,-0.74,1.47,2.94,4.12,3.68,4.85,3.82,4.41,,,,,,,,,,,,,,
1799999995103766334,2027-01-15T07:59:55.103766334Z,-2.65,0.15,1.76,-0.88,1.47,1.03,0.00,1.62,2.06,3.97,5.15,4.71,3.09,5.00,,,,,,,,,,,,,,
1799999995111452729,2027-01-15T07:59:55.111452729Z,-5.00,-1.62,1.32,-0.74,0.74,1.18,0.88,3.53,1.47,5.15,4.56,4.26,3.97,5.59,,,,,,,,,,,,,,
1799999995119139124,2027-01-15T07:59:55.119139124Z,-1.32,-3.82,1.03,-1.62,-0.44,-0.15,1.91,4.12,0.88,4.26,3.24,3.24,6.03,5.15,,,,,,,,,,,,,,
1799999995126825519,2027-01-15T07:59:55.126825519Z,-0.29,-3.53,1.47,-2.79,-0.29,-0.15,1.91,2.06,0.44,3.24,2.50,2.79,6.03,5.74,,,,,,,,,,,,,,
1799999995134511914,2027-01-15T07:59:55.134511914Z,0.00,-0.88,1.18,-1.91,1.62,-0.44,0.74,0.59,0.88,3.97,3.24,5.29,4.12,5.44,,,,,,,,,,,,,,
1799999995142198309,2027-01-15T07:59:55.142198309Z,-0.59,-0.74,1.18,0.15,1.47,-1.76,0.44,1.47,1.76,4.41,3.97,7.94,3.09,4.41,,,,,,,,,,,,,,
1799999995149884705,2027-01-15T07:59:55.149884705Z,-1.18,-3.24,1.18,0.00,-0.29,-0.88,2.06,2.94,2.21,3.68,2.06,6.76,4.41,4.26,,,,,,,,,,,,,,
1799999995157571100,2027-01-15T07:59:55.157571100Z,-3.68,-3.68,2.21,-0.59,-0.29,0.74,2.65,2.79,2.35,2.79,-0.29,4.71,6.03,4.85,,,,,,,,,,,,,,
1799999995165257495,2027-01-15T07:59:55.165257495Z,-2.50,-2.06,2.35,1.47,0.00,0.74,0.74,2.35,2.65,1.76,1.76,3.97,5.59,4.41,,,,,,,,,,,,,,
1799999995172943890,2027-01-15T07:59:55.172943890Z,-0.59,-1.03,0.15,1.91,-0.88,1.32,-0.15,3.09,2.65,1.47,5.29,3.38,3.97,3.53,,,,,,,,,,,,,,
1799999995180630285,2027-01-15T07:59:55.180630285Z,-0.74,-0.44,-1.76,-1.18,0.15,3.24,1.32,2.21,2.50,2.79,6.18,3.53,3.82,4.12,,,,,,,,,,,,,,
1799999995188316680,2027-01-15T07:59:55.188316680Z,-2.50,0.29,-1.47,-2.50,1.91,3.82,2.21,0.74,2.50,3.53,5.29,4.26,4.26,5.29,,,,,,,,,,,,,,
1799999995196003075,2027-01-15T07:59:55.196003075Z,0.59,-0.74,-1.62,0.29,1.47,1.91,2.06,1.62,1.91,2.65,5.00,3.68,3.82,4.71,,,,,,,,,,,,,,
1799999995203689470,2027-01-15T07:59:55.203689470Z,0.59,-3.09,-2.21,1.76,0.44,0.44,3.38,2.94,1.47,1.32,5.15,3.82,4.71,3.09,,,,,,,,,,,,,,
1799999995211375865,2027-01-15T07:59:55.211375865Z,-2.50,-2.50,-1.76,0.88,0.88,0.74,4.12,2.35,2.79,1.47,3.68,5.88,5.59,3.09,,,,,,,,,,,,,,
1799999995219062260,2027-01-15T07:59:55.219062260Z,-0.88,0.15,-2.21,1.32,1.03,1.32,2.65,3.38,4.41,2.79,1.32,7.06,4.56,4.56,,,,,,,,,,,,,,
1799999995226748655,2027-01-15T07:59:55.226748655Z,-0.29,0.00,-1.47,0.59,1.91,1.18,1.47,4.71,3.97,3.82,1.32,4.85,5.15,5.88,,,,,,,,,,,,,,
1799999995234435050,2027-01-15T07:59:55.234435050Z,0.59,-1.62,1.47,-0.59,2.65,1.18,2.06,3.09,2.79,3.53,4.12,2.79,7.06,5.88,,,,,,,,,,,,,,
1799999995242121446,2027-01-15T07:59:55.242121446Z,-0.29,-1.32,2.35,0.29,1.47,2.06,3.82,1.03,2.65,3.82,6.03,3.53,6.32,4.56,,,,,,,,,,,,,,
1799999995249807841,2027-01-15T07:59:55.249807841Z,-0.59,-0.29,0.74,1.18,0.00,2.35,4.41,1.18,2.50,4.12,5.59,3.82,5.15,3.53,,,,,,,,,,,,,,
1799999995257494236,2027-01-15T07:59:55.257494236Z,-1.91,0.74,-0.44,0.74,-0.15,2.06,3.09,2.35,1.91,4.12,4.56,2.79,5.44,3.97,,,,,,,,,,,,,,
1799999995265180631,2027-01-15T07:59:55.265180631Z,-2.79,1.03,-0.29,-0.29,1.18,1.76,0.15,3.09,1.62,4.12,3.24,1.47,6.32,4.56,,,,,,,,,,,,,,
1799999995272867026,2027-01-15T07:59:55.272867026Z,-2.35,0.15,-0.59,-1.18,2.06,1.62,-2.50,3.82,2.06,5.44,2.65,2.79,5.88,4.85,,,,,,,,,,,,,,
1799999995280553421,2027-01-15T07:59:55.280553421Z,-0.29,1.03,-1.76,-0.29,0.44,1.18,-1.91,3.97,1.91,6.47,3.38,5.74,4.12,4.56,,,,,,,,,,,,,,
1799999995288239816,2027-01-15T07:59:55.288239816Z,-0.59,2.35,-1.03,1.03,0.00,1.76,-1.32,3.38,1.18,5.00,3.97,5.88,2.79,3.53,,,,,,,,,,,,,,
1799999995295926211,2027-01-15T07:59:55.295926211Z,-1.91,1.47,1.03,1.47,1.32,3.68,-0.59,2.50,1.62,2.94,3.53,3.82,2.35,1.62,,,,,,,,,,,,,,
1799999995303612606,2027-01-15T07:59:55.303612606Z,-1.32,0.88,1.03,1.32,1.32,4.71,1.91,1.18,3.09,2.35,3.68,2.65,2.94,0.74,,,,,,,,,,,,,,
1799999995311299001,2027-01-15T07:59:55.311299001Z,3.38,0.44,-0.59,1.18,0.15,3.09,3.82,0.74,3.82,2.21,4.41,3.09,3.09,2.50,,,,,,,,,,,,,,
1799999995318985396,2027-01-15T07:59:55.318985396Z,3.24,-0.29,0.00,1.03,-0.44,1.62,3.09,1.32,1.91,2.65,3.97,3.97,3.09,4.26,,,,,,,,,,,,,,
1799999995326671791,2027-01-15T07:59:55.326671791Z,1.47,-0.74,1.47,0.44,0.15,1.47,2.50,1.32,-0.59,3.53,3.38,3.97,3.82,4.12,,,,,,,,,,,,,,
1799999995334358187,2027-01-15T07:59:55.334358187Z,-0.59,-1.47,0.74,-0.29,1.03,1.32,1.03,1.76,0.74,2.79,3.82,2.79,4.71,3.82,,,,,,,,,,,,,,
1799999995342044582,2027-01-15T07:59:55.342044582Z,-0.44,-0.15,0.00,0.00,0.59,1.76,-1.47,2.65,3.97,2.06,3.53,2.35,4.56,4.85,,,,,,,,,,,,,,
1799999995349730977,2027-01-15T07:59:55.349730977Z,1.03,1.03,0.74,0.00,-1.18,1.91,-1.32,3.97,4.85,2.94,2.79,3.53,3.68,6.18,,,,,,,,,,,,,,
1799999995357417372,2027-01-15T07:59:55.357417372Z,0.74,0.15,0.44,-1.18,-1.62,1.32,-0.15,3.53,3.24,3.82,3.09,4.71,3.53,7.35,,,,,,,,,,,,,,
1799999995365103767,2027-01-15T07:59:55.365103767Z,-0.15,-0.15,0.29,-2.50,0.29,0.74,-1.47,1.62,1.76,3.53,3.38,4.85,3.82,7.21,,,,,,,,,,,,,,
1799999995372790162,2027-01-15T07:59:55.372790162Z,0.29,0.44,1.18,-1.62,0.88,0.88,-1.62,1.03,1.62,3.53,2.35,3.82,3.97,5.59,,,,,,,,,,,,,,
1799999995380476557,2027-01-15T07:59:55.380476557Z,1.91,-0.44,1.62,0.29,0.44,0.88,1.18,1.32,3.09,3.09,2.50,4.41,5.29,4.26,,,,,,,,,,,,,,
1799999995388162952,2027-01-15T07:59:55.388162952Z,-1.03,-0.88,0.88,-0.88,0.88,1.62,3.53,1.32,4.12,1.76,4.41,5.44,6.76,5.29,,,,,,,,,,,,,,
1799999995395849347,2027-01-15T07:59:55.395849347Z,0.44,0.15,1.62,-2.50,0.88,3.24,4.26,2.65,1.76,1.76,5.44,3.97,5.74,6.91,,,,,,,,,,,,,,
1799999995403535742,2027-01-15T07:59:55.403535742Z,0.44,0.74,1.62,-0.44,0.15,3.97,3.68,4.12,-0.44,3.97,4.26,2.35,3.53,6.76,,,,,,,,,,,,,,
1799999995411222137,2027-01-15T07:59:55.411222137Z,0.44,-0.74,-1.03,1.18,0.15,1.91,3.38,3.38,1.32,5.00,2.94,2.94,3.97,5.88,,,,,,,,,,,,,,
1799999995418908532,2027-01-15T07:59:55.418908532Z,-0.29,-0.29,-2.94,0.00,0.74,0.59,3.09,1.91,3.68,3.53,2.94,4.12,6.03,5.59,,,,,,,,,,,,,,
1799999995426594927,2027-01-15T07:59:55.426594927Z,0.15,1.47,-2.21,-0.74,1.32,1.91,3.38,2.50,3.53,4.12,3.24,4.56,5.59,6.18,,,,,,,,,,,,,,
1799999995434281323,2027-01-15T07:59:55.434281323Z,0.15,0.88,-0.88,-0.15,1.47,2.65,4.26,2.94,2.50,5.44,3.68,3.97,3.97,5.74,,,,,,,,,,,,,,
1799999995441967718,2027-01-15T07:59:55.441967718Z,0.44,-0.29,0.00,0.15,0.44,1.91,5.00,1.18,1.62,4.41,4.56,2.94,5.00,4.71,,,,,,,,,,,,,,
1799999995449654113,2027-01-15T07:59:55.449654113Z,0.29,0.74,-1.32,-0.15,0.00,1.76,3.97,0.29,2.35,3.24,4.56,3.68,5.15,5.29,,,,,,,,,,,,,,
1799999995457340508,2027-01-15T07:59:55.457340508Z,-1.47,2.35,-2.21,1.03,0.88,0.88,1.62,1.76,3.09,3.68,3.09,5.74,2.21,6.91,,,,,,,,,,,,,,
1799999995465026903,2027-01-15T07:59:55.465026903Z,-0.29,1.47,-0.29,2.21,0.88,0.15,1.62,2.35,1.76,3.53,2.06,5.44,2.35,7.94,,,,,,,,,,,,,,
1799999995472713298,2027-01-15T07:59:55.472713298Z,-0.59,-0.15,0.74,1.18,0.29,1.62,3.68,1.47,1.03,2.50,3.09,3.82,5.88,6.91,,,,,,,,,,,,,,
1799999995480399693,2027-01-15T07:59:55.480399693Z,-0.15,0.29,-1.03,0.29,0.15,2.79,3.53,1.62,2.35,1.47,4.12,3.53,6.47,5.44,,,,,,,,,,,,,,
1799999995488086088,2027-01-15T07:59:55.488086088Z,0.15,-1.03,-1.76,0.88,0.15,1.91,2.50,2.35,2.50,1.91,3.24,3.24,4.26,3.97,,,,,,,,,,,,,,
1799999995495772483,2027-01-15T07:59:55.495772483Z,0.74,-1.47,-0.15,0.74,0.44,2.06,3.38,1.47,2.21,2.94,3.38,2.06,3.24,2.50,,,,,,,,,,,,,,
1799999995503458878,2027-01-15T07:59:55.503458878Z,-0.15,0.44,1.32,0.44,1.47,4.12,4.41,0.59,3.68,3.09,5.29,2.21,3.82,2.06,,,,,,,,,,,,,,
1799999995511145273,2027-01-15T07:59:55.511145273Z,-0.29,1.32,1.91,0.88,2.50,3.68,3.82,1.32,5.15,2.79,5.44,4.26,3.68,3.53,,,,,,,,,,,,,,
1799999995518831668,2027-01-15T07:59:55.518831668Z,0.59,1.62,2.79,1.18,2.06,0.44,1.91,1.32,5.15,3.24,3.68,5.44,3.38,5.00,,,,,,,,,,,,,,
1799999995526518064,2027-01-15T07:59:55.526518064Z,-0.74,0.00,2.50,0.74,1.18,-0.74,0.59,1.62,4.41,3.09,3.82,5.15,4.56,4.56,,,,,,,,,,,,,,
1799999995534204459,2027-01-15T07:59:55.534204459Z,-1.03,-3.53,0.29,0.15,1.18,1.32,1.47,1.76,3.68,2.79,5.44,6.03,5.15,4.26,,,,,,,,,,,,,,
1799999995541890854,2027-01-15T07:59:55.541890854Z,-1.18,-5.15,0.00,-0.59,1.91,1.76,2.06,1.18,3.09,3.68,4.12,6.76,3.97,5.59,,,,,,,,,,,,,,
1799999995549577249,2027-01-15T07:59:55.549577249Z,-1.47,-1.91,1.62,0.15,2.50,-0.29,1.62,2.79,3.09,3.38,1.03,6.18,3.97,5.88,,,,,,,,,,,,,,
1799999995557263644,2027-01-15T07:59:55.557263644Z,-2.79,2.06,0.15,1.32,1.32,-0.29,1.76,3.82,2.65,1.76,0.44,5.15,5.59,4.56,,,,,,,,,,,,,,
1799999995564950039,2027-01-15T07:59:55.564950039Z,-2.79,1.18,-1.76,0.88,-0.59,1.32,1.62,1.62,1.47,2.79,2.65,4.56,6.03,4.71,,,,,,,,,,,,,,
1799999995572636434,2027-01-15T07:59:55.572636434Z,-4.12,-1.18,-0.44,1.03,-0.29,1.76,0.44,-0.15,1.18,4.85,3.97,4.85,5.59,6.32,,,,,,,,,,,,,,
1799999995580322829,2027-01-15T07:59:55.580322829Z,-2.50,-0.15,1.03,1.76,1.62,1.47,0.00,0.29,2.21,4.85,4.26,5.00,5.44,6.18,,,,,,,,,,,,,,
1799999995588009224,2027-01-15T07:59:55.588009224Z,-1.03,-0.15,0.00,0.59,2.21,1.91,0.59,1.03,2.50,3.82,4.56,4.41,4.71,5.15,,,,,,,,,,,,,,
1799999995595695619,2027-01-15T07:59:55.595695619Z,-0.74,-2.50,-0.59,-0.15,1.32,1.76,-0.29,1.91,2.50,3.38,4.41,4.26,4.71,4.56,,,,,,,,,,,,,,
1799999995603382014,2027-01-15T07:59:55.603382014Z,1.91,-3.09,0.44,0.59,1.03,1.62,-0.59,2.79,3.38,3.24,5.44,4.56,5.59,4.26,,,,,,,,,,,,,,
1799999995611068409,2027-01-15T07:59:55.611068409Z,0.00,-2.65,0.44,0.44,0.74,2.21,2.35,3.09,3.82,2.94,6.91,3.82,4.71,5.15,,,,,,,,,,,,,,
1799999995618754804,2027-01-15T07:59:55.618754804Z,-0.29,-3.24,-0.44,0.15,-0.15,1.76,4.12,3.38,3.82,2.94,6.62,3.24,2.50,6.32,,,,,,,,,,,,,,
1799999995626441200,2027-01-15T07:59:55.626441200Z,-2.94,-2.79,-1.32,1.03,-0.74,0.74,1.76,4.26,3.53,3.38,4.85,3.09,1.32,6.18,,,,,,,,,,,,,,
1799999995634127595,2027-01-15T07:59:55.634127595Z,-3.82,-1.62,-1.62,1.03,-0.15,0.88,1.62,3.97,2.65,3.38,3.38,1.91,2.50,6.32,,,,,,,,,,,,,,
1799999995641813990,2027-01-15T07:59:55.641813990Z,-3.68,-1.62,-0.88,-1.18,0.88,1.76,3.53,2.94,2.35,2.79,2.79,1.76,4.71,5.44,,,,,,,,,,,,,,
1799999995649500385,2027-01-15T07:59:55.649500385Z,-3.38,-1.62,0.00,-2.50,1.91,1.47,3.24,2.65,3.24,2.50,3.09,3.68,6.32,4.12,,,,,,,,,,,,,,
1799999995657186780,2027-01-15T07:59:55.657186780Z,-1.47,-1.62,1.47,-0.44,2.50,0.15,1.76,2.79,2.94,2.65,3.38,4.56,6.47,4.26,,,,,,,,,,,,,,
1799999995664873175,2027-01-15T07:59:55.664873175Z,-1.18,-2.79,2.94,0.59,2.21,1.03,1.91,1.62,1.62,2.06,3.53,3.38,5.15,4.85,,,,,,,,,,,,,,
1799999995672559570,2027-01-15T07:59:55.672559570Z,-1.76,-1.76,2.50,-0.88,1.91,3.38,2.79,0.59,1.62,2.21,3.68,2.65,3.82,5.29,,,,,,,,,,,,,,
1799999995680245965,2027-01-15T07:59:55.680245965Z,,0.00,1.18,-1.03,0.88,4.12,3.53,1.32,2.79,3.09,3.68,2.65,4.26,6.47,,,,,,,,,,,,,,
1799999995687932360,2027-01-15T07:59:55.687932360Z,-0.88,-0.59,1.76,0.59,-0.44,1.76,3.09,2.35,3.38,3.53,3.82,2.79,5.15,5.29,,,,,,,,,,,,,,
1799999995695618755,2027-01-15T07:59:55.695618755Z,0.00,1.47,2.79,2.35,-0.15,-0.29,2.06,2.06,3.24,3.82,3.97,3.97,5.15,2.65,,,,,,,,,,,,,,
1799999995703305150,2027-01-15T07:59:55.703305150Z,-0.59,4.41,1.62,2.94,0.88,0.59,1.47,1.18,2.65,4.41,3.53,4.85,5.00,2.06,,,,,,,,,,,,,,
1799999995710991545,2027-01-15T07:59:55.710991545Z,1.32,2.94,0.44,2.06,0.74,1.76,0.59,1.91,1.91,4.41,3.09,3.24,5.15,2.94,,,,,,,,,,,,,,
1799999995718677941,2027-01-15T07:59:55.718677941Z,2.06,0.29,0.88,0.88,0.88,1.18,-0.29,2.79,1.62,3.97,3.38,2.06,4.71,3.68,,,,,,,,,,,,,,
1799999995726364336,2027-01-15T07:59:55.726364336Z,-1.32,0.59,1.03,0.88,1.91,1.32,0.44,2.50,2.50,3.38,2.21,3.82,4.12,4.26,,,,,,,,,,,,,,
1799999995734050731,2027-01-15T07:59:55.734050731Z,-1.47,0.88,1.47,0.74,1.18,2.21,1.47,2.50,3.09,3.09,1.03,5.59,3.68,4.56,,,,,,,,,,,,,,
1799999995741737126,2027-01-15T07:59:55.741737126Z,-0.88,-0.44,0.29,-0.15,-0.44,2.21,1.91,3.09,2.50,3.97,1.76,4.12,3.09,3.97,,,,,,,,,,,,,,
1799999995749423521,2027-01-15T07:59:55.749423521Z,-1.03,-1.18,-1.18,-0.29,0.00,1.62,1.18,2.65,2.35,4.71,2.79,2.94,2.94,3.82,,,,,,,,,,,,,,
1799999995757109916,2027-01-15T07:59:55.757109916Z,-1.47,-0.15,-1.32,0.59,2.06,1.32,0.00,1.76,2.79,4.26,2.79,4.12,3.24,4.56,,,,,,,,,,,,,,
1799999995764796311,2027-01-15T07:59:55.764796311Z,0.44,1.03,-0.88,1.18,2.94,1.03,-0.29,1.47,3.82,3.09,3.24,6.32,2.79,5.74,,,,,,,,,,,,,,
1799999995772482706,2027-01-15T07:59:55.772482706Z,0.74,1.47,-2.21,1.18,-0.29,1.62,1.03,2.50,5.15,2.50,3.24,6.91,2.35,5.59,,,,,,,,,,,,,,
1799999995780169101,2027-01-15T07:59:55.780169101Z,,0.44,-3.09,1.03,-2.79,2.50,2.65,2.65,5.15,2.65,2.21,4.56,3.38,4.41,,,,,,,,,,,,,,
1799999995787855496,2027-01-15T07:59:55.787855496Z,0.29,-1.32,-1.62,0.44,-0.15,2.21,3.38,1.91,3.68,1.32,2.21,3.68,4.85,5.15,,,,,,,,,,,,,,
1799999995795541891,2027-01-15T07:59:55.795541891Z,0.74,-2.21,-0.15,0.88,2.35,0.88,2.65,2.06,2.65,1.32,4.56,4.26,6.03,6.91,,,,,,,,,,,,,,
1799999995803228286,2027-01-15T07:59:55.803228286Z,1.76,-0.29,0.15,1.91,0.88,0.15,1.47,2.35,3.24,3.38,5.88,3.97,6.03,6.18,,,,,,,,,,,,,,
1799999995810914682,2027-01-15T07:59:55.810914682Z,1.32,-0.15,0.00,0.88,-0.59,0.59,2.65,1.76,3.68,3.82,3.24,4.26,5.00,4.56,,,,,,,,,,,,,,
1799999995818601077,2027-01-15T07:59:55.818601077Z,-0.88,-2.50,-0.88,0.74,0.15,0.44,4.26,1.18,2.65,2.65,1.03,5.59,5.00,5.15,,,,,,,,,,,,,,
1799999995826287472,2027-01-15T07:59:55.826287472Z,3.38,-2.94,-1.32,3.09,1.32,0.29,3.53,1.91,2.50,3.24,2.94,6.47,6.03,6.76,,,,,,,,,,,,,,
1799999995833973867,2027-01-15T07:59:55.833973867Z,0.29,-1.03,-1.47,1.76,1.32,1.32,2.50,4.26,3.68,4.71,5.59,5.44,5.59,6.32,,,,,,,,,,,,,,
1799999995841660262,2027-01-15T07:59:55.841660262Z,-0.29,-1.47,-2.21,-1.03,0.44,1.91,2.94,5.15,3.53,3.97,5.88,4.12,4.12,4.85,,,,,,,,,,,,,,
1799999995849346657,2027-01-15T07:59:55.849346657Z,-1.03,-2.50,-3.09,-1.18,0.59,1.18,3.68,2.50,1.62,2.35,4.12,3.97,3.53,4.41,,,,,,,,,,,,,,
1799999995857033052,2027-01-15T07:59:55.857033052Z,-0.44,-0.59,-3.68,-0.59,1.47,0.59,4.26,0.74,0.00,2.79,2.21,4.85,4.26,4.71,,,,,,,,,,,,,,
1799999995864719447,2027-01-15T07:59:55.864719447Z,0.88,0.74,-3.38,-0.59,1.03,0.44,3.82,1.62,0.00,4.41,1.32,5.00,4.56,4.56,,,,,,,,,,,,,,
1799999995872405842,2027-01-15T07:59:55.872405842Z,0.15,-0.44,-1.76,0.15,0.15,0.15,2.21,2.35,0.88,4.41,2.79,4.41,4.12,4.41,,,,,,,,,,,,,,
1799999995880092237,2027-01-15T07:59:55.880092237Z,-2.65,0.88,-0.15,0.59,-0.29,1.47,0.44,1.91,1.76,4.12,4.71,4.71,3.24,3.53,,,,,,,,,,,,,,
1799999995887778632,2027-01-15T07:59:55.887778632Z,0.00,2.21,0.88,1.18,-1.47,3.53,0.74,2.79,2.50,6.18,5.15,4.56,2.50,1.62,,,,,,,,,,,,,,
1799999995895465027,2027-01-15T07:59:55.895465027Z,0.15,0.00,0.74,2.21,-1.47,4.26,0.74,3.09,3.24,6.47,6.18,3.82,3.53,2.06,,,,,,,,,,,,,,
1799999995903151422,2027-01-15T07:59:55.903151422Z,0.29,-1.03,-0.88,0.88,0.74,3.09,-0.44,2.06,4.12,3.53,7.35,4.26,5.74,5.59,,,,,,,,,,,,,,
1799999995910837818,2027-01-15T07:59:55.910837818Z,-0.15,0.88,-1.76,-1.76,2.35,2.35,0.29,2.65,4.26,2.94,5.44,4.26,7.50,6.47,,,,,,,,,,,,,,
1799999995918524213,2027-01-15T07:59:55.918524213Z,0.44,0.15,-0.59,-0.74,1.62,1.76,2.06,3.68,3.09,4.56,2.65,2.79,8.38,3.97,,,,,,,,,,,,,,
1799999995926210608,2027-01-15T07:59:55.926210608Z,0.00,-2.50,-0.29,1.47,1.18,0.00,2.06,2.35,1.91,3.38,2.21,3.09,7.35,3.53,,,,,,,,,,,,,,
1799999995933897003,2027-01-15T07:59:55.933897003Z,-4.26,-2.21,-1.03,1.91,1.62,-1.32,1.03,0.59,1.03,2.06,2.79,4.85,5.44,5.29,,,,,,,,,,,,,,
1799999995941583398,2027-01-15T07:59:55.941583398Z,0.74,-0.15,-0.44,2.50,0.44,-0.29,-0.15,1.47,1.47,3.38,2.35,4.71,4.26,5.88,,,,,,,,,,,,,,
1799999995949269793,2027-01-15T07:59:55.949269793Z,0.29,-1.18,0.29,2.94,0.00,0.59,0.29,2.06,3.38,4.26,3.53,3.53,5.29,5.29,,,,,,,,,,,,,,
1799999995956956188,2027-01-15T07:59:55.956956188Z,0.44,-1.62,0.00,2.35,1.91,-0.15,2.65,0.15,3.53,3.09,5.29,2.65,4.41,5.44,,,,,,,,,,,,,,
1799999995964642583,2027-01-15T07:59:55.964642583Z,0.29,0.59,0.15,1.32,1.03,0.29,4.12,0.74,1.91,1.62,5.29,2.21,2.06,5.29,,,,,,,,,,,,,,
1799999995972328978,2027-01-15T07:59:55.972328978Z,0.15,0.00,-0.44,0.00,-2.06,2.21,4.12,4.41,2.21,1.76,4.56,3.24,2.65,4.56,,,,,,,,,,,,,,
1799999995980015373,2027-01-15T07:59:55.980015373Z,-4.26,-2.65,-1.62,-0.88,-1.32,3.09,4.85,5.74,2.65,3.24,4.85,4.71,5.29,3.82,,,,,,,,,,,,,,
1799999995987701768,2027-01-15T07:59:55.987701768Z,-2.35,-2.94,-1.62,0.00,1.76,2.50,4.85,4.12,2.94,3.82,4.12,4.26,6.47,2.94,,,,,,,,,,,,,,
1799999995995388163,2027-01-15T07:59:55.995388163Z,1.32,-0.74,-0.74,1.32,1.18,1.03,4.12,2.79,3.97,3.09,2.94,3.53,5.88,3.09,,,,,,,,,,,,,,
1799999996003074559,2027-01-15T07:59:56.003074559Z,0.88,-0.15,-1.32,0.44,-1.03,0.15,3.24,1.91,3.53,2.65,2.94,4.12,5.44,4.56,,,,,,,,,,,,,,
1799999996010760954,2027-01-15T07:59:56.010760954Z,-2.94,-1.62,-1.62,-1.47,-0.44,1.91,2.06,1.76,1.91,2.50,3.68,3.97,5.59,4.85,,,,,,,,,,,,,,
1799999996018447349,2027-01-15T07:59:56.018447349Z,0.15,-0.88,-1.18,-0.44,1.03,3.97,1.47,1.91,2.50,3.68,4.41,3.82,5.00,3.97,,,,,,,,,,,,,,
1799999996026133744,2027-01-15T07:59:56.026133744Z,-0.29,-0.88,-0.44,0.59,1.32,3.24,2.35,3.09,3.82,5.00,5.44,4.56,4.12,5.00,,,,,,,,,,,,,,
1799999996033820139,2027-01-15T07:59:56.033820139Z,-0.44,-2.50,0.44,-1.03,1.18,1.62,2.50,4.56,3.24,4.41,6.47,4.26,3.82,6.32,,,,,,,,,,,,,,
1799999996041506534,2027-01-15T07:59:56.041506534Z,-2.50,-1.47,0.74,-1.62,1.47,2.06,2.50,3.68,2.79,3.97,5.44,3.68,3.97,5.44,,,,,,,,,,,,,,
1799999996049192929,2027-01-15T07:59:56.049192929Z,-2.94,0.44,0.44,1.32,1.18,3.24,2.94,1.91,2.79,4.12,2.50,3.38,3.38,4.56,,,,,,,,,,,,,,
1799999996056879324,2027-01-15T07:59:56.056879324Z,-0.74,0.59,0.15,3.24,1.32,2.65,3.09,1.32,2.50,3.68,0.59,2.79,3.53,6.03,,,,,,,,,,,,,,
1799999996064565719,2027-01-15T07:59:56.064565719Z,-0.29,0.00,-1.03,0.59,1.91,1.91,2.79,1.91,3.53,5.29,2.50,3.68,5.59,6.32,,,,,,,,,,,,,,
1799999996072252114,2027-01-15T07:59:56.072252114Z,0.15,0.88,-0.59,-1.76,1.76,1.03,1.47,2.94,3.68,5.59,5.74,5.88,6.32,4.71,,,,,,,,,,,,,,
1799999996079938509,2027-01-15T07:59:56.079938509Z,0.59,1.47,2.06,-0.44,2.21,0.15,0.29,3.38,1.62,2.65,6.18,6.76,3.68,3.82,,,,,,,,,,,,,,
1799999996087624904,2027-01-15T07:59:56.087624904Z,0.74,-0.29,2.06,0.00,2.21,0.88,0.88,2.35,-0.15,2.50,3.38,5.88,2.21,5.00,,,,,,,,,,,,,,
1799999996095311300,2027-01-15T07:59:56.095311300Z,0.15,-1.03,0.00,-2.06,1.18,3.09,1.18,2.21,0.59,3.68,2.50,4.71,4.12,6.03,,,,,,,,,,,,,,
1799999996102997695,2027-01-15T07:59:56.102997695Z,-0.15,0.59,0.29,-1.03,0.74,3.38,0.74,4.41,1.76,1.47,4.26,3.82,6.18,5.74,,,,,,,,,,,,,,
1799999996110684090,2027-01-15T07:59:56.110684090Z,-0.15,1.03,1.76,1.32,1.03,1.32,1.47,5.44,2.94,0.15,3.68,4.12,6.91,5.59,,,,,,,,,,,,,,
1799999996118370485,2027-01-15T07:59:56.118370485Z,-0.59,-0.74,1.32,0.29,0.44,0.59,1.47,2.65,4.56,3.24,1.32,3.53,6.76,5.74,,,,,,,,,,,,,,
1799999996126056880,2027-01-15T07:59:56.126056880Z,-1.47,-1.91,0.29,-0.59,0.44,1.91,1.03,0.44,4.12,5.29,1.91,3.68,6.32,4.85,,,,,,,,,,,,,,
1799999996133743275,2027-01-15T07:59:56.133743275Z,-0.88,-0.74,0.29,1.76,0.88,2.21,1.32,0.59,2.21,3.82,4.71,4.85,6.62,4.12,,,,,,,,,,,,,,
1799999996141429670,2027-01-15T07:59:56.141429670Z,-1.03,-1.03,1.18,2.21,0.59,0.74,1.76,1.47,1.47,1.91,5.15,5.00,6.47,5.00,,,,,,,,,,,,,,
1799999996149116065,2027-01-15T07:59:56.149116065Z,-1.62,-2.21,1.91,-0.44,1.47,-0.15,1.32,2.65,1.18,2.94,3.53,4.56,4.26,6.03,,,,,,,,,,,,,,
1799999996156802460,2027-01-15T07:59:56.156802460Z,-2.06,-1.03,1.47,-0.44,2.06,0.29,0.59,3.38,0.59,6.03,3.38,5.29,2.94,6.32,,,,,,,,,,,,,,
1799999996164488855,2027-01-15T07:59:56.164488855Z,-1.47,0.00,0.15,1.18,1.18,0.74,0.88,3.24,1.76,7.94,4.85,4.41,4.56,6.76,,,,,,,,,,,,,,
1799999996172175250,2027-01-15T07:59:56.172175250Z,-1.03,0.44,-0.88,0.44,0.59,0.59,1.76,3.82,2.65,6.62,5.44,3.53,5.59,5.59,,,,,,,,,,,,,,
1799999996179861645,2027-01-15T07:59:56.179861645Z,1.62,1.76,0.29,-0.88,1.32,0.15,2.50,3.09,0.44,5.00,4.71,4.12,4.26,3.97,,,,,,,,,,,,,,
1799999996187548040,2027-01-15T07:59:56.187548040Z,0.29,2.50,0.44,-0.74,1.47,1.47,2.94,1.76,0.00,4.41,4.71,3.53,3.97,4.56,,,,,,,,,,,,,,
1799999996195234436,2027-01-15T07:59:56.195234436Z,0.00,1.91,-1.32,0.29,0.00,2.50,3.09,1.62,2.35,2.65,4.56,2.94,5.15,5.74,,,,,,,,,,,,,,
1799999996202920831,2027-01-15T07:59:56.202920831Z,0.74,0.59,-0.74,0.74,-1.47,1.62,3.38,1.18,3.53,1.32,3.82,3.68,4.56,6.47,,,,,,,,,,,,,,
1799999996210607226,2027-01-15T07:59:56.210607226Z,-1.76,-0.29,1.62,1.32,0.00,1.47,3.68,0.88,3.09,2.50,3.53,3.53,3.38,7.94,,,,,,,,,,,,,,
1799999996218293621,2027-01-15T07:59:56.218293621Z,-1.91,0.44,2.50,2.21,2.35,2.79,2.65,2.21,3.24,2.94,3.53,2.79,3.53,8.53,,,,,,,,,,,,,,
1799999996225980016,2027-01-15T07:59:56.225980016Z,-1.76,0.59,2.50,2.94,2.06,2.21,1.91,2.65,2.50,1.62,3.53,2.79,3.24,6.62,,,,,,,,,,,,,,
1799999996233666411,2027-01-15T07:59:56.233666411Z,0.15,0.29,4.12,2.94,1.47,1.03,2.50,1.76,1.18,2.06,5.00,3.38,3.53,4.71,,,,,,,,,,,,,,
1799999996241352806,2027-01-15T07:59:56.241352806Z,0.59,-0.74,3.09,1.62,2.35,1.18,2.65,2.35,0.74,4.12,5.00,3.82,4.71,4.12,,,,,,,,,,,,,,
1799999996249039201,2027-01-15T07:59:56.249039201Z,2.65,-1.91,0.44,0.29,1.91,0.59,1.91,2.94,1.62,5.74,2.35,3.82,5.44,4.26,,,,,,,,,,,,,,
1799999996256725596,2027-01-15T07:59:56.256725596Z,3.97,-2.35,-1.32,0.15,0.44,-0.59,1.62,2.50,2.35,6.47,-0.29,3.82,4.85,4.26,,,,,,,,,,,,,,
1799999996264411991,2027-01-15T07:59:56.264411991Z,3.68,-1.47,-1.32,0.88,-0.29,-0.88,1.62,1.76,2.50,5.29,-0.59,3.82,3.38,3.38,,,,,,,,,,,,,,
1799999996272098386,2027-01-15T07:59:56.272098386Z,-1.62,-0.59,-0.44,0.74,1.03,0.59,0.74,2.50,1.91,2.94,2.35,4.26,2.21,3.24,,,,,,,,,,,,,,
1799999996279784781,2027-01-15T07:59:56.279784781Z,-1.91,-0.15,-0.15,0.59,1.18,1.18,-0.88,2.79,1.91,1.91,4.85,3.97,3.38,4.56,,,,,,,,,,,,,,
1799999996287471177,2027-01-15T07:59:56.287471177Z,0.74,0.59,0.59,2.79,-0.15,0.15,-0.29,2.35,3.38,3.38,5.44,3.38,5.44,5.29,,,,,,,,,,,,,,
1799999996295157572,2027-01-15T07:59:56.295157572Z,1.03,0.00,1.03,3.09,-0.74,-0.15,1.18,3.82,2.94,4.71,5.44,3.68,6.32,5.44,,,,,,,,,,,,,,
1799999996302843967,2027-01-15T07:59:56.302843967Z,0.74,-0.74,0.29,0.00,-0.44,0.74,0.59,4.71,0.88,5.59,4.85,4.12,5.59,7.06,,,,,,,,,,,,,,
1799999996310530362,2027-01-15T07:59:56.310530362Z,-1.03,0.00,-0.59,-1.62,0.00,1.76,0.00,3.82,1.62,4.12,3.82,3.24,4.71,7.21,,,,,,,,,,,,,,
1799999996318216757,2027-01-15T07:59:56.318216757Z,-1.62,-0.29,0.15,0.15,0.00,1.76,0.44,2.06,5.15,1.62,3.09,2.94,3.97,5.29,,,,,,,,,,,,,,
1799999996325903152,2027-01-15T07:59:56.325903152Z,-0.59,-0.88,2.06,1.18,-0.44,0.88,0.00,1.03,6.47,0.59,3.09,4.26,4.71,5.44,,,,,,,,,,,,,,
1799999996333589547,2027-01-15T07:59:56.333589547Z,-0.29,0.44,2.06,-0.44,0.15,1.62,-1.32,1.62,3.24,1.47,3.97,5.15,5.59,6.47,,,,,,,,,,,,,,
1799999996341275942,2027-01-15T07:59:56.341275942Z,0.44,2.06,1.32,-0.59,1.47,2.65,-3.09,1.91,0.15,1.91,4.71,4.71,5.00,4.85,,,,,,,,,,,,,,
1799999996348962337,2027-01-15T07:59:56.348962337Z,-0.29,2.06,1.91,0.59,1.91,1.91,-3.53,1.18,1.62,2.06,3.68,4.85,4.71,3.24,,,,,,,,,,,,,,
1799999996356648732,2027-01-15T07:59:56.356648732Z,-2.35,1.03,1.32,0.00,0.74,0.88,-1.47,1.03,4.12,2.06,2.65,5.15,5.59,3.82,,,,,,,,,,,,,,
1799999996364335127,2027-01-15T07:59:56.364335127Z,-0.88,-0.44,-0.74,-0.88,-0.59,1.47,0.74,2.65,3.09,2.35,3.24,4.12,5.44,3.97,,,,,,,,,,,,,,
1799999996372021522,2027-01-15T07:59:56.372021522Z,-1.62,-1.62,-1.62,-0.59,-1.62,1.91,1.91,3.53,1.62,2.94,3.24,4.41,3.82,4.12,,,,,,,,,,,,,,
1799999996379707917,2027-01-15T07:59:56.379707917Z,-3.82,-0.29,-1.76,0.15,-1.03,0.88,2.65,1.76,2.79,3.38,2.06,6.62,2.94,5.44,,,,,,,,,,,,,,
1799999996387394313,2027-01-15T07:59:56.387394313Z,-1.18,1.76,-2.79,0.15,1.18,0.74,3.53,0.59,3.97,4.12,2.79,7.21,4.56,6.47,,,,,,,,,,,,,,
1799999996395080708,2027-01-15T07:59:56.395080708Z,-1.18,1.03,-1.62,0.44,2.21,1.03,2.06,1.47,2.79,3.68,3.53,5.29,5.44,5.88,,,,,,,,,,,,,,
1799999996402767103,2027-01-15T07:59:56.402767103Z,-1.47,-0.29,0.44,0.29,1.32,0.59,-0.44,2.50,1.62,1.76,1.91,4.41,4.26,5.00,,,,,,,,,,,,,,
1799999996410453498,2027-01-15T07:59:56.410453498Z,-3.38,0.15,-0.15,-0.59,1.91,1.62,-1.62,2.21,2.79,1.62,2.35,4.85,3.24,4.12,,,,,,,,,,,,,,
1799999996418139893,2027-01-15T07:59:56.418139893Z,-1.62,1.03,-1.76,0.00,2.65,3.53,-0.29,1.91,2.79,3.97,5.15,4.71,4.12,4.56,,,,,,,,,,,,,,
1799999996425826288,2027-01-15T07:59:56.425826288Z,-1.18,0.59,-1.76,0.29,1.91,3.82,1.03,2.21,2.35,3.97,5.59,4.26,5.44,5.44,,,,,,,,,,,,,,
1799999996433512683,2027-01-15T07:59:56.433512683Z,-2.06,-0.74,-0.88,-1.47,1.18,2.65,1.62,3.09,4.71,1.91,3.82,4.56,5.00,5.29,,,,,,,,,,,,,,
1799999996441199078,2027-01-15T07:59:56.441199078Z,-0.15,-1.32,-1.18,-0.74,0.74,1.91,1.18,3.97,5.00,2.21,4.56,5.00,3.68,6.18,,,,,,,,,,,,,,
1799999996448885473,2027-01-15T07:59:56.448885473Z,0.29,-0.59,-2.50,2.06,0.74,2.21,0.88,4.26,1.47,4.26,4.41,3.97,4.26,6.32,,,,,,,,,,,,,,
1799999996456571868,2027-01-15T07:59:56.456571868Z,0.29,-0.15,-2.06,1.76,0.44,2.50,1.03,3.68,-0.15,3.53,0.59,2.50,5.15,4.56,,,,,,,,,,,,,,
1799999996464258263,2027-01-15T07:59:56.464258263Z,-0.88,-0.74,0.29,0.00,0.15,2.35,1.76,2.50,2.06,1.47,-0.29,4.12,3.97,3.24,,,,,,,,,,,,,,
1799999996471944658,2027-01-15T07:59:56.471944658Z,-2.06,-1.18,0.44,-0.74,0.88,2.94,2.65,1.62,3.68,1.91,3.97,5.74,3.09,3.82,,,,,,,,,,,,,,
1799999996479631054,2027-01-15T07:59:56.479631054Z,1.18,-1.32,-1.91,0.00,0.74,3.24,1.47,1.32,3.97,3.38,5.59,3.53,4.56,3.24,,,,,,,,,,,,,,
1799999996487317449,2027-01-15T07:59:56.487317449Z,0.00,-2.79,-1.91,0.00,0.00,1.91,-0.15,2.35,2.94,3.68,3.97,1.91,4.71,3.09,,,,,,,,,,,,,,
1799999996495003844,2027-01-15T07:59:56.495003844Z,-0.29,-3.09,0.29,-1.18,1.03,1.18,0.74,2.21,2.35,3.53,5.15,4.12,3.53,5.29,,,,,,,,,,,,,,
1799999996502690239,2027-01-15T07:59:56.502690239Z,0.15,-1.32,1.91,-1.32,1.03,1.62,3.24,1.03,3.82,2.50,6.62,5.59,3.68,7.21,,,,,,,,,,,,,,
1799999996510376634,2027-01-15T07:59:56.510376634Z,-0.15,-0.15,1.62,0.59,-0.88,0.88,3.97,2.35,5.29,0.44,5.59,5.00,4.85,6.47,,,,,,,,,,,,,,
1799999996518063029,2027-01-15T07:59:56.518063029Z,-2.21,0.44,0.00,1.18,-0.29,0.44,2.35,4.26,4.56,0.29,5.74,4.26,5.44,5.29,,,,,,,,,,,,,,
1799999996525749424,2027-01-15T07:59:56.525749424Z,-1.32,0.00,-1.32,-1.03,0.88,1.32,1.03,3.97,3.53,2.35,6.76,3.53,5.00,4.85,,,,,,,,,,,,,,
1799999996533435819,2027-01-15T07:59:56.533435819Z,0.59,0.00,-0.59,-1.62,0.15,1.91,2.50,2.79,3.24,3.68,5.44,3.09,4.41,5.29,,,,,,,,,,,,,,
1799999996541122214,2027-01-15T07:59:56.541122214Z,-0.44,0.59,1.03,-0.29,0.29,1.62,4.41,1.91,2.21,4.26,2.94,3.38,5.00,4.26,,,,,,,,,,,,,,
1799999996548808609,2027-01-15T07:59:56.548808609Z,-0.74,-1.03,0.88,-0.88,1.18,2.50,3.38,2.35,1.32,4.71,2.50,4.26,4.56,2.06,,,,,,,,,,,,,,
1799999996556495004,2027-01-15T07:59:56.556495004Z,-0.74,-2.35,-0.59,-1.47,0.59,2.94,1.18,2.65,1.32,3.38,4.56,4.71,2.35,2.50,,,,,,,,,,,,,,
1799999996564181399,2027-01-15T07:59:56.564181399Z,-0.44,-1.18,-1.47,-0.88,0.44,1.47,0.88,2.94,2.06,2.21,4.85,4.41,2.06,5.00,,,,,,,,,,,,,,
1799999996571867795,2027-01-15T07:59:56.571867795Z,0.00,-0.59,-0.44,-0.59,0.59,0.74,2.21,3.38,2.94,2.94,2.06,4.41,3.53,6.47,,,,,,,,,,,,,,
1799999996579554190,2027-01-15T07:59:56.579554190Z,-2.50,-1.32,1.18,0.00,-0.29,1.32,2.06,2.35,3.24,2.65,0.88,4.26,3.09,5.74,,,,,,,,,,,,,,
1799999996587240585,2027-01-15T07:59:56.587240585Z,-1.32,-1.62,0.59,0.00,-0.15,0.74,0.74,0.88,3.09,1.18,2.50,3.38,2.79,4.26,,,,,,,,,,,,,,
1799999996594926980,2027-01-15T07:59:56.594926980Z,-1.32,-0.44,0.00,-0.59,0.44,0.29,1.18,0.00,3.68,1.76,3.53,2.94,3.68,4.41,,,,,,,,,,,,,,
1799999996602613375,2027-01-15T07:59:56.602613375Z,-1.18,-1.18,0.74,-1.03,0.44,1.91,2.06,-0.44,4.56,2.50,2.94,3.82,4.12,5.74,,,,,,,,,,,,,,
1799999996610299770,2027-01-15T07:59:56.610299770Z,-2.94,-2.21,0.00,-1.47,0.88,2.65,1.32,0.44,4.41,1.62,2.79,4.85,4.71,4.12,,,,,,,,,,,,,,
1799999996617986165,2027-01-15T07:59:56.617986165Z,-1.91,-0.59,-1.03,-0.59,0.74,1.62,0.74,0.59,3.53,3.38,2.79,4.41,5.15,1.91,,,,,,,,,,,,,,
1799999996625672560,2027-01-15T07:59:56.625672560Z,-1.91,0.00,-1.32,0.88,1.03,2.06,1.03,-0.88,3.68,5.29,3.09,3.97,4.41,3.53,,,,,,,,,,,,,,
1799999996633358955,2027-01-15T07:59:56.633358955Z,-2.21,-0.59,-0.88,1.18,2.06,2.21,1.76,-0.88,3.38,3.53,3.97,4.41,4.71,5.59,,,,,,,,,,,,,,
1799999996641045350,2027-01-15T07:59:56.641045350Z,-1.91,0.59,-0.29,0.29,0.29,1.18,2.94,1.18,1.32,1.76,4.26,4.41,5.59,4.26,,,,,,,,,,,,,,
1799999996648731745,2027-01-15T07:59:56.648731745Z,-1.32,1.32,-0.44,0.59,-1.32,1.03,3.09,2.50,0.44,3.82,5.00,3.68,4.85,2.79,,,,,,,,,,,,,,
1799999996656418140,2027-01-15T07:59:56.656418140Z,0.44,1.03,-0.74,0.59,1.18,0.74,1.62,2.06,3.09,4.56,6.32,3.24,3.97,3.82,,,,,,,,,,,,,,
1799999996664104535,2027-01-15T07:59:56.664104535Z,0.29,0.44,-1.18,-0.74,3.68,0.00,2.94,2.35,4.71,1.91,6.03,2.65,4.41,5.44,,,,,,,,,,,,,,
1799999996671790931,2027-01-15T07:59:56.671790931Z,0.29,-0.44,-0.88,-0.44,2.50,1.32,4.41,2.50,3.24,1.76,4.85,2.79,5.15,5.88,,,,,,,,,,,,,,
1799999996679477326,2027-01-15T07:59:56.679477326Z,0.29,-0.74,0.15,1.47,0.88,2.35,2.35,1.91,2.65,3.68,4.26,3.97,5.29,5.29,,,,,,,,,,,,,,
1799999996687163721,2027-01-15T07:59:56.687163721Z,0.00,-0.29,0.00,2.06,1.18,0.88,2.06,1.76,4.26,3.68,4.12,3.97,4.41,5.15,,,,,,,,,,,,,,
1799999996694850116,2027-01-15T07:59:56.694850116Z,-1.47,-0.29,0.00,1.47,1.18,0.00,3.97,1.76,3.97,3.24,3.53,3.97,4.26,6.03,,,,,,,,,,,,,,
