# spacing_uv=20.0
timestamp_ns,timestamp_iso,AF3,F7,F3,FC5,T7,P7,O1,O2,P8,T8,FC6,F4,F8,AF4,AF3_q,F7_q,F3_q,FC5_q,T7_q,P7_q,O1_q,O2_q,P8_q,T8_q,FC6_q,F4_q,F8_q,AF4_q
1799999990000000000,2027-01-15T07:59:50.000000000Z,,,,,,,,,,,,,,,,,,,,,,,,,,,,
1799999990007401925,2027-01-15T07:59:50.007401925Z,-0.85,,-1.70,,,0.00,2.98,1.70,,,,,,,,,,,,,,,,,,,,
1799999990014803850,2027-01-15T07:59:50.014803850Z,-1.06,-2.34,-0.43,2.34,0.21,0.85,4.04,2.34,2.34,6.17,5.11,7.45,6.81,6.17,,,,,,,,,,,,,,
1799999990022205774,2027-01-15T07:59:50.022205774Z,-3.62,-2.13,0.43,1.70,0.21,1.91,4.68,3.40,3.62,5.11,5.32,6.38,7.02,6.38,,,,,,,,,,,,,,
1799999990029607699,2027-01-15T07:59:50.029607699Z,-4.04,-1.70,-0.85,0.85,0.43,2.77,3.62,3.83,4.47,5.32,5.96,5.32,5.53,7.23,,,,,,,,,,,,,,
1799999990037009623,2027-01-15T07:59:50.037009623Z,-3.40,-1.70,-0.85,1.06,0.85,1.49,2.98,4.26,4.04,6.17,6.17,4.89,3.62,8.30,,,,,,,,,,,,,,
1799999990044411548,2027-01-15T07:59:50.044411548Z,-3.40,-1.49,0.00,2.13,1.49,0.00,3.62,4.04,3.83,4.68,7.87,5.53,4.47,9.36,,,,,,,,,,,,,,
1799999990051813472,2027-01-15T07:59:50.051813472Z,-2.13,-0.64,-1.28,2.77,2.34,0.43,3.62,2.55,4.26,2.98,8.30,6.38,5.96,10.00,,,,,,,,,,,,,,
1799999990059215397,2027-01-15T07:59:50.059215397Z,-1.91,0.00,-2.13,2.13,2.77,1.70,2.77,2.13,4.68,1.91,6.81,5.96,5.11,9.36,,,,,,,,,,,,,,
1799999990066617321,2027-01-15T07:59:50.066617321Z,-1.70,0.43,-0.64,1.49,1.49,1.49,1.49,3.19,4.89,2.34,6.38,4.89,4.26,8.30,,,,,,,,,,,,,,
1799999990074019246,2027-01-15T07:59:50.074019246Z,-2.13,0.85,0.43,1.28,0.21,0.85,1.28,4.04,4.89,3.83,6.81,5.11,5.32,7.23,,,,,,,,,,,,,,
1799999990081421170,2027-01-15T07:59:50.081421170Z,-3.62,1.06,0.43,0.85,0.00,1.06,2.13,4.47,4.89,5.11,6.81,6.17,6.60,6.17,,,,,,,,,,,,,,
1799999990088823095,2027-01-15T07:59:50.088823095Z,-2.77,1.70,0.00,0.21,0.85,1.49,3.19,4.89,4.47,6.17,6.38,7.66,7.02,5.53,,,,,,,,,,,,,,
1799999990096225019,2027-01-15T07:59:50.096225019Z,-0.64,0.64,0.00,0.21,1.70,1.28,2.55,4.89,3.62,5.53,6.38,7.23,6.17,5.96,,,,,,,,,,,,,,
1799999990103626944,2027-01-15T07:59:50.103626944Z,-0.43,-1.70,-0.85,0.21,0.43,0.64,2.77,3.83,2.34,5.32,5.74,5.32,6.38,7.45,,,,,,,,,,,,,,
1799999990111028868,2027-01-15T07:59:50.111028868Z,-1.49,-2.13,-0.64,-0.85,0.21,1.06,4.26,3.19,1.70,6.17,4.47,5.11,6.81,8.09,,,,,,,,,,,,,,
1799999990118430793,2027-01-15T07:59:50.118430793Z,-1.28,-1.49,1.06,-1.70,2.34,1.91,4.26,4.26,2.34,7.02,4.68,6.60,7.02,6.60,,,,,,,,,,,,,,
1799999990125832717,2027-01-15T07:59:50.125832717Z,-1.28,-1.06,0.64,-0.21,2.98,2.55,2.98,3.19,3.19,7.02,5.74,7.02,8.51,5.53,,,,,,,,,,,,,,
1799999990133234642,2027-01-15T07:59:50.133234642Z,0.43,0.85,0.21,1.49,1.70,2.13,2.77,0.21,3.83,5.96,5.11,6.81,9.36,6.38,,,,,,,,,,,,,,
1799999990140636566,2027-01-15T07:59:50.140636566Z,-0.21,0.64,1.49,1.28,1.91,1.49,3.19,1.70,3.19,4.68,4.68,7.23,7.23,7.02,,,,,,,,,,,,,,
1799999990148038491,2027-01-15T07:59:50.148038491Z,-2.98,-1.28,1.06,-0.21,2.77,1.91,2.98,5.11,2.13,4.68,6.38,7.23,5.74,7.45,,,,,,,,,,,,,,
1799999990155440415,2027-01-15T07:59:50.155440415Z,-3.62,-1.91,-0.43,-1.49,1.91,2.34,4.04,4.47,2.77,5.53,7.23,6.38,6.60,8.72,,,,,,,,,,,,,,
1799999990162842340,2027-01-15T07:59:50.162842340Z,-2.55,-2.98,-0.43,-1.91,1.06,2.34,5.11,2.55,4.26,5.11,5.32,5.11,7.23,8.09,,,,,,,,,,,,,,
1799999990170244264,2027-01-15T07:59:50.170244264Z,1.06,-2.55,1.06,-1.49,1.49,2.13,4.26,2.13,3.19,4.89,3.40,4.47,6.81,6.81,,,,,,,,,,,,,,
1799999990177646189,2027-01-15T07:59:50.177646189Z,1.06,-0.64,0.00,-1.91,1.91,1.49,2.77,1.91,2.34,5.96,4.26,4.89,6.38,8.09,,,,,,,,,,,,,,
1799999990185048113,2027-01-15T07:59:50.185048113Z,-2.34,0.64,-2.34,-1.06,1.49,2.13,3.19,2.13,4.26,5.96,6.38,5.32,5.74,8.94,,,,,,,,,,,,,,
1799999990192450038,2027-01-15T07:59:50.192450038Z,-1.06,-0.21,-2.98,0.21,0.64,3.83,2.77,3.62,5.32,4.68,7.23,5.11,5.96,6.60,,,,,,,,,,,,,,
1799999990199851962,2027-01-15T07:59:50.199851962Z,-0.21,-1.06,-2.55,-0.21,0.00,3.62,1.28,4.47,4.47,4.47,5.96,4.89,7.02,5.32,,,,,,,,,,,,,,
1799999990207253887,2027-01-15T07:59:50.207253887Z,0.43,0.00,-1.91,-0.43,-0.21,0.64,0.21,3.83,3.83,5.53,6.17,5.11,7.02,7.23,,,,,,,,,,,,,,
1799999990214655811,2027-01-15T07:59:50.214655811Z,0.43,0.21,-1.49,0.21,-0.85,-1.06,0.64,3.62,4.47,6.60,7.02,5.74,6.60,7.66,,,,,,,,,,,,,,
1799999990222057736,2027-01-15T07:59:50.222057736Z,0.21,-1.06,-1.49,0.21,-1.28,0.43,1.06,4.26,5.32,7.23,7.02,6.60,6.60,6.38,,,,,,,,,,,,,,
1799999990229459660,2027-01-15T07:59:50.229459660Z,-1.28,-1.91,-0.21,-0.21,-0.43,2.34,0.85,2.98,4.68,6.81,4.89,6.60,7.23,5.53,,,,,,,,,,,,,,
1799999990236861585,2027-01-15T07:59:50.236861585Z,-0.85,-0.43,1.06,0.21,0.85,2.77,-0.21,0.43,3.62,5.53,2.55,5.53,7.45,7.23,,,,,,,,,,,,,,
1799999990244263509,2027-01-15T07:59:50.244263509Z,-0.21,0.00,0.21,1.06,1.28,1.06,0.21,1.70,4.26,4.04,3.40,4.89,6.81,8.72,,,,,,,,,,,,,,
1799999990251665434,2027-01-15T07:59:50.251665434Z,-0.43,-0.43,-1.28,0.85,1.06,1.28,1.91,4.47,4.26,4.47,5.96,5.53,7.23,8.09,,,,,,,,,,,,,,
1799999990259067358,2027-01-15T07:59:50.259067358Z,-1.28,0.64,-2.34,0.64,2.55,2.55,3.40,4.26,3.19,6.17,5.74,5.32,7.87,7.66,,,,,,,,,,,,,,
1799999990266469283,2027-01-15T07:59:50.266469283Z,-0.21,0.85,-2.55,1.49,3.40,2.13,4.47,3.40,3.40,6.38,3.40,5.74,6.81,7.45,,,,,,,,,,,,,,
1799999990273871207,2027-01-15T07:59:50.273871207Z,-0.64,-0.21,-1.70,1.28,2.77,1.70,4.26,4.04,4.47,5.32,3.19,7.02,5.32,6.60,,,,,,,,,,,,,,
1799999990281273132,2027-01-15T07:59:50.281273132Z,-0.85,-1.06,-0.43,0.00,2.98,2.77,2.98,3.40,4.89,5.96,4.68,7.66,5.11,6.81,,,,,,,,,,,,,,
1799999990288675056,2027-01-15T07:59:50.288675056Z,0.85,-0.64,0.64,0.85,2.55,2.34,2.13,3.19,4.47,6.17,4.47,7.45,5.96,8.51,,,,,,,,,,,,,,
1799999990296076981,2027-01-15T07:59:50.296076981Z,1.49,0.21,0.64,1.70,1.06,0.64,2.13,4.68,4.26,3.83,4.04,7.02,5.53,8.94,,,,,,,,,,,,,,
1799999990303478905,2027-01-15T07:59:50.303478905Z,-0.85,-0.64,-0.43,-0.85,0.43,0.00,2.77,4.68,4.04,2.55,4.89,6.17,5.32,7.02,,,,,,,,,,,,,,
1799999990310880830,2027-01-15T07:59:50.310880830Z,0.64,-0.85,-1.06,-0.64,1.28,1.28,3.62,3.83,4.47,3.62,6.17,5.96,6.38,5.11,,,,,,,,,,,,,,
1799999990318282754,2027-01-15T07:59:50.318282754Z,0.43,0.43,-1.91,2.98,1.91,2.55,4.47,4.89,5.32,3.83,5.96,6.38,7.87,5.32,,,,,,,,,,,,,,
1799999990325684679,2027-01-15T07:59:50.325684679Z,0.43,0.21,-1.70,2.98,2.34,3.40,3.40,5.74,6.17,3.19,4.68,6.38,8.72,6.38,,,,,,,,,,,,,,
1799999990333086603,2027-01-15T07:59:50.333086603Z,-0.64,-1.06,-0.43,0.43,1.49,2.13,3.40,4.26,6.17,3.40,4.68,5.96,8.30,6.60,,,,,,,,,,,,,,
1799999990340488528,2027-01-15T07:59:50.340488528Z,0.21,-1.28,-0.43,1.06,0.00,0.43,4.89,2.34,4.89,3.62,5.96,6.17,7.66,6.17,,,,,,,,,,,,,,
1799999990347890452,2027-01-15T07:59:50.347890452Z,0.64,-0.21,-1.49,2.13,1.06,0.85,4.26,1.49,3.19,4.47,5.32,7.02,7.23,5.96,,,,,,,,,,,,,,
1799999990355292377,2027-01-15T07:59:50.355292377Z,1.70,0.43,-0.64,1.06,2.77,2.34,2.77,2.55,2.34,5.74,4.04,7.23,6.81,5.96,,,,,,,,,,,,,,
1799999990362694301,2027-01-15T07:59:50.362694301Z,-0.64,0.43,0.64,0.43,2.98,3.40,2.13,3.83,2.34,6.81,3.83,7.02,6.81,5.96,,,,,,,,,,,,,,
1799999990370096226,2027-01-15T07:59:50.370096226Z,-1.28,1.70,1.49,1.28,2.13,4.68,1.28,3.62,1.70,5.96,4.26,6.38,6.60,6.17,,,,,,,,,,,,,,
1799999990377498150,2027-01-15T07:59:50.377498150Z,,2.55,0.64,1.06,1.91,4.68,0.00,1.91,2.13,3.19,4.89,5.74,6.17,6.38,,,,,,,,,,,,,,
1799999990384900075,2027-01-15T07:59:50.384900075Z,-1.91,0.64,0.00,-1.70,2.77,2.55,-0.64,2.77,4.04,2.13,5.96,6.17,6.60,6.81,,,,,,,,,,,,,,
1799999990392301999,2027-01-15T07:59:50.392301999Z,0.21,-1.28,0.00,-1.49,2.34,0.85,1.28,4.89,4.89,4.26,7.66,5.96,7.87,7.02,,,,,,,,,,,,,,
1799999990399703924,2027-01-15T07:59:50.399703924Z,0.85,-1.70,-0.64,0.43,1.91,2.13,3.62,4.89,4.04,6.17,7.87,5.11,7.45,7.02,,,,,,,,,,,,,,
1799999990407105848,2027-01-15T07:59:50.407105848Z,2.34,-1.06,-0.43,0.21,2.34,2.98,3.83,3.40,3.62,5.74,5.96,5.74,5.96,6.60,,,,,,,,,,,,,,
1799999990414507773,2027-01-15T07:59:50.414507773Z,-1.70,-0.43,0.21,1.49,1.70,1.91,2.13,2.13,3.83,5.11,4.47,6.60,5.96,5.53,,,,,,,,,,,,,,
1799999990421909697,2027-01-15T07:59:50.421909697Z,-1.91,-1.49,1.06,2.34,1.28,1.49,1.28,2.13,4.47,5.53,5.11,5.53,7.45,5.53,,,,,,,,,,,,,,
1799999990429311622,2027-01-15T07:59:50.429311622Z,0.43,-1.70,2.13,0.85,0.85,2.34,2.34,3.62,4.89,5.11,5.96,5.74,6.81,7.23,,,,,,,,,,,,,,
1799999990436713546,2027-01-15T07:59:50.436713546Z,-0.85,-0.64,1.28,-0.21,-0.21,2.77,2.13,4.89,4.68,4.47,6.81,7.23,5.11,8.09,,,,,,,,,,,,,,
1799999990444115471,2027-01-15T07:59:50.444115471Z,-1.28,-0.43,-0.64,-0.21,0.00,1.28,2.34,5.11,4.26,4.68,6.81,7.23,4.89,6.81,,,,,,,,,,,,,,
1799999990451517395,2027-01-15T07:59:50.451517395Z,-1.49,-0.21,-1.91,0.21,1.70,1.28,3.40,4.04,3.62,4.68,5.74,5.96,6.60,6.38,,,,,,,,,,,,,,
1799999990458919320,2027-01-15T07:59:50.458919320Z,-1.49,-0.21,-1.49,0.85,2.77,4.04,3.40,2.34,2.77,5.32,5.96,5.53,7.87,7.45,,,,,,,,,,,,,,
1799999990466321244,2027-01-15T07:59:50.466321244Z,-2.77,-1.06,-0.21,2.34,2.13,5.11,2.34,0.64,2.55,5.32,7.45,5.32,7.02,8.09,,,,,,,,,,,,,,
1799999990473723169,2027-01-15T07:59:50.473723169Z,-3.62,-1.49,1.28,3.19,2.77,2.77,2.77,0.21,3.19,3.19,7.66,4.89,5.74,7.66,,,,,,,,,,,,,,
1799999990481125093,2027-01-15T07:59:50.481125093Z,-4.89,-0.85,0.64,2.34,2.98,2.55,3.83,0.64,2.77,2.13,6.17,5.11,5.74,6.17,,,,,,,,,,,,,,
1799999990488527018,2027-01-15T07:59:50.488527018Z,-0.43,-0.85,-0.21,2.55,2.55,3.83,3.40,1.70,2.13,3.19,4.68,5.32,6.60,4.68,,,,,,,,,,,,,,
1799999990495928942,2027-01-15T07:59:50.495928942Z,0.00,-2.34,0.85,2.55,2.77,2.55,2.34,3.40,3.83,4.47,4.04,6.17,6.17,5.96,,,,,,,,,,,,,,
1799999990503330867,2027-01-15T07:59:50.503330867Z,-2.55,-3.62,1.49,1.28,2.13,1.06,2.55,4.47,5.74,4.68,4.47,7.02,5.11,8.09,,,,,,,,,,,,,,
1799999990510732791,2027-01-15T07:59:50.510732791Z,-2.98,-3.62,0.85,-0.21,0.85,0.85,2.55,3.62,5.74,4.68,4.89,7.23,4.47,8.94,,,,,,,,,,,,,,
1799999990518134716,2027-01-15T07:59:50.518134716Z,-2.77,-2.34,-0.21,0.43,0.85,1.49,2.13,3.19,3.83,5.11,5.96,7.02,5.53,7.66,,,,,,,,,,,,,,
1799999990525536640,2027-01-15T07:59:50.525536640Z,-1.49,-0.21,-0.21,2.77,2.34,1.70,1.49,3.83,2.98,5.11,6.81,7.45,7.87,5.53,,,,,,,,,,,,,,
1799999990532938565,2027-01-15T07:59:50.532938565Z,0.85,1.28,1.06,1.91,2.34,0.00,3.19,4.47,4.89,4.04,6.60,8.51,8.94,6.60,,,,,,,,,,,,,,
1799999990540340489,2027-01-15T07:59:50.540340489Z,0.64,-0.43,1.49,-1.49,0.43,-0.64,4.47,4.04,4.68,4.26,5.74,8.30,7.45,9.15,,,,,,,,,,,,,,
1799999990547742414,2027-01-15T07:59:50.547742414Z,-3.40,-2.13,0.64,-2.13,0.00,1.49,4.04,4.68,2.13,5.11,4.89,7.23,6.17,9.15,,,,,,,,,,,,,,
1799999990555144338,2027-01-15T07:59:50.555144338Z,-4.47,-2.34,-0.43,-0.21,1.49,3.83,5.74,5.53,2.98,5.32,4.89,6.81,6.81,8.09,,,,,,,,,,,,,,
1799999990562546263,2027-01-15T07:59:50.562546263Z,-4.26,-3.62,-1.70,-1.06,1.70,3.83,6.17,4.47,5.32,5.11,5.53,6.17,8.09,8.94,,,,,,,,,,,,,,
1799999990569948187,2027-01-15T07:59:50.569948187Z,,-3.62,-1.06,-1.28,1.70,2.55,3.83,2.34,4.04,4.89,6.60,4.89,7.87,9.79,,,,,,,,,,,,,,
1799999990577350112,2027-01-15T07:59:50.577350112Z,-3.19,-2.13,0.43,0.64,2.34,2.34,2.13,2.98,2.34,4.89,7.02,5.11,6.60,8.94,,,,,,,,,,,,,,
1799999990584752036,2027-01-15T07:59:50.584752036Z,0.21,-1.06,-0.64,0.85,1.91,2.98,2.13,3.83,4.04,4.04,6.60,6.38,5.96,7.66,,,,,,,,,,,,,,
1799999990592153961,2027-01-15T07:59:50.592153961Z,0.64,0.00,-1.91,-0.43,1.91,3.40,2.77,2.34,5.11,3.62,5.96,6.17,6.38,7.45,,,,,,,,,,,,,,
1799999990599555885,2027-01-15T07:59:50.599555885Z,-2.34,1.49,-1.06,-1.49,2.34,3.40,4.47,1.70,4.89,4.89,5.32,4.47,5.11,8.51,,,,,,,,,,,,,,
1799999990606957810,2027-01-15T07:59:50.606957810Z,-2.77,1.28,-0.21,-1.28,1.91,2.55,3.40,3.83,5.74,5.53,5.53,4.04,3.83,8.30,,,,,,,,,,,,,,
1799999990614359734,2027-01-15T07:59:50.614359734Z,-2.34,-0.64,-0.21,-0.21,1.91,2.34,1.06,5.53,5.53,3.83,6.81,5.11,5.74,7.02,,,,,,,,,,,,,,
1799999990621761659,2027-01-15T07:59:50.621761659Z,-3.62,-1.28,-0.85,0.00,1.49,2.13,2.98,4.89,4.47,3.19,6.60,5.74,8.09,6.60,,,,,,,,,,,,,,
1799999990629163583,2027-01-15T07:59:50.629163583Z,-1.70,-0.43,-0.64,-0.21,-0.64,0.85,5.11,3.62,5.32,4.47,5.74,6.17,8.51,7.02,,,,,,,,,,,,,,
1799999990636565508,2027-01-15T07:59:50.636565508Z,-1.49,-1.49,-0.43,0.00,-1.28,0.43,2.77,2.98,5.53,4.04,5.74,6.17,7.23,7.02,,,,,,,,,,,,,,
1799999990643967432,2027-01-15T07:59:50.643967432Z,-1.91,-1.70,-0.43,-0.21,0.21,1.49,0.00,2.77,4.26,2.77,5.96,5.11,6.38,6.60,,,,,,,,,,,,,,
1799999990651369357,2027-01-15T07:59:50.651369357Z,-0.64,-0.21,-0.43,-1.06,1.28,1.91,0.00,2.34,3.40,2.55,5.53,4.26,5.96,5.74,,,,,,,,,,,,,,
1799999990658771281,2027-01-15T07:59:50.658771281Z,0.43,1.49,-0.64,-1.49,0.43,1.28,2.13,2.13,2.55,3.83,5.11,4.04,5.53,4.68,,,,,,,,,,,,,,
1799999990666173206,2027-01-15T07:59:50.666173206Z,0.00,2.34,-0.85,-0.85,-1.06,0.00,4.04,2.98,1.91,5.53,5.53,4.89,5.96,5.53,,,,,,,,,,,,,,
1799999990673575130,2027-01-15T07:59:50.673575130Z,-2.34,1.49,-0.64,-0.43,0.85,0.00,2.98,3.19,1.91,5.96,5.74,5.53,7.23,7.45,,,,,,,,,,,,,,
1799999990680977055,2027-01-15T07:59:50.680977055Z,-1.91,0.00,-1.49,-1.06,3.62,1.49,1.49,3.62,2.77,5.53,5.11,5.74,7.87,5.96,,,,,,,,,,,,,,
1799999990688378979,2027-01-15T07:59:50.688378979Z,,-1.06,-1.91,0.21,3.40,0.85,1.49,4.68,3.83,4.68,5.32,6.60,6.17,4.47,,,,,,,,,,,,,,
1799999990695780904,2027-01-15T07:59:50.695780904Z,-1.28,-0.64,-1.06,1.28,1.70,-0.43,0.85,4.26,4.68,3.62,5.74,6.38,4.47,6.38,,,,,,,,,,,,,,
1799999990703182828,2027-01-15T07:59:50.703182828Z,-0.85,-1.70,0.00,0.00,1.70,0.43,0.64,2.77,4.47,2.77,5.53,4.89,4.89,8.09,,,,,,,,,,,,,,
1799999990710584753,2027-01-15T07:59:50.710584753Z,1.70,-1.70,0.43,0.64,1.06,1.49,1.06,2.13,4.47,2.77,5.32,5.11,5.74,7.23,,,,,,,,,,,,,,
1799999990717986677,2027-01-15T07:59:50.717986677Z,-0.43,-0.85,0.00,2.13,-0.64,1.06,0.85,2.34,4.89,2.34,3.83,7.02,5.74,5.74,,,,,,,,,,,,,,
1799999990725388602,2027-01-15T07:59:50.725388602Z,-1.06,-1.06,0.00,1.06,-1.06,-0.21,2.13,2.77,3.83,3.19,2.55,7.45,6.17,7.66,,,,,,,,,,,,,,
1799999990732790526,2027-01-15T07:59:50.732790526Z,-0.43,0.64,-0.64,0.43,1.06,-0.43,4.26,3.83,3.40,5.11,3.83,7.23,7.02,11.49,,,,,,,,,,,,,,
1799999990740192451,2027-01-15T07:59:50.740192451Z,-0.21,2.34,-1.49,1.06,2.13,0.64,4.47,3.40,3.83,6.38,4.47,7.66,7.66,11.28,,,,,,,,,,,,,,
1799999990747594375,2027-01-15T07:59:50.747594375Z,-1.28,0.43,0.00,0.21,1.28,1.28,3.19,1.91,1.70,4.89,3.40,7.02,7.02,7.66,,,,,,,,,,,,,,
1799999990754996300,2027-01-15T07:59:50.754996300Z,0.21,-2.13,1.70,-1.06,0.85,1.91,3.62,2.13,0.43,2.98,4.04,5.53,7.02,6.17,,,,,,,,,,,,,,
1799999990762398224,2027-01-15T07:59:50.762398224Z,0.21,-1.28,1.28,-1.70,1.49,2.55,3.19,4.04,2.77,2.77,4.26,5.11,7.87,7.87,,,,,,,,,,,,,,
1799999990769800149,2027-01-15T07:59:50.769800149Z,1.49,0.85,1.70,-0.85,2.13,2.55,2.55,4.47,4.47,4.26,2.77,6.60,7.87,8.72,,,,,,,,,,,,,,
1799999990777202073,2027-01-15T07:59:50.777202073Z,0.21,0.85,1.49,0.21,2.13,1.70,4.68,3.19,2.77,5.32,3.40,7.87,6.17,8.09,,,,,,,,,,,,,,
1799999990784603998,2027-01-15T07:59:50.784603998Z,0.21,-0.64,0.64,1.06,1.49,1.28,6.60,2.13,1.70,4.89,5.53,7.66,5.11,7.87,,,,,,,,,,,,,,
1799999990792005922,2027-01-15T07:59:50.792005922Z,0.85,-1.70,0.64,1.28,1.06,1.91,6.38,1.49,2.55,4.04,7.02,7.23,5.11,7.87,,,,,,,,,,,,,,
1799999990799407847,2027-01-15T07:59:50.799407847Z,0.64,-2.34,-0.43,0.00,1.06,2.98,4.26,1.70,4.68,4.26,6.17,6.38,5.53,8.30,,,,,,,,,,,,,,
1799999990806809771,2027-01-15T07:59:50.806809771Z,-2.34,-1.49,-1.70,-0.21,1.49,3.83,0.85,2.77,6.60,5.53,4.47,5.74,5.32,8.94,,,,,,,,,,,,,,
1799999990814211696,2027-01-15T07:59:50.814211696Z,0.85,-0.21,-2.34,2.34,0.64,2.34,-0.85,3.19,6.60,5.96,5.53,7.02,4.89,8.51,,,,,,,,,,,,,,
1799999990821613620,2027-01-15T07:59:50.821613620Z,1.28,-0.85,-1.49,2.55,-0.43,0.85,0.43,3.83,7.23,4.89,5.96,8.09,5.53,7.23,,,,,,,,,,,,,,
1799999990829015545,2027-01-15T07:59:50.829015545Z,0.43,0.21,-1.49,-0.64,0.43,1.49,0.85,3.83,5.53,3.62,3.40,5.96,6.81,6.60,,,,,,,,,,,,,,
1799999990836417469,2027-01-15T07:59:50.836417469Z,0.00,1.49,-1.06,-0.43,1.06,1.91,1.70,2.77,3.19,2.77,2.13,4.89,6.38,6.81,,,,,,,,,,,,,,
1799999990843819394,2027-01-15T07:59:50.843819394Z,-1.70,-0.64,0.85,2.13,0.64,1.49,4.47,1.91,4.04,3.40,4.26,7.45,5.32,7.66,,,,,,,,,,,,,,
1799999990851221318,2027-01-15T07:59:50.851221318Z,-1.06,-1.91,1.91,0.64,0.85,2.55,5.74,2.34,5.11,4.68,6.17,8.30,5.96,8.72,,,,,,,,,,,,,,
1799999990858623243,2027-01-15T07:59:50.858623243Z,0.43,0.00,0.85,-1.49,0.85,4.26,4.04,1.70,3.19,5.11,5.96,6.81,6.60,8.72,,,,,,,,,,,,,,
1799999990866025167,2027-01-15T07:59:50.866025167Z,0.43,0.00,-0.21,0.00,0.64,3.19,4.89,0.43,2.77,5.32,6.38,6.38,5.96,8.09,,,,,,,,,,,,,,
1799999990873427092,2027-01-15T07:59:50.873427092Z,0.00,-2.34,-0.21,1.28,0.43,2.13,6.81,0.85,4.47,6.17,6.38,6.81,6.17,7.23,,,,,,,,,,,,,,
1799999990880829016,2027-01-15T07:59:50.880829016Z,0.00,-2.55,-0.64,0.85,0.64,2.98,5.32,2.34,4.47,6.38,5.11,6.38,6.60,5.96,,,,,,,,,,,,,,
1799999990888230941,2027-01-15T07:59:50.888230941Z,-0.43,0.21,0.00,1.91,1.49,2.55,3.62,3.19,4.26,5.32,5.53,6.60,5.53,6.81,,,,,,,,,,,,,,
1799999990895632865,2027-01-15T07:59:50.895632865Z,0.43,0.64,1.28,3.62,1.70,0.64,4.89,2.98,3.83,3.62,6.81,6.81,5.96,7.45,,,,,,,,,,,,,,
1799999990903034790,2027-01-15T07:59:50.903034790Z,-1.70,-1.06,1.28,3.19,1.91,0.85,4.04,2.55,1.49,2.77,7.02,6.60,8.30,5.53,,,,,,,,,,,,,,
1799999990910436714,2027-01-15T07:59:50.910436714Z,-2.77,-0.21,-0.43,2.13,2.55,2.55,0.85,3.19,0.64,3.83,7.02,6.81,9.36,5.32,,,,,,,,,,,,,,
1799999990917838639,2027-01-15T07:59:50.917838639Z,-2.55,-0.21,-1.91,1.06,2.34,2.98,1.49,4.47,2.55,4.47,6.17,7.45,7.66,7.66,,,,,,,,,,,,,,
1799999990925240563,2027-01-15T07:59:50.925240563Z,-2.77,-2.34,-1.70,1.06,1.91,2.55,4.04,4.04,3.62,3.40,4.68,7.87,6.17,9.57,,,,,,,,,,,,,,
1799999990932642488,2027-01-15T07:59:50.932642488Z,-1.06,-3.83,-1.28,1.70,1.91,2.98,4.89,1.91,3.19,2.55,3.19,7.87,6.17,8.94,,,,,,,,,,,,,,
1799999990940044412,2027-01-15T07:59:50.940044412Z,-0.85,-4.04,-0.43,0.64,2.13,3.62,4.68,0.21,2.77,3.19,3.19,6.81,6.38,7.23,,,,,,,,,,,,,,
1799999990947446337,2027-01-15T07:59:50.947446337Z,1.70,-2.34,0.43,-1.28,2.34,2.98,3.19,1.49,3.83,4.68,3.83,5.53,6.38,6.81,,,,,,,,,,,,,,
1799999990954848261,2027-01-15T07:59:50.954848261Z,0.21,-1.06,0.21,0.43,2.13,2.77,1.70,3.62,4.26,3.83,3.40,4.47,5.96,7.23,,,,,,,,,,,,,,
1799999990962250186,2027-01-15T07:59:50.962250186Z,-0.21,-1.06,-0.21,3.40,1.49,4.68,1.70,3.83,2.98,1.49,4.04,4.89,5.11,5.32,,,,,,,,,,,,,,
1799999990969652110,2027-01-15T07:59:50.969652110Z,0.00,0.64,0.21,2.13,1.06,4.89,3.19,2.55,3.83,1.70,4.26,5.11,5.11,4.89,,,,,,,,,,,,,,
1799999990977054035,2027-01-15T07:59:50.977054035Z,0.00,1.70,-0.21,-0.21,1.28,2.98,3.19,2.77,5.11,3.62,3.62,4.47,6.38,7.45,,,,,,,,,,,,,,
1799999990984455959,2027-01-15T07:59:50.984455959Z,-0.43,0.00,-1.28,-0.85,0.85,2.98,2.55,4.04,4.26,5.11,5.74,5.11,6.81,9.15,,,,,,,,,,,,,,
1799999990991857884,2027-01-15T07:59:50.991857884Z,-0.43,-1.91,-1.91,0.00,0.21,4.47,4.68,4.26,3.83,6.17,7.87,7.02,5.53,7.23,,,,,,,,,,,,,,
1799999990999259808,2027-01-15T07:59:50.999259808Z,1.49,-1.28,-1.91,-0.21,1.06,2.98,5.53,3.19,4.47,5.96,6.17,7.87,5.96,7.45,,,,,,,,,,,,,,
1799999991006661733,2027-01-15T07:59:51.006661733Z,1.49,0.21,0.00,-0.64,1.28,0.43,3.83,3.19,3.40,5.11,5.53,5.74,7.66,8.94,,,,,,,,,,,,,,
1799999991014063657,2027-01-15T07:59:51.014063657Z,1.28,0.43,2.98,-1.06,0.00,0.00,2.77,3.62,2.55,5.53,7.02,4.04,7.66,7.87,,,,,,,,,,,,,,
1799999991021465582,2027-01-15T07:59:51.021465582Z,-1.91,-0.85,2.55,-1.49,-0.64,1.28,2.55,3.19,4.04,5.96,5.96,4.47,7.23,6.60,,,,,,,,,,,,,,
1799999991028867506,2027-01-15T07:59:51.028867506Z,-4.04,-0.21,0.21,-0.85,0.43,0.85,1.49,2.55,5.32,5.11,4.26,5.53,8.30,5.32,,,,,,,,,,,,,,
1799999991036269431,2027-01-15T07:59:51.036269431Z,-1.70,-0.85,-0.64,0.43,1.28,-0.43,1.70,3.83,4.89,5.32,5.11,5.53,7.45,3.83,,,,,,,,,,,,,,
1799999991043671355,2027-01-15T07:59:51.043671355Z,-1.06,-3.19,-0.85,1.49,1.28,1.49,2.77,4.47,5.96,6.17,6.38,5.96,5.53,5.32,,,,,,,,,,,,,,
1799999991051073280,2027-01-15T07:59:51.051073280Z,-1.06,-2.98,-1.49,0.85,1.70,4.89,2.77,3.19,6.60,5.74,5.96,7.23,6.38,7.87,,,,,,,,,,,,,,
1799999991058475204,2027-01-15T07:59:51.058475204Z,-4.68,-1.28,-0.64,-0.43,1.91,5.53,1.91,2.55,5.74,5.32,4.68,6.81,7.45,6.60,,,,,,,,,,,,,,
1799999991065877129,2027-01-15T07:59:51.065877129Z,-1.91,0.43,0.43,0.64,0.64,3.62,1.06,1.91,4.47,6.17,3.40,4.89,6.81,4.68,,,,,,,,,,,,,,
1799999991073279053,2027-01-15T07:59:51.073279053Z,-1.28,1.28,-0.64,2.34,-0.21,2.98,0.85,0.85,3.62,6.17,3.19,4.04,6.17,5.53,,,,,,,,,,,,,,
1799999991080680978,2027-01-15T07:59:51.080680978Z,-2.77,0.85,-2.34,2.34,0.85,3.83,1.06,-0.21,3.62,5.11,4.26,4.89,6.17,6.81,,,,,,,,,,,,,,
1799999991088082902,2027-01-15T07:59:51.088082902Z,-3.83,0.64,-3.40,1.28,1.91,4.04,1.49,0.21,3.83,4.04,5.32,5.53,5.32,7.87,,,,,,,,,,,,,,
1799999991095484827,2027-01-15T07:59:51.095484827Z,-2.13,1.06,-2.34,0.64,0.21,2.34,2.55,1.91,4.04,4.04,5.53,5.11,4.68,7.45,,,,,,,,,,,,,,
1799999991102886751,2027-01-15T07:59:51.102886751Z,-1.91,0.00,-0.43,1.49,-2.13,1.28,3.19,3.62,3.62,5.96,5.32,5.32,5.96,6.60,,,,,,,,,,,,,,
1799999991110288676,2027-01-15T07:59:51.110288676Z,-4.04,-1.91,-0.43,1.91,-0.64,2.34,2.55,3.40,3.19,6.60,7.02,6.60,7.23,6.60,,,,,,,,,,,,,,
1799999991117690600,2027-01-15T07:59:51.117690600Z,-2.98,-1.91,-1.28,0.64,1.28,2.55,2.34,2.34,3.40,4.47,7.87,7.02,6.60,6.60,,,,,,,,,,,,,,
1799999991125092525,2027-01-15T07:59:51.125092525Z,-0.64,1.28,-1.06,-0.64,0.43,1.28,2.55,2.98,3.19,3.62,5.74,6.60,6.60,7.45,,,,,,,,,,,,,,
1799999991132494449,2027-01-15T07:59:51.132494449Z,-0.64,2.55,0.21,0.21,1.49,2.13,1.91,3.40,3.19,5.11,4.04,7.45,7.87,7.66,,,,,,,,,,,,,,
1799999991139896374,2027-01-15T07:59:51.139896374Z,-3.19,-1.70,1.49,-0.43,2.98,4.04,2.13,3.62,4.26,5.11,3.62,9.15,7.87,5.96,,,,,,,,,,,,,,
1799999991147298298,2027-01-15T07:59:51.147298298Z,-4.47,-3.40,1.06,-2.34,2.34,3.83,2.34,4.47,4.47,4.04,2.98,8.09,6.60,5.96,,,,,,,,,,,,,,
1799999991154700223,2027-01-15T07:59:51.154700223Z,-1.70,0.43,-0.43,-2.13,1.28,1.49,1.06,4.47,3.40,4.89,2.98,3.83,5.53,7.66,,,,,,,,,,,,,,
1799999991162102147,2027-01-15T07:59:51.162102147Z,-0.21,2.13,-0.64,0.43,1.70,0.21,0.43,3.62,3.83,6.17,4.89,1.91,6.17,7.45,,,,,,,,,,,,,,
1799999991169504072,2027-01-15T07:59:51.169504072Z,0.00,0.64,1.06,2.55,1.91,0.85,1.91,3.62,5.53,5.32,7.02,4.68,7.02,7.66,,,,,,,,,,,,,,
1799999991176905996,2027-01-15T07:59:51.176905996Z,0.64,-0.21,1.70,1.70,1.49,0.85,2.98,4.04,5.11,4.89,7.02,7.02,5.53,9.15,,,,,,,,,,,,,,
1799999991184307921,2027-01-15T07:59:51.184307921Z,0.00,1.06,1.49,-1.06,1.06,1.70,1.70,2.98,1.91,5.74,4.68,5.96,4.89,8.51,,,,,,,,,,,,,,
1799999991191709845,2027-01-15T07:59:51.191709845Z,-0.64,1.28,1.91,-1.91,1.70,3.19,0.21,1.06,1.06,5.74,4.68,5.11,6.81,7.23,,,,,,,,,,,,,,
1799999991199111770,2027-01-15T07:59:51.199111770Z,-1.06,-0.21,1.28,1.49,2.34,2.98,0.64,1.28,1.70,5.11,7.23,5.74,8.30,8.09,,,,,,,,,,,,,,
1799999991206513694,2027-01-15T07:59:51.206513694Z,-1.06,-0.21,0.85,4.89,2.13,1.70,1.28,2.34,0.21,5.11,7.02,6.17,8.09,8.72,,,,,,,,,,,,,,
1799999991213915619,2027-01-15T07:59:51.213915619Z,-0.64,1.06,1.06,4.89,1.91,1.06,1.28,2.55,0.64,5.11,5.11,6.17,7.66,7.66,,,,,,,,,,,,,,
1799999991221317543,2027-01-15T07:59:51.221317543Z,-0.43,1.06,1.06,2.55,1.91,1.91,1.28,2.13,3.40,4.68,4.47,6.17,7.23,6.38,,,,,,,,,,,,,,
1799999991228719468,2027-01-15T07:59:51.228719468Z,0.43,0.64,0.64,0.64,1.28,2.55,1.49,1.49,6.38,5.11,5.11,6.38,6.38,6.60,,,,,,,,,,,,,,
1799999991236121392,2027-01-15T07:59:51.236121392Z,0.43,1.28,-0.43,-0.21,1.06,1.91,2.34,1.28,5.96,6.38,5.96,5.74,5.74,8.09,,,,,,,,,,,,,,
1799999991243523317,2027-01-15T07:59:51.243523317Z,1.28,1.91,-0.64,0.64,2.13,1.70,3.83,1.91,3.19,5.53,6.38,4.47,5.74,8.09,,,,,,,,,,,,,,
1799999991250925241,2027-01-15T07:59:51.250925241Z,0.43,0.85,0.43,1.28,1.91,2.77,3.83,2.98,2.13,4.04,7.87,4.89,5.96,7.02,,,,,,,,,,,,,,
1799999991258327166,2027-01-15T07:59:51.258327166Z,0.00,-0.64,-0.43,1.28,-0.21,3.62,2.77,4.04,3.19,5.53,7.23,6.60,5.53,7.23,,,,,,,,,,,,,,
1799999991265729090,2027-01-15T07:59:51.265729090Z,-1.49,-0.43,-1.91,1.70,-1.28,3.62,2.98,4.89,4.89,6.81,4.89,6.60,5.53,7.23,,,,,,,,,,,,,,
1799999991273131015,2027-01-15T07:59:51.273131015Z,1.91,0.43,-1.28,1.91,0.00,3.19,4.04,4.68,5.32,4.47,5.11,6.38,7.45,6.60,,,,,,,,,,,,,,
1799999991280532939,2027-01-15T07:59:51.280532939Z,-0.85,-0.64,-1.49,0.43,0.85,2.34,4.47,4.26,3.62,2.55,7.02,7.45,8.30,7.02,,,,,,,,,,,,,,
1799999991287934864,2027-01-15T07:59:51.287934864Z,0.00,-0.85,-1.49,-0.43,0.64,1.49,3.62,3.83,2.55,3.62,6.81,8.09,6.17,7.45,,,,,,,,,,,,,,
1799999991295336788,2027-01-15T07:59:51.295336788Z,0.43,0.43,-0.21,0.64,-0.21,1.91,3.19,4.04,3.40,4.68,5.53,7.02,5.32,6.81,,,,,,,,,,,,,,
1799999991302738713,2027-01-15T07:59:51.302738713Z,0.21,1.49,0.00,0.43,0.21,2.55,3.40,4.89,4.26,4.89,4.26,6.17,7.02,7.02,,,,,,,,,,,,,,
1799999991310140637,2027-01-15T07:59:51.310140637Z,-0.21,0.85,-0.43,-0.85,1.06,2.34,2.55,4.89,3.83,5.96,4.47,7.45,7.02,8.09,,,,,,,,,,,,,,
1799999991317542562,2027-01-15T07:59:51.317542562Z,-2.98,-0.43,-0.21,-1.49,0.43,1.49,2.55,3.83,4.47,6.60,5.74,7.66,5.53,7.45,,,,,,,,,,,,,,
1799999991324944486,2027-01-15T07:59:51.324944486Z,-1.70,-0.21,-1.06,-0.64,0.00,1.49,2.98,2.77,5.74,4.89,5.96,5.53,4.47,6.17,,,,,,,,,,,,,,
1799999991332346411,2027-01-15T07:59:51.332346411Z,-1.49,-1.06,-1.91,-0.21,0.85,3.62,2.13,3.19,5.74,3.19,5.96,5.11,4.26,6.60,,,,,,,,,,,,,,
1799999991339748335,2027-01-15T07:59:51.339748335Z,-1.28,-3.40,-1.70,-0.85,1.91,3.83,2.55,4.26,5.11,3.62,7.87,6.81,4.89,7.23,,,,,,,,,,,,,,
1799999991347150260,2027-01-15T07:59:51.347150260Z,-1.49,-3.40,-0.43,-0.21,1.91,1.49,4.04,3.62,5.53,4.47,8.72,5.96,6.60,6.81,,,,,,,,,,,,,,
1799999991354552184,2027-01-15T07:59:51.354552184Z,1.06,-1.91,0.21,0.21,1.06,0.00,4.47,2.77,5.53,4.68,7.02,4.47,8.09,7.02,,,,,,,,,,,,,,
1799999991361954109,2027-01-15T07:59:51.361954109Z,-0.43,-1.28,0.21,-0.21,-0.21,0.43,3.62,3.83,5.11,4.26,5.74,5.11,8.72,7.45,,,,,,,,,,,,,,
1799999991369356033,2027-01-15T07:59:51.369356033Z,-0.64,-1.28,0.21,-0.43,-0.21,1.06,3.40,5.11,5.11,3.83,6.81,7.02,7.45,7.87,,,,,,,,,,,,,,
1799999991376757958,2027-01-15T07:59:51.376757958Z,-1.28,-1.70,0.21,-0.21,1.49,1.49,3.62,5.53,5.11,3.62,8.09,7.45,4.89,7.66,,,,,,,,,,,,,,
1799999991384159882,2027-01-15T07:59:51.384159882Z,-1.70,-2.34,0.21,-0.64,1.91,1.70,3.19,4.89,4.47,4.04,6.38,5.74,4.89,8.09,,,,,,,,,,,,,,
1799999991391561807,2027-01-15T07:59:51.391561807Z,-1.70,-1.49,-0.21,0.00,1.49,1.91,4.26,5.32,4.47,4.04,5.32,6.81,7.66,8.30,,,,,,,,,,,,,,
1799999991398963731,2027-01-15T07:59:51.398963731Z,0.85,0.00,-0.64,1.28,2.77,2.77,5.96,5.32,4.47,3.40,6.60,8.94,8.09,7.45,,,,,,,,,,,,,,
1799999991406365656,2027-01-15T07:59:51.406365656Z,-0.85,-0.64,0.00,1.49,2.77,3.40,5.32,3.40,3.19,4.04,6.60,9.15,5.96,7.87,,,,,,,,,,,,,,
1799999991413767580,2027-01-15T07:59:51.413767580Z,-1.28,-2.13,1.28,0.64,1.49,2.13,3.19,1.28,3.62,5.74,5.32,7.66,5.74,8.51,,,,,,,,,,,,,,
1799999991421169505,2027-01-15T07:59:51.421169505Z,-1.70,-1.70,1.49,-0.43,2.13,1.28,3.62,1.49,5.96,7.02,4.68,6.17,7.02,8.09,,,,,,,,,,,,,,
1799999991428571429,2027-01-15T07:59:51.428571429Z,-0.43,-0.43,0.64,-0.64,1.70,2.77,3.83,3.19,5.74,5.96,5.74,5.32,6.38,9.36,,,,,,,,,,,,,,
1799999991435973354,2027-01-15T07:59:51.435973354Z,-1.49,-1.06,0.43,0.00,0.00,2.98,2.34,3.62,4.04,4.68,6.60,5.96,5.74,10.85,,,,,,,,,,,,,,
1799999991443375278,2027-01-15T07:59:51.443375278Z,-5.53,-1.49,0.43,0.64,0.21,0.64,2.34,2.34,4.47,4.68,5.74,7.02,6.81,9.36,,,,,,,,,,,,,,
1799999991450777203,2027-01-15T07:59:51.450777203Z,-2.13,0.21,-0.21,0.85,1.91,-1.06,3.62,1.91,4.26,6.60,6.17,7.87,7.66,6.60,,,,,,,,,,,,,,
1799999991458179127,2027-01-15T07:59:51.458179127Z,-1.91,0.85,0.00,0.85,2.34,0.64,3.83,1.49,4.04,7.02,7.23,7.66,7.23,5.74,,,,,,,,,,,,,,
1799999991465581052,2027-01-15T07:59:51.465581052Z,-0.21,0.00,1.06,1.06,1.91,3.19,2.77,-0.21,5.11,5.32,6.17,6.81,7.02,6.60,,,,,,,,,,,,,,
1799999991472982976,2027-01-15T07:59:51.472982976Z,-0.43,0.64,1.49,0.21,1.91,3.83,2.55,0.85,4.89,5.96,4.89,6.38,6.38,7.23,,,,,,,,,,,,,,
1799999991480384901,2027-01-15T07:59:51.480384901Z,-1.06,1.91,1.06,-0.64,1.70,2.55,4.04,3.83,3.83,7.02,4.68,5.53,5.32,8.09,,,,,,,,,,,,,,
1799999991487786825,2027-01-15T07:59:51.487786825Z,-2.77,1.49,0.43,-0.21,1.91,2.34,4.47,4.26,4.68,6.38,4.26,5.96,5.11,8.72,,,,,,,,,,,,,,
1799999991495188750,2027-01-15T07:59:51.495188750Z,-4.26,-0.85,-1.28,0.21,2.34,2.98,2.98,2.77,5.96,5.53,4.26,7.87,5.32,8.09,,,,,,,,,,,,,,
1799999991502590674,2027-01-15T07:59:51.502590674Z,-4.89,-2.55,-2.77,0.21,2.13,2.55,2.34,2.34,5.11,4.89,5.53,9.36,5.53,7.87,,,,,,,,,,,,,,
1799999991509992599,2027-01-15T07:59:51.509992599Z,-3.62,-2.13,-2.77,0.21,1.70,1.28,2.77,2.34,3.40,4.04,6.60,9.15,5.74,8.30,,,,,,,,,,,,,,
1799999991517394523,2027-01-15T07:59:51.517394523Z,-2.98,-2.34,-0.85,0.85,2.55,0.64,3.19,2.98,2.98,3.62,8.09,7.87,6.17,6.81,,,,,,,,,,,,,,
1799999991524796448,2027-01-15T07:59:51.524796448Z,-2.77,-2.34,0.43,1.91,4.26,1.06,2.77,4.47,5.11,5.11,8.94,6.38,6.81,3.83,,,,,,,,,,,,,,
1799999991532198372,2027-01-15T07:59:51.532198372Z,,-1.06,-0.43,2.55,4.47,0.43,3.19,4.47,6.38,5.53,7.23,5.53,7.02,3.83,,,,,,,,,,,,,,
1799999991539600297,2027-01-15T07:59:51.539600297Z,-3.19,-1.28,-1.70,2.98,2.55,-0.43,3.62,2.98,4.47,3.19,5.11,4.89,6.81,7.23,,,,,,,,,,,,,,
1799999991547002221,2027-01-15T07:59:51.547002221Z,-3.40,-1.06,-1.49,3.19,2.13,0.64,2.98,4.26,3.83,1.70,5.32,5.11,6.17,8.94,,,,,,,,,,,,,,
1799999991554404146,2027-01-15T07:59:51.554404146Z,-1.06,0.85,-1.06,2.13,3.19,1.70,3.40,6.60,5.11,3.62,4.89,6.60,6.60,8.30,,,,,,,,,,,,,,
1799999991561806070,2027-01-15T07:59:51.561806070Z,-1.28,0.00,-1.70,0.85,2.13,0.85,4.04,5.96,4.68,5.96,3.62,8.30,7.87,8.72,,,,,,,,,,,,,,
1799999991569207995,2027-01-15T07:59:51.569207995Z,-0.64,-0.64,-1.70,0.43,0.43,0.21,4.04,3.19,3.19,5.11,4.47,8.51,8.30,8.09,,,,,,,,,,,,,,
1799999991576609919,2027-01-15T07:59:51.576609919Z,-0.43,0.43,-1.28,0.64,0.21,1.06,3.62,1.91,2.34,2.77,5.53,6.17,7.45,6.81,,,,,,,,,,,,,,
1799999991584011844,2027-01-15T07:59:51.584011844Z,-0.21,-1.70,-1.91,-0.64,1.06,0.85,2.77,2.34,2.55,2.77,4.68,5.53,7.02,6.38,,,,,,,,,,,,,,
1799999991591413768,2027-01-15T07:59:51.591413768Z,-0.43,-2.55,-1.91,-1.28,1.49,0.21,3.62,2.34,2.34,3.19,4.68,8.09,7.66,7.45,,,,,,,,,,,,,,
1799999991598815693,2027-01-15T07:59:51.598815693Z,0.00,0.00,-0.85,0.43,1.06,0.21,5.11,2.55,1.70,2.77,5.96,8.51,7.87,8.09,,,,,,,,,,,,,,
1799999991606217617,2027-01-15T07:59:51.606217617Z,-0.21,1.49,0.43,3.19,0.00,0.21,3.62,3.40,2.55,4.04,5.11,5.32,7.02,6.81,,,,,,,,,,,,,,
1799999991613619542,2027-01-15T07:59:51.613619542Z,-0.43,-0.64,0.21,3.19,-0.43,0.43,1.06,4.47,4.04,5.96,4.26,4.04,5.96,5.96,,,,,,,,,,,,,,
1799999991621021466,2027-01-15T07:59:51.621021466Z,-2.13,-2.13,0.21,0.64,-0.43,0.64,1.28,4.68,3.40,6.38,5.74,5.32,5.74,7.66,,,,,,,,,,,,,,
1799999991628423391,2027-01-15T07:59:51.628423391Z,-1.49,-0.85,1.70,0.00,0.00,1.28,2.77,3.19,2.55,5.74,5.74,5.53,6.38,7.66,,,,,,,,,,,,,,
1799999991635825315,2027-01-15T07:59:51.635825315Z,0.85,-1.49,1.28,1.28,1.28,2.55,2.98,1.91,3.40,5.53,3.83,4.89,6.60,5.74,,,,,,,,,,,,,,
1799999991643227240,2027-01-15T07:59:51.643227240Z,0.64,-2.98,-0.21,1.49,2.13,3.19,3.19,2.13,4.47,4.89,3.40,5.32,7.02,5.96,,,,,,,,,,,,,,
1799999991650629164,2027-01-15T07:59:51.650629164Z,0.43,-2.55,-0.21,1.06,1.91,3.19,3.19,2.34,4.47,4.47,4.89,6.17,7.66,7.66,,,,,,,,,,,,,,
1799999991658031089,2027-01-15T07:59:51.658031089Z,0.00,-1.70,0.43,0.85,0.85,2.77,1.70,2.98,4.04,4.47,6.38,6.60,8.72,7.23,,,,,,,,,,,,,,
1799999991665433013,2027-01-15T07:59:51.665433013Z,-0.64,-0.64,0.43,2.77,-0.43,2.13,0.00,3.83,3.62,4.68,5.11,6.38,8.51,4.89,,,,,,,,,,,,,,
1799999991672834938,2027-01-15T07:59:51.672834938Z,-1.28,0.43,-0.21,4.89,0.00,2.34,-0.64,4.04,3.19,4.47,3.40,5.53,6.60,5.53,,,,,,,,,,,,,,
1799999991680236862,2027-01-15T07:59:51.680236862Z,-0.85,0.64,-0.85,3.19,1.06,2.77,0.00,4.89,2.55,4.47,5.32,4.68,5.32,8.30,,,,,,,,,,,,,,
1799999991687638787,2027-01-15T07:59:51.687638787Z,-0.85,-0.43,-0.85,0.85,1.06,2.34,0.00,4.68,3.19,5.11,7.02,5.11,6.17,8.94,,,,,,,,,,,,,,
1799999991695040711,2027-01-15T07:59:51.695040711Z,1.28,-0.43,1.06,0.64,0.21,1.91,1.06,3.62,4.47,5.53,5.74,6.17,7.02,8.30,,,,,,,,,,,,,,
1799999991702442636,2027-01-15T07:59:51.702442636Z,0.00,0.64,2.55,-0.21,-0.21,2.77,2.55,3.83,3.83,4.89,4.04,5.96,7.23,8.94,,,,,,,,,,,,,,
1799999991709844560,2027-01-15T07:59:51.709844560Z,-0.21,1.06,1.28,-1.70,-0.21,3.19,2.13,3.62,1.91,4.89,4.47,5.11,7.23,8.51,,,,,,,,,,,,,,
1799999991717246485,2027-01-15T07:59:51.717246485Z,0.21,0.85,-0.21,-1.28,-0.21,1.70,2.13,2.34,3.19,5.74,4.47,5.32,7.23,7.45,,,,,,,,,,,,,,
1799999991724648409,2027-01-15T07:59:51.724648409Z,3.62,1.06,0.21,0.21,0.21,0.43,4.04,1.91,4.26,5.53,4.47,5.96,6.60,8.30,,,,,,,,,,,,,,
1799999991732050334,2027-01-15T07:59:51.732050334Z,-0.21,1.06,-0.85,1.49,1.28,1.91,5.11,2.77,2.13,4.26,4.89,6.17,6.60,7.87,,,,,,,,,,,,,,
1799999991739452258,2027-01-15T07:59:51.739452258Z,-1.06,0.00,-2.55,1.91,2.55,3.40,3.83,3.62,1.06,3.40,4.26,5.96,6.81,5.74,,,,,,,,,,,,,,
1799999991746854183,2027-01-15T07:59:51.746854183Z,0.21,-0.85,-2.34,2.34,1.91,1.70,2.13,4.68,2.13,3.19,4.47,5.96,5.96,6.17,,,,,,,,,,,,,,
1799999991754256107,2027-01-15T07:59:51.754256107Z,-0.64,-1.06,0.21,0.43,0.21,0.64,2.98,4.26,2.98,2.98,5.53,5.11,5.11,8.94,,,,,,,,,,,,,,
1799999991761658032,2027-01-15T07:59:51.761658032Z,-0.85,-0.21,2.34,-0.64,0.64,2.98,4.26,2.55,3.40,3.83,5.53,4.04,5.11,8.51,,,,,,,,,,,,,,
1799999991769059956,2027-01-15T07:59:51.769059956Z,-0.43,0.00,1.70,1.91,2.13,3.83,3.62,2.34,3.19,4.26,4.89,6.17,5.74,6.38,,,,,,,,,,,,,,
1799999991776461881,2027-01-15T07:59:51.776461881Z,-0.21,-1.06,1.28,2.98,1.28,1.70,2.98,3.62,3.40,4.68,5.53,9.57,6.60,6.60,,,,,,,,,,,,,,
1799999991783863805,2027-01-15T07:59:51.783863805Z,-0.21,-1.28,1.70,1.06,-0.21,0.85,3.40,2.98,4.04,5.32,6.38,9.36,6.81,7.87,,,,,,,,,,,,,,
1799999991791265730,2027-01-15T07:59:51.791265730Z,0.43,-0.43,1.49,-0.43,-0.21,1.70,3.83,1.70,4.04,5.53,5.74,6.60,6.81,8.09,,,,,,,,,,,,,,
1799999991798667654,2027-01-15T07:59:51.798667654Z,0.43,0.00,-0.21,-1.28,1.70,2.77,4.47,0.64,3.83,5.32,4.47,4.04,6.60,7.23,,,,,,,,,,,,,,
1799999991806069579,2027-01-15T07:59:51.806069579Z,-1.70,-0.64,-2.13,-1.49,2.98,2.13,4.04,1.28,4.04,5.11,3.40,5.11,7.66,6.38,,,,,,,,,,,,,,
1799999991813471503,2027-01-15T07:59:51.813471503Z,-0.43,-0.21,-2.34,-1.70,1.91,0.85,3.19,1.70,4.89,4.68,4.47,6.60,8.51,7.66,,,,,,,,,,,,,,
1799999991820873428,2027-01-15T07:59:51.820873428Z,-0.43,0.64,-1.06,-0.85,0.64,0.21,3.40,1.70,4.47,3.40,5.96,5.11,7.66,9.57,,,,,,,,,,,,,,
1799999991828275352,2027-01-15T07:59:51.828275352Z,-1.06,0.64,0.43,-0.43,1.28,0.21,3.62,1.49,3.40,2.34,4.47,4.26,6.60,9.15,,,,,,,,,,,,,,
1799999991835677277,2027-01-15T07:59:51.835677277Z,-0.85,-0.64,0.43,-0.85,1.49,0.85,2.98,1.06,3.40,1.91,2.98,5.53,7.45,7.02,,,,,,,,,,,,,,
1799999991843079201,2027-01-15T07:59:51.843079201Z,0.43,-1.70,-1.06,-0.21,0.43,1.70,3.19,1.49,4.47,3.40,4.47,5.32,7.23,5.96,,,,,,,,,,,,,,
1799999991850481126,2027-01-15T07:59:51.850481126Z,0.00,-0.21,-1.91,1.06,0.64,2.55,3.40,1.49,4.04,5.32,7.66,4.04,5.74,7.23,,,,,,,,,,,,,,
1799999991857883050,2027-01-15T07:59:51.857883050Z,-3.40,0.64,-0.85,1.28,2.13,3.83,3.40,1.70,2.98,4.47,8.30,4.26,5.11,7.45,,,,,,,,,,,,,,
1799999991865284975,2027-01-15T07:59:51.865284975Z,-3.62,-1.28,0.21,0.85,2.34,3.83,3.83,2.55,2.98,3.62,6.17,5.53,6.81,6.38,,,,,,,,,,,,,,
1799999991872686899,2027-01-15T07:59:51.872686899Z,-1.06,-2.77,0.43,0.21,1.06,2.13,2.34,2.77,4.68,5.32,5.11,7.23,8.30,7.45,,,,,,,,,,,,,,
1799999991880088824,2027-01-15T07:59:51.880088824Z,-0.85,-1.49,-0.64,-1.06,1.70,1.06,0.00,3.62,6.60,5.53,6.60,8.94,8.30,8.30,,,,,,,,,,,,,,
1799999991887490748,2027-01-15T07:59:51.887490748Z,-0.21,1.06,0.21,-0.85,3.62,1.49,0.21,4.04,6.17,4.26,6.60,8.51,8.30,6.38,,,,,,,,,,,,,,
1799999991894892673,2027-01-15T07:59:51.894892673Z,-0.43,0.64,1.28,0.43,3.40,1.91,2.55,3.40,4.68,3.19,4.26,6.38,7.02,5.11,,,,,,,,,,,,,,
1799999991902294597,2027-01-15T07:59:51.902294597Z,-2.55,-0.85,-0.21,1.49,2.34,1.49,2.98,3.62,3.62,2.98,2.98,4.68,5.74,6.60,,,,,,,,,,,,,,
1799999991909696522,2027-01-15T07:59:51.909696522Z,-2.55,-0.43,-1.06,1.28,2.77,1.06,2.34,3.83,3.62,2.98,5.32,4.04,5.74,7.23,,,,,,,,,,,,,,
1799999991917098446,2027-01-15T07:59:51.917098446Z,-2.55,-1.91,0.00,0.64,2.34,2.13,3.83,2.98,4.47,3.62,5.32,4.89,5.32,7.45,,,,,,,,,,,,,,
1799999991924500371,2027-01-15T07:59:51.924500371Z,-1.06,-3.19,0.00,-0.43,0.85,3.83,3.83,2.13,5.53,4.47,2.13,6.81,5.32,8.72,,,,,,,,,,,,,,
1799999991931902295,2027-01-15T07:59:51.931902295Z,0.64,-2.77,-1.06,-1.70,-0.43,4.89,1.91,2.34,5.11,5.11,1.70,7.66,5.53,8.30,,,,,,,,,,,,,,
1799999991939304220,2027-01-15T07:59:51.939304220Z,0.64,-2.77,-1.49,-2.98,-1.06,5.11,0.43,2.77,3.40,5.53,4.26,6.81,5.32,6.38,,,,,,,,,,,,,,
1799999991946706144,2027-01-15T07:59:51.946706144Z,0.21,-2.77,-1.49,-2.13,-0.21,4.26,0.85,2.98,1.91,4.68,7.23,5.74,4.68,3.83,,,,,,,,,,,,,,
1799999991954108069,2027-01-15T07:59:51.954108069Z,-0.21,-1.91,-1.06,0.64,1.28,2.98,1.49,2.13,2.77,3.40,7.23,6.17,4.68,4.26,,,,,,,,,,,,,,
1799999991961509993,2027-01-15T07:59:51.961509993Z,-3.40,-1.06,-1.91,2.34,1.28,1.91,1.06,1.70,4.68,2.77,4.89,7.23,6.17,7.45,,,,,,,,,,,,,,
1799999991968911918,2027-01-15T07:59:51.968911918Z,-4.04,-0.64,-2.34,0.85,0.00,1.49,1.70,2.77,4.68,3.83,5.32,7.45,6.81,7.66,,,,,,,,,,,,,,
1799999991976313842,2027-01-15T07:59:51.976313842Z,-3.83,-1.06,-1.70,0.00,0.64,2.13,2.77,4.26,3.62,5.32,6.60,7.02,5.53,4.89,,,,,,,,,,,,,,
1799999991983715767,2027-01-15T07:59:51.983715767Z,-3.83,-2.55,-0.43,0.85,1.91,3.19,2.34,4.89,2.55,6.60,6.17,7.45,6.17,5.11,,,,,,,,,,,,,,
1799999991991117691,2027-01-15T07:59:51.991117691Z,0.00,-2.77,0.85,1.49,1.49,2.77,1.91,3.40,1.28,6.38,5.74,7.66,7.66,8.09,,,,,,,,,,,,,,
1799999991998519616,2027-01-15T07:59:51.998519616Z,0.00,-2.34,0.64,0.43,1.70,1.70,3.62,1.91,2.34,5.32,4.89,6.81,7.45,8.09,,,,,,,,,,,,,,
1799999992005921540,2027-01-15T07:59:52.005921540Z,0.00,-1.91,-0.21,-0.43,1.49,1.91,4.47,1.70,4.89,4.89,4.68,5.53,5.96,5.32,,,,,,,,,,,,,,
1799999992013323465,2027-01-15T07:59:52.013323465Z,1.06,0.00,-1.06,-0.64,0.21,3.19,2.13,2.34,5.53,5.11,6.60,4.26,5.74,5.96,,,,,,,,,,,,,,
1799999992020725389,2027-01-15T07:59:52.020725389Z,-1.70,0.85,-2.13,-1.28,0.00,2.77,0.85,3.83,3.40,4.47,6.81,4.04,6.60,8.72,,,,,,,,,,,,,,
1799999992028127314,2027-01-15T07:59:52.028127314Z,-2.34,-0.85,-1.91,-0.64,1.06,1.06,2.98,4.68,1.49,3.62,4.04,5.53,5.74,9.36,,,,,,,,,,,,,,
1799999992035529238,2027-01-15T07:59:52.035529238Z,-0.85,-1.28,-0.64,0.43,1.06,1.91,4.04,3.40,2.13,3.40,3.19,6.17,5.32,8.72,,,,,,,,,,,,,,
1799999992042931163,2027-01-15T07:59:52.042931163Z,-0.64,0.64,0.21,0.43,1.28,4.68,2.34,2.34,2.98,4.26,6.38,5.32,7.23,8.94,,,,,,,,,,,,,,
1799999992050333087,2027-01-15T07:59:52.050333087Z,-0.64,0.00,-0.85,-0.64,2.55,3.62,1.49,2.13,3.19,5.32,8.09,5.53,8.72,6.81,,,,,,,,,,,,,,
1799999992057735012,2027-01-15T07:59:52.057735012Z,-1.06,-2.55,-1.70,0.64,2.77,1.49,2.34,1.49,4.04,6.60,6.60,5.74,8.09,4.89,,,,,,,,,,,,,,
1799999992065136936,2027-01-15T07:59:52.065136936Z,0.64,-0.21,0.00,2.98,1.91,3.19,4.04,1.91,5.32,7.02,6.38,5.11,6.81,6.60,,,,,,,,,,,,,,
1799999992072538861,2027-01-15T07:59:52.072538861Z,-0.21,3.19,1.70,2.77,1.70,4.89,5.11,2.77,5.32,6.17,7.23,5.11,6.60,8.94,,,,,,,,,,,,,,
1799999992079940785,2027-01-15T07:59:52.079940785Z,-0.64,3.83,1.49,0.85,2.13,4.89,4.89,3.40,4.04,5.32,6.60,5.53,7.02,9.15,,,,,,,,,,,,,,
1799999992087342710,2027-01-15T07:59:52.087342710Z,-1.28,2.34,1.06,-0.85,1.91,3.19,3.40,2.55,2.77,5.11,5.53,6.17,6.81,7.87,,,,,,,,,,,,,,
1799999992094744634,2027-01-15T07:59:52.094744634Z,0.00,0.64,0.43,-0.85,1.06,1.91,1.91,1.91,3.40,5.32,5.53,6.60,5.53,7.66,,,,,,,,,,,,,,
1799999992102146559,2027-01-15T07:59:52.102146559Z,-0.43,-0.21,-0.43,0.64,0.00,2.55,2.55,2.98,5.11,4.89,6.81,5.32,5.32,9.15,,,,,,,,,,,,,,
1799999992109548483,2027-01-15T07:59:52.109548483Z,-0.21,-0.43,0.00,1.49,-0.21,2.55,2.98,2.98,3.40,3.83,6.60,3.83,7.02,8.51,,,,,,,,,,,,,,
1799999992116950408,2027-01-15T07:59:52.116950408Z,0.21,0.21,1.49,1.06,1.28,2.77,3.19,2.98,1.49,3.19,5.11,4.26,7.87,6.81,,,,,,,,,,,,,,
1799999992124352332,2027-01-15T07:59:52.124352332Z,-1.28,-1.06,2.13,0.64,2.13,3.19,2.98,2.77,2.98,3.62,3.19,5.96,7.45,5.96,,,,,,,,,,,,,,
1799999992131754257,2027-01-15T07:59:52.131754257Z,-1.70,-1.91,1.06,0.85,1.28,2.55,1.49,1.49,4.47,3.40,2.77,6.60,7.23,6.17,,,,,,,,,,,,,,
1799999992139156181,2027-01-15T07:59:52.139156181Z,-2.34,-1.06,0.85,1.70,1.06,1.91,0.43,3.19,4.04,3.40,4.26,6.38,6.81,5.96,,,,,,,,,,,,,,
1799999992146558106,2027-01-15T07:59:52.146558106Z,-0.64,-1.06,0.43,3.19,1.49,2.13,0.43,5.96,3.40,5.11,4.89,6.60,5.96,6.60,,,,,,,,,,,,,,
1799999992153960030,2027-01-15T07:59:52.153960030Z,-0.43,-2.13,-0.21,3.19,0.64,2.77,1.06,5.74,3.83,5.96,4.47,5.96,6.17,7.87,,,,,,,,,,,,,,
1799999992161361955,2027-01-15T07:59:52.161361955Z,0.43,-1.70,0.64,1.49,0.21,2.55,3.40,4.89,4.26,4.68,5.96,5.53,6.60,8.72,,,,,,,,,,,,,,
1799999992168763879,2027-01-15T07:59:52.168763879Z,0.85,-1.28,1.06,2.13,0.85,1.49,4.26,5.32,3.40,5.53,7.45,5.96,6.60,7.66,,,,,,,,,,,,,,
1799999992176165804,2027-01-15T07:59:52.176165804Z,-1.70,-2.34,-1.06,1.91,1.28,1.70,2.55,5.53,3.19,7.45,6.81,6.17,7.02,7.02,,,,,,,,,,,,,,
1799999992183567728,2027-01-15T07:59:52.183567728Z,-0.85,-1.06,-2.34,-1.28,2.13,2.55,1.28,4.68,3.62,5.96,5.53,6.81,7.02,8.30,,,,,,,,,,,,,,
1799999992190969653,2027-01-15T07:59:52.190969653Z,-0.43,1.70,-1.70,-1.91,2.77,1.91,1.49,4.04,2.98,2.98,4.47,8.09,5.96,9.57,,,,,,,,,,,,,,
1799999992198371577,2027-01-15T07:59:52.198371577Z,-0.43,2.77,-1.06,0.21,1.70,0.43,0.43,4.68,2.34,2.34,4.68,8.30,4.89,9.15,,,,,,,,,,,,,,
1799999992205773502,2027-01-15T07:59:52.205773502Z,0.43,1.70,0.00,0.64,0.64,-0.21,0.85,5.74,3.19,4.26,6.17,6.81,5.32,8.94,,,,,,,,,,,,,,
1799999992213175426,2027-01-15T07:59:52.213175426Z,0.85,0.00,0.64,0.21,0.43,1.06,2.98,4.89,4.04,5.53,6.60,5.11,5.53,8.51,,,,,,,,,,,,,,
1799999992220577351,2027-01-15T07:59:52.220577351Z,1.06,-2.34,-0.21,0.21,0.85,2.77,5.32,3.62,4.26,5.32,4.89,4.04,5.11,7.23,,,,,,,,,,,,,,
1799999992227979275,2027-01-15T07:59:52.227979275Z,0.00,-1.91,-1.06,0.00,1.49,4.26,4.47,2.55,4.26,4.89,2.34,4.68,4.89,5.96,,,,,,,,,,,,,,
1799999992235381200,2027-01-15T07:59:52.235381200Z,-0.21,0.43,-0.85,-0.64,2.34,2.98,1.28,2.55,4.26,5.32,1.06,5.74,5.96,6.81,,,,,,,,,,,,,,
1799999992242783124,2027-01-15T07:59:52.242783124Z,-0.64,-0.85,-0.21,-1.49,1.70,1.70,0.43,2.13,4.04,6.17,3.62,5.11,7.45,7.45,,,,,,,,,,,,,,
1799999992250185049,2027-01-15T07:59:52.250185049Z,-0.43,-2.55,-0.43,-1.70,0.43,3.19,2.34,1.28,2.98,5.32,5.96,5.74,7.66,6.17,,,,,,,,,,,,,,
1799999992257586973,2027-01-15T07:59:52.257586973Z,1.91,-0.64,-0.64,-1.91,0.43,3.40,2.55,2.77,2.77,4.47,6.17,7.23,6.60,6.81,,,,,,,,,,,,,,
1799999992264988898,2027-01-15T07:59:52.264988898Z,-0.43,1.49,-0.64,-0.64,1.91,1.06,1.06,4.26,4.26,5.11,6.38,7.66,5.96,8.30,,,,,,,,,,,,,,
1799999992272390822,2027-01-15T07:59:52.272390822Z,-0.85,0.43,-0.21,1.91,1.91,0.64,2.13,3.40,5.96,5.74,5.96,8.30,7.23,7.23,,,,,,,,,,,,,,
1799999992279792747,2027-01-15T07:59:52.279792747Z,-3.40,-2.34,-0.64,2.77,0.85,2.77,4.04,2.55,5.53,5.11,4.47,8.30,8.51,5.32,,,,,,,,,,,,,,
1799999992287194671,2027-01-15T07:59:52.287194671Z,1.28,-2.34,-2.13,1.91,0.85,3.40,3.62,2.13,3.40,4.47,4.04,6.17,6.81,5.74,,,,,,,,,,,,,,
1799999992294596596,2027-01-15T07:59:52.294596596Z,0.21,-0.21,-1.70,0.85,1.70,1.91,3.62,0.85,3.19,4.89,5.32,5.32,4.47,6.60,,,,,,,,,,,,,,
1799999992301998520,2027-01-15T07:59:52.301998520Z,-0.21,-0.43,0.21,-0.43,1.70,2.13,4.04,0.85,4.68,5.96,5.96,7.23,4.68,7.02,,,,,,,,,,,,,,
1799999992309400445,2027-01-15T07:59:52.309400445Z,-2.98,-1.91,-0.64,-0.64,0.85,2.77,3.40,2.77,3.83,6.60,5.96,7.66,5.32,7.87,,,,,,,,,,,,,,
1799999992316802369,2027-01-15T07:59:52.316802369Z,-3.40,-1.91,-1.70,0.64,-0.21,1.91,3.83,5.53,3.83,7.23,5.32,5.96,3.83,8.09,,,,,,,,,,,,,,
1799999992324204294,2027-01-15T07:59:52.324204294Z,-3.40,-0.64,-0.43,1.28,0.43,2.34,4.68,5.74,5.74,5.96,3.83,4.89,4.89,7.87,,,,,,,,,,,,,,
1799999992331606218,2027-01-15T07:59:52.331606218Z,-3.83,-0.21,0.00,1.06,1.70,2.77,3.40,2.13,4.47,3.19,3.83,5.53,7.45,7.02,,,,,,,,,,,,,,
1799999992339008143,2027-01-15T07:59:52.339008143Z,-0.64,-0.64,0.21,1.91,1.28,1.91,1.91,1.70,2.34,2.77,5.74,5.96,8.09,5.74,,,,,,,,,,,,,,
1799999992346410067,2027-01-15T07:59:52.346410067Z,0.00,0.00,2.55,2.13,-0.21,1.70,1.91,3.83,3.62,4.04,6.81,5.53,7.23,5.96,,,,,,,,,,,,,,
1799999992353811992,2027-01-15T07:59:52.353811992Z,1.49,-0.21,3.40,0.64,-0.64,2.34,2.77,2.55,5.32,3.83,6.17,5.74,6.81,7.45,,,,,,,,,,,,,,
1799999992361213916,2027-01-15T07:59:52.361213916Z,1.06,-1.49,1.70,-1.06,0.21,2.55,3.19,-0.43,4.68,2.98,5.96,6.60,6.17,8.94,,,,,,,,,,,,,,
1799999992368615841,2027-01-15T07:59:52.368615841Z,-3.19,-1.91,-1.28,-1.49,1.28,1.28,4.26,-1.28,3.40,2.98,6.38,7.45,4.89,8.51,,,,,,,,,,,,,,
1799999992376017765,2027-01-15T07:59:52.376017765Z,-3.19,-1.06,-3.40,0.64,1.70,0.00,4.26,2.34,4.26,3.62,6.38,7.45,4.47,7.02,,,,,,,,,,,,,,
1799999992383419690,2027-01-15T07:59:52.383419690Z,-2.34,-0.21,-2.13,2.13,1.49,0.85,3.40,4.68,7.02,3.40,5.96,7.02,6.38,7.45,,,,,,,,,,,,,,
1799999992390821614,2027-01-15T07:59:52.390821614Z,-1.91,-1.06,-0.21,1.28,2.34,2.77,3.19,3.40,7.02,4.26,6.81,7.02,7.66,8.94,,,,,,,,,,,,,,
1799999992398223539,2027-01-15T07:59:52.398223539Z,-4.47,-2.34,0.85,0.00,3.19,3.83,3.19,4.26,4.47,5.53,6.17,6.17,7.66,8.09,,,,,,,,,,,,,,
1799999992405625463,2027-01-15T07:59:52.405625463Z,-3.19,-1.06,1.06,-0.64,2.34,3.40,2.98,4.68,3.40,5.96,4.47,5.32,7.87,6.17,,,,,,,,,,,,,,
1799999992413027388,2027-01-15T07:59:52.413027388Z,-0.43,1.06,2.34,0.21,1.06,2.13,2.55,1.70,4.68,6.60,5.11,5.96,7.45,5.96,,,,,,,,,,,,,,
1799999992420429312,2027-01-15T07:59:52.420429312Z,0.00,1.06,2.98,1.06,1.28,1.70,3.40,0.00,4.68,7.02,6.81,6.60,7.23,6.81,,,,,,,,,,,,,,
1799999992427831237,2027-01-15T07:59:52.427831237Z,-0.43,1.28,0.85,0.43,1.70,2.55,4.68,2.34,4.04,5.53,6.38,7.02,7.02,5.96,,,,,,,,,,,,,,
1799999992435233161,2027-01-15T07:59:52.435233161Z,-0.21,1.91,-1.06,-0.64,1.70,3.62,4.89,4.89,4.68,3.83,5.32,7.23,6.81,5.96,,,,,,,,,,,,,,
1799999992442635086,2027-01-15T07:59:52.442635086Z,-3.83,1.28,-0.64,0.00,2.13,3.83,3.62,5.11,4.89,3.40,4.89,7.02,7.45,7.66,,,,,,,,,,,,,,
1799999992450037010,2027-01-15T07:59:52.450037010Z,0.00,1.70,-1.28,0.64,1.91,3.83,2.98,3.62,4.26,4.68,4.68,7.23,7.45,8.30,,,,,,,,,,,,,,
1799999992457438935,2027-01-15T07:59:52.457438935Z,0.43,1.06,-2.55,1.49,1.70,3.62,2.77,2.98,4.04,5.32,5.32,7.45,6.38,6.81,,,,,,,,,,,,,,
1799999992464840859,2027-01-15T07:59:52.464840859Z,-0.85,-0.64,-1.91,2.55,2.34,2.13,2.98,3.19,3.19,4.89,6.17,7.45,5.53,6.60,,,,,,,,,,,,,,
1799999992472242784,2027-01-15T07:59:52.472242784Z,-0.43,-0.64,0.00,1.49,1.91,1.06,3.83,2.13,2.98,5.74,6.17,7.45,5.96,7.45,,,,,,,,,,,,,,
1799999992479644708,2027-01-15T07:59:52.479644708Z,0.21,0.21,0.85,-0.43,0.85,1.70,3.19,3.19,4.26,5.74,6.81,7.66,6.81,7.23,,,,,,,,,,,,,,
1799999992487046633,2027-01-15T07:59:52.487046633Z,-0.21,0.00,0.64,-0.43,0.21,1.91,2.55,5.53,3.62,4.26,8.09,7.66,6.38,7.45,,,,,,,,,,,,,,
1799999992494448557,2027-01-15T07:59:52.494448557Z,-2.13,-1.06,0.43,0.00,0.43,1.49,4.47,6.60,1.70,4.04,7.45,7.23,5.74,8.30,,,,,,,,,,,,,,
1799999992501850482,2027-01-15T07:59:52.501850482Z,-0.64,-1.70,0.00,0.21,1.06,1.70,4.89,6.17,1.70,4.89,5.96,7.02,6.17,7.23,,,,,,,,,,,,,,
1799999992509252406,2027-01-15T07:59:52.509252406Z,0.43,-1.49,-0.21,0.64,1.49,2.13,2.98,6.17,3.40,5.53,4.89,7.02,6.60,5.96,,,,,,,,,,,,,,
1799999992516654331,2027-01-15T07:59:52.516654331Z,0.43,-0.85,-2.13,1.49,0.21,1.91,0.21,5.74,4.89,4.04,4.89,7.66,6.60,5.53,,,,,,,,,,,,,,
1799999992524056255,2027-01-15T07:59:52.524056255Z,0.43,0.43,-2.98,1.49,-1.49,0.85,0.21,4.89,5.74,2.55,4.89,6.60,5.53,7.45,,,,,,,,,,,,,,
1799999992531458180,2027-01-15T07:59:52.531458180Z,0.85,1.70,0.00,1.28,-0.43,0.21,3.40,4.47,6.81,3.62,4.47,3.83,5.53,8.09,,,,,,,,,,,,,,
1799999992538860104,2027-01-15T07:59:52.538860104Z,1.49,1.49,1.91,1.49,2.13,1.28,5.74,5.11,7.87,4.89,5.11,2.98,6.17,6.81,,,,,,,,,,,,,,
1799999992546262029,2027-01-15T07:59:52.546262029Z,1.06,0.64,0.85,1.49,2.13,2.77,4.89,5.11,7.45,5.32,5.32,4.68,5.96,5.96,,,,,,,,,,,,,,
1799999992553663953,2027-01-15T07:59:52.553663953Z,0.00,-0.43,0.43,1.49,0.43,2.55,3.19,3.83,7.02,4.89,4.89,5.74,6.38,5.74,,,,,,,,,,,,,,
1799999992561065878,2027-01-15T07:59:52.561065878Z,0.00,-1.91,-0.21,1.91,1.06,1.06,3.62,3.19,7.45,5.11,4.89,5.32,7.02,6.60,,,,,,,,,,,,,,
1799999992568467802,2027-01-15T07:59:52.568467802Z,-2.55,-2.77,-0.21,1.70,2.55,1.06,2.77,2.55,5.96,6.17,4.04,6.17,6.81,8.09,,,,,,,,,,,,,,
1799999992575869727,2027-01-15T07:59:52.575869727Z,-1.70,-1.91,2.13,0.64,1.06,1.06,0.64,2.13,4.26,5.74,3.19,6.17,6.81,7.66,,,,,,,,,,,,,,
1799999992583271651,2027-01-15T07:59:52.583271651Z,0.21,-1.70,3.40,0.64,-0.64,-0.21,0.64,2.55,2.77,3.83,4.26,4.68,6.38,5.96,,,,,,,,,,,,,,
1799999992590673576,2027-01-15T07:59:52.590673576Z,0.43,-2.34,2.13,0.85,0.64,0.21,2.98,2.98,2.98,3.62,5.96,4.26,4.68,6.81,,,,,,,,,,,,,,
1799999992598075500,2027-01-15T07:59:52.598075500Z,0.64,-1.91,1.70,-0.43,2.98,1.49,4.89,3.40,4.26,5.11,6.17,5.32,4.47,8.51,,,,,,,,,,,,,,
1799999992605477425,2027-01-15T07:59:52.605477425Z,-0.43,0.21,2.77,0.00,1.70,0.64,4.89,4.04,4.26,4.47,5.96,6.38,6.81,8.72,,,,,,,,,,,,,,
1799999992612879349,2027-01-15T07:59:52.612879349Z,-0.85,1.49,2.77,1.91,-0.85,0.21,4.89,5.32,3.40,3.40,5.53,6.60,8.51,8.94,,,,,,,,,,,,,,
1799999992620281274,2027-01-15T07:59:52.620281274Z,-3.40,-0.43,1.28,2.98,-1.06,1.91,3.83,5.74,4.47,4.26,4.47,5.96,7.02,9.79,,,,,,,,,,,,,,
1799999992627683198,2027-01-15T07:59:52.627683198Z,-0.43,-0.85,0.21,2.98,0.43,2.77,2.34,3.40,5.96,5.32,4.68,6.17,5.96,8.51,,,,,,,,,,,,,,
1799999992635085123,2027-01-15T07:59:52.635085123Z,0.43,0.64,0.64,2.55,1.06,2.34,1.49,2.55,6.17,4.89,5.96,6.38,7.45,6.38,,,,,,,,,,,,,,
1799999992642487047,2027-01-15T07:59:52.642487047Z,4.26,1.49,0.64,2.77,0.64,1.70,2.13,3.83,5.11,4.47,6.38,5.96,8.51,5.96,,,,,,,,,,,,,,
1799999992649888972,2027-01-15T07:59:52.649888972Z,3.19,0.21,0.00,3.19,0.64,1.28,2.98,4.47,3.40,4.47,6.17,5.53,8.09,6.81,,,,,,,,,,,,,,
1799999992657290896,2027-01-15T07:59:52.657290896Z,-2.13,-2.34,-2.13,2.34,1.28,1.70,4.04,3.62,1.91,4.89,5.74,5.53,7.23,6.17,,,,,,,,,,,,,,
1799999992664692821,2027-01-15T07:59:52.664692821Z,-2.98,-4.04,-3.40,0.85,1.70,2.98,3.62,2.34,2.98,4.47,5.32,6.60,6.60,4.68,,,,,,,,,,,,,,
1799999992672094745,2027-01-15T07:59:52.672094745Z,0.64,-1.70,-2.34,1.06,1.49,3.62,2.13,3.19,5.11,3.19,5.74,7.87,7.02,5.74,,,,,,,,,,,,,,
1799999992679496670,2027-01-15T07:59:52.679496670Z,-1.28,0.85,-1.70,1.06,1.70,2.13,2.13,3.62,4.89,3.83,5.53,8.09,6.81,8.51,,,,,,,,,,,,,,
1799999992686898594,2027-01-15T07:59:52.686898594Z,-1.70,0.85,-2.13,-0.64,1.91,1.06,3.62,2.77,3.19,5.32,4.04,6.38,5.53,9.15,,,,,,,,,,,,,,
1799999992694300519,2027-01-15T07:59:52.694300519Z,-1.91,0.00,-1.28,0.85,2.13,1.70,4.47,2.55,2.13,4.89,3.83,5.11,5.11,8.51,,,,,,,,,,,,,,
1799999992701702443,2027-01-15T07:59:52.701702443Z,0.64,0.00,-0.64,2.34,2.34,1.70,4.47,3.19,2.13,4.89,5.96,5.74,6.17,8.51,,,,,,,,,,,,,,
1799999992709104368,2027-01-15T07:59:52.709104368Z,0.43,-0.43,-0.64,0.64,2.34,1.70,4.04,2.77,1.28,5.53,7.66,7.23,7.02,7.66,,,,,,,,,,,,,,
1799999992716506292,2027-01-15T07:59:52.716506292Z,-3.62,-1.70,-1.28,0.64,2.13,2.77,1.70,2.55,1.91,5.32,6.81,6.38,7.45,7.87,,,,,,,,,,,,,,
1799999992723908217,2027-01-15T07:59:52.723908217Z,-4.89,-1.28,-2.34,1.70,1.70,2.77,1.91,2.13,4.47,4.26,5.74,4.89,8.51,8.94,,,,,,,,,,,,,,
1799999992731310141,2027-01-15T07:59:52.731310141Z,-1.91,-0.64,-2.34,0.64,2.77,1.49,5.11,1.06,6.81,3.19,5.96,5.53,8.09,8.72,,,,,,,,,,,,,,
1799999992738712066,2027-01-15T07:59:52.738712066Z,-2.13,-1.28,-1.28,-0.43,3.62,1.91,4.89,0.21,6.60,3.62,6.81,5.32,6.81,8.30,,,,,,,,,,,,,,
1799999992746113990,2027-01-15T07:59:52.746113990Z,-1.28,-0.64,-1.06,-0.21,2.34,3.19,1.49,0.64,4.26,3.83,6.60,4.68,6.17,8.94,,,,,,,,,,,,,,
1799999992753515915,2027-01-15T07:59:52.753515915Z,-0.64,0.21,-1.06,-1.49,1.28,2.55,1.49,1.06,2.13,1.91,6.17,5.96,6.81,8.09,,,,,,,,,,,,,,
1799999992760917839,2027-01-15T07:59:52.760917839Z,0.85,-0.21,-0.21,-2.34,2.13,1.49,3.40,0.64,1.70,1.91,6.60,7.02,6.38,7.66,,,,,,,,,,,,,,
1799999992768319764,2027-01-15T07:59:52.768319764Z,0.43,0.85,-0.85,-1.70,2.77,1.06,1.49,0.43,2.77,5.32,6.60,6.38,5.53,9.15,,,,,,,,,,,,,,
1799999992775721688,2027-01-15T07:59:52.775721688Z,-1.06,1.06,-2.34,-2.13,2.13,0.43,-0.64,1.91,3.83,7.23,5.11,6.17,5.74,8.51,,,,,,,,,,,,,,
1799999992783123613,2027-01-15T07:59:52.783123613Z,-3.40,0.43,-1.49,-2.34,1.70,0.00,0.00,2.77,4.26,6.17,4.68,6.81,5.96,6.60,,,,,,,,,,,,,,
1799999992790525537,2027-01-15T07:59:52.790525537Z,-2.98,0.43,0.64,-1.49,2.13,0.64,0.43,2.34,3.83,4.68,5.96,7.23,5.53,6.38,,,,,,,,,,,,,,
1799999992797927462,2027-01-15T07:59:52.797927462Z,-2.98,0.21,1.91,-0.64,2.13,1.70,1.06,2.55,3.40,5.32,7.02,6.81,4.89,7.23,,,,,,,,,,,,,,
1799999992805329386,2027-01-15T07:59:52.805329386Z,-5.32,-1.70,1.06,-0.43,1.28,1.91,1.91,4.47,2.98,6.38,6.38,6.17,5.96,7.87,,,,,,,,,,,,,,
1799999992812731311,2027-01-15T07:59:52.812731311Z,-1.91,-4.04,0.85,-1.49,0.21,0.64,2.77,5.11,2.13,5.53,5.11,5.32,7.87,7.45,,,,,,,,,,,,,,
1799999992820133235,2027-01-15T07:59:52.820133235Z,-1.49,-3.83,1.28,-2.77,0.43,0.64,2.55,3.19,1.70,4.47,4.47,4.68,8.09,8.09,,,,,,,,,,,,,,
1799999992827535160,2027-01-15T07:59:52.827535160Z,,-1.28,0.85,-1.70,2.13,0.21,1.49,1.49,2.34,5.32,4.89,7.23,6.17,7.87,,,,,,,,,,,,,,
1799999992834937084,2027-01-15T07:59:52.834937084Z,-1.49,-1.06,0.85,0.43,1.91,-1.28,1.49,2.13,3.19,5.74,5.53,10.00,5.11,6.81,,,,,,,,,,,,,,
1799999992842339009,2027-01-15T07:59:52.842339009Z,-1.70,-3.62,1.06,0.21,0.00,-0.21,2.98,3.62,3.62,4.89,3.83,8.72,6.38,6.81,,,,,,,,,,,,,,
1799999992849740933,2027-01-15T07:59:52.849740933Z,-4.26,-3.83,2.13,-0.43,0.00,1.49,3.62,3.62,3.62,4.04,1.49,6.81,8.09,7.45,,,,,,,,,,,,,,
1799999992857142858,2027-01-15T07:59:52.857142858Z,-2.98,-2.13,2.13,1.70,0.64,1.28,1.70,3.19,3.83,2.98,3.40,6.17,7.45,6.81,,,,,,,,,,,,,,
1799999992864544782,2027-01-15T07:59:52.864544782Z,-1.06,-1.28,0.00,2.13,-0.43,1.91,0.64,4.04,3.83,2.98,6.81,5.53,5.96,5.74,,,,,,,,,,,,,,
1799999992871946707,2027-01-15T07:59:52.871946707Z,-1.28,-0.43,-1.91,-0.85,0.64,3.83,2.34,3.19,3.62,4.26,7.66,5.53,5.74,6.17,,,,,,,,,,,,,,
1799999992879348631,2027-01-15T07:59:52.879348631Z,-3.19,0.21,-1.49,-2.34,2.55,4.26,3.19,1.70,3.62,5.11,6.81,6.17,6.38,7.45,,,,,,,,,,,,,,
1799999992886750556,2027-01-15T07:59:52.886750556Z,0.21,-0.85,-1.70,0.21,1.91,2.55,2.77,2.55,3.19,4.04,6.60,5.74,5.74,7.02,,,,,,,,,,,,,,
1799999992894152480,2027-01-15T07:59:52.894152480Z,0.21,-2.98,-2.34,1.70,0.85,1.06,4.26,4.04,2.77,2.55,6.60,5.74,6.60,5.53,,,,,,,,,,,,,,
1799999992901554405,2027-01-15T07:59:52.901554405Z,-3.19,-2.34,-1.91,0.64,1.28,1.49,5.11,3.40,3.83,2.77,5.11,8.09,7.45,5.74,,,,,,,,,,,,,,
1799999992908956329,2027-01-15T07:59:52.908956329Z,-1.28,0.21,-2.34,1.28,1.49,2.13,3.62,4.47,5.74,4.26,2.98,9.15,6.38,7.02,,,,,,,,,,,,,,
1799999992916358254,2027-01-15T07:59:52.916358254Z,-0.85,-0.21,-1.70,0.64,2.34,1.91,2.34,5.74,5.32,5.11,2.98,6.81,7.02,8.09,,,,,,,,,,,,,,
1799999992923760178,2027-01-15T07:59:52.923760178Z,0.21,-1.91,1.06,-0.64,3.19,1.91,2.77,3.83,4.04,4.89,5.74,4.68,9.15,8.30,,,,,,,,,,,,,,
1799999992931162103,2027-01-15T07:59:52.931162103Z,0.00,-1.91,2.77,0.00,2.55,2.55,4.04,1.70,3.83,5.11,7.66,5.11,9.15,7.23,,,,,,,,,,,,,,
1799999992938564027,2027-01-15T07:59:52.938564027Z,-0.85,-1.28,1.49,0.85,1.28,2.98,5.53,1.49,3.83,5.53,7.45,5.96,7.87,6.38,,,,,,,,,,,,,,
1799999992945965952,2027-01-15T07:59:52.945965952Z,-1.49,0.00,0.00,1.06,0.43,2.98,4.47,2.77,3.40,5.53,6.38,5.32,7.45,5.96,,,,,,,,,,,,,,
1799999992953367876,2027-01-15T07:59:52.953367876Z,-3.19,0.64,-0.43,0.00,1.70,2.55,1.28,4.04,2.77,5.32,5.11,3.83,8.30,6.81,,,,,,,,,,,,,,
1799999992960769801,2027-01-15T07:59:52.960769801Z,-2.77,0.00,-0.64,-0.85,2.34,2.34,-1.28,4.68,3.19,6.81,4.04,4.89,7.87,7.02,,,,,,,,,,,,,,
1799999992968171725,2027-01-15T07:59:52.968171725Z,-0.64,0.85,-1.91,0.00,0.85,1.91,-0.64,4.68,3.19,8.09,5.11,7.66,6.17,6.81,,,,,,,,,,,,,,
1799999992975573650,2027-01-15T07:59:52.975573650Z,-0.85,2.13,-1.28,1.28,0.64,2.34,-0.21,4.26,2.34,6.38,5.74,7.66,4.89,5.96,,,,,,,,,,,,,,
1799999992982975574,2027-01-15T07:59:52.982975574Z,-2.77,1.28,0.64,1.70,1.91,4.47,0.43,3.40,2.98,4.26,5.32,5.74,4.47,4.04,,,,,,,,,,,,,,
1799999992990377499,2027-01-15T07:59:52.990377499Z,-1.91,0.64,0.85,1.49,1.91,5.32,2.77,2.13,4.26,3.62,5.32,4.47,4.89,3.19,,,,,,,,,,,,,,
1799999992997779423,2027-01-15T07:59:52.997779423Z,2.77,0.21,-0.64,1.28,0.64,3.62,4.68,1.70,5.11,3.40,6.17,5.11,4.89,5.11,,,,,,,,,,,,,,
1799999993005181348,2027-01-15T07:59:53.005181348Z,2.77,-0.43,-0.43,1.06,0.00,2.34,4.04,2.34,3.19,4.04,5.74,6.17,4.89,6.60,,,,,,,,,,,,,,
1799999993012583272,2027-01-15T07:59:53.012583272Z,0.85,-0.85,1.28,0.43,0.85,2.13,3.62,2.34,0.64,4.89,4.89,5.96,5.74,6.38,,,,,,,,,,,,,,
1799999993019985197,2027-01-15T07:59:53.019985197Z,0.43,-1.49,0.64,-0.21,1.91,1.91,2.13,2.55,1.91,4.26,5.32,4.89,6.60,6.17,,,,,,,,,,,,,,
1799999993027387121,2027-01-15T07:59:53.027387121Z,-0.85,-0.21,-0.21,0.21,1.28,2.34,-0.43,3.62,5.11,3.40,5.11,4.47,6.60,7.02,,,,,,,,,,,,,,
1799999993034789046,2027-01-15T07:59:53.034789046Z,0.21,0.85,0.43,0.21,-0.64,2.55,-0.21,4.89,5.96,4.26,4.26,5.32,5.53,8.30,,,,,,,,,,,,,,
1799999993042190970,2027-01-15T07:59:53.042190970Z,0.00,0.00,0.21,-1.06,-1.06,1.91,0.85,4.26,4.47,5.11,4.68,6.60,5.32,9.57,,,,,,,,,,,,,,
1799999993049592895,2027-01-15T07:59:53.049592895Z,-0.43,-0.43,0.00,-2.13,0.64,1.49,-0.64,2.55,2.98,4.89,4.89,6.81,5.74,9.57,,,,,,,,,,,,,,
1799999993056994819,2027-01-15T07:59:53.056994819Z,-0.21,0.21,0.85,-1.28,1.28,1.49,-0.85,1.91,2.77,4.89,4.04,5.74,6.17,7.66,,,,,,,,,,,,,,
1799999993064396744,2027-01-15T07:59:53.064396744Z,1.49,-0.64,1.28,0.43,0.64,1.49,1.91,2.13,4.26,4.47,4.26,6.17,7.45,6.17,,,,,,,,,,,,,,
1799999993071798668,2027-01-15T07:59:53.071798668Z,0.00,-1.28,0.85,0.21,1.06,1.70,4.26,2.13,5.74,3.62,5.53,7.45,8.72,6.81,,,,,,,,,,,,,,
1799999993079200593,2027-01-15T07:59:53.079200593Z,-0.43,-1.06,0.43,-1.49,1.49,2.34,5.32,2.34,5.53,2.77,7.02,7.66,8.94,8.09,,,,,,,,,,,,,,
1799999993086602517,2027-01-15T07:59:53.086602517Z,0.00,0.00,1.28,-2.55,1.49,3.83,5.32,3.40,2.98,3.19,7.23,5.96,7.45,9.15,,,,,,,,,,,,,,
1799999993094004442,2027-01-15T07:59:53.094004442Z,0.00,0.43,1.06,-0.21,0.85,4.47,4.47,4.89,0.85,5.53,5.96,4.26,5.32,8.94,,,,,,,,,,,,,,
1799999993101406366,2027-01-15T07:59:53.101406366Z,0.00,-0.85,-1.28,1.28,0.85,2.13,4.26,4.26,2.55,6.38,4.89,4.89,5.96,8.09,,,,,,,,,,,,,,
1799999993108808291,2027-01-15T07:59:53.108808291Z,-0.85,-0.21,-3.19,0.00,1.06,1.06,4.26,2.77,5.11,4.89,4.68,5.96,8.09,8.09,,,,,,,,,,,,,,
1799999993116210215,2027-01-15T07:59:53.116210215Z,-0.43,1.28,-2.34,-0.64,1.70,2.55,4.26,3.40,4.68,5.53,4.89,6.60,7.66,8.51,,,,,,,,,,,,,,
1799999993123612140,2027-01-15T07:59:53.123612140Z,-0.43,0.64,-1.06,0.00,1.91,3.40,5.11,3.83,3.62,6.81,5.32,6.17,6.17,7.87,,,,,,,,,,,,,,
1799999993131014064,2027-01-15T07:59:53.131014064Z,0.00,-0.43,-0.21,0.21,1.06,2.34,5.74,2.13,2.77,5.96,6.38,5.11,7.23,7.02,,,,,,,,,,,,,,
1799999993138415989,2027-01-15T07:59:53.138415989Z,-0.21,0.64,-1.49,0.00,0.64,2.34,4.89,1.28,3.62,4.47,6.38,5.74,7.23,7.66,,,,,,,,,,,,,,
1799999993145817913,2027-01-15T07:59:53.145817913Z,-1.70,2.13,-2.34,1.06,1.49,1.49,2.77,2.77,4.68,5.11,4.89,7.45,4.26,9.15,,,,,,,,,,,,,,
1799999993153219838,2027-01-15T07:59:53.153219838Z,-1.06,1.28,-0.64,2.34,1.49,0.43,2.77,3.40,3.19,5.11,3.83,7.45,4.26,10.21,,,,,,,,,,,,,,
1799999993160621762,2027-01-15T07:59:53.160621762Z,-1.06,-0.21,0.21,1.49,0.85,2.13,4.68,2.34,2.34,3.83,4.68,5.74,7.66,9.36,,,,,,,,,,,,,,
1799999993168023687,2027-01-15T07:59:53.168023687Z,-0.43,0.21,-1.49,0.64,0.64,3.40,4.47,2.77,3.83,2.77,5.96,5.53,8.30,7.66,,,,,,,,,,,,,,
1799999993175425611,2027-01-15T07:59:53.175425611Z,-0.21,-1.06,-1.91,1.06,0.64,2.55,3.40,3.40,4.04,3.19,4.89,5.32,6.17,6.17,,,,,,,,,,,,,,
1799999993182827536,2027-01-15T07:59:53.182827536Z,0.43,-1.49,-0.21,0.85,1.06,2.55,4.26,2.34,3.62,4.26,4.89,4.04,5.32,4.89,,,,,,,,,,,,,,
1799999993190229460,2027-01-15T07:59:53.190229460Z,0.00,0.21,1.06,0.43,1.91,4.47,5.32,1.49,4.89,4.26,6.81,4.26,5.74,4.47,,,,,,,,,,,,,,
1799999993197631385,2027-01-15T07:59:53.197631385Z,-0.43,1.28,1.49,1.06,2.77,4.04,4.68,2.13,6.38,4.04,7.02,6.17,5.53,5.74,,,,,,,,,,,,,,
1799999993205033309,2027-01-15T07:59:53.205033309Z,0.00,1.49,2.34,1.28,2.55,0.85,2.98,2.13,6.38,4.68,5.32,7.45,5.11,7.23,,,,,,,,,,,,,,
1799999993212435234,2027-01-15T07:59:53.212435234Z,0.00,0.85,2.77,1.06,1.91,-0.85,1.49,1.91,5.74,4.68,4.68,7.02,5.96,7.45,,,,,,,,,,,,,,
1799999993219837158,2027-01-15T07:59:53.219837158Z,-0.21,-0.85,2.13,1.06,1.70,0.00,1.49,2.77,5.74,4.26,5.96,7.02,7.23,6.60,,,,,,,,,,,,,,
1799999993227239083,2027-01-15T07:59:53.227239083Z,,-3.83,0.00,0.43,1.70,1.91,2.55,2.55,5.11,4.04,7.02,8.09,7.23,6.60,,,,,,,,,,,,,,
1799999993234641007,2027-01-15T07:59:53.234641007Z,-1.70,-5.32,-0.43,-0.21,2.55,2.34,3.19,1.91,4.26,4.89,5.96,9.15,5.96,7.66,,,,,,,,,,,,,,
1799999993242042932,2027-01-15T07:59:53.242042932Z,-2.13,-1.91,1.28,0.43,3.19,0.43,2.55,3.62,4.26,4.68,2.77,8.30,6.17,7.87,,,,,,,,,,,,,,
1799999993249444856,2027-01-15T07:59:53.249444856Z,-3.40,1.91,0.00,1.49,1.70,0.21,2.77,4.68,3.83,3.19,2.13,7.23,7.66,6.60,,,,,,,,,,,,,,
1799999993256846781,2027-01-15T07:59:53.256846781Z,-3.40,1.06,-1.91,0.85,0.00,1.91,2.55,2.55,2.77,4.04,4.26,6.60,8.09,7.02,,,,,,,,,,,,,,
1799999993264248705,2027-01-15T07:59:53.264248705Z,-4.26,-1.28,-0.64,1.06,0.21,2.34,1.49,0.64,2.55,6.17,5.74,6.81,7.66,8.72,,,,,,,,,,,,,,
1799999993271650630,2027-01-15T07:59:53.271650630Z,-3.19,-0.21,0.85,1.91,1.91,2.13,1.06,1.06,3.83,6.17,5.96,7.02,7.45,8.51,,,,,,,,,,,,,,
1799999993279052554,2027-01-15T07:59:53.279052554Z,-2.13,-0.21,-0.21,0.64,2.55,2.55,1.49,1.91,3.83,5.32,6.17,6.60,6.60,7.45,,,,,,,,,,,,,,
1799999993286454479,2027-01-15T07:59:53.286454479Z,1.28,-2.55,-0.85,-0.21,1.70,2.34,0.64,2.77,3.62,4.89,5.96,6.38,6.60,6.81,,,,,,,,,,,,,,
1799999993293856403,2027-01-15T07:59:53.293856403Z,1.06,-3.19,0.21,0.64,1.70,2.34,0.43,3.83,4.68,4.68,6.81,6.60,7.45,6.38,,,,,,,,,,,,,,
1799999993301258328,2027-01-15T07:59:53.301258328Z,-0.43,-2.55,0.21,0.43,1.49,2.98,3.40,4.04,5.11,4.26,8.30,5.96,6.60,7.45,,,,,,,,,,,,,,
1799999993308660252,2027-01-15T07:59:53.308660252Z,-0.85,-3.19,-0.64,0.21,0.43,2.34,4.89,4.04,5.11,4.26,8.09,5.32,4.68,8.72,,,,,,,,,,,,,,
1799999993316062177,2027-01-15T07:59:53.316062177Z,-3.40,-2.77,-1.49,1.06,-0.21,1.28,2.98,5.11,4.89,4.68,6.60,4.89,3.40,8.51,,,,,,,,,,,,,,
1799999993323464101,2027-01-15T07:59:53.323464101Z,-4.26,-1.70,-1.70,1.06,0.43,1.28,2.55,4.89,3.83,4.89,5.11,3.83,4.68,8.72,,,,,,,,,,,,,,
1799999993330866026,2027-01-15T07:59:53.330866026Z,,-1.70,-1.06,-1.28,1.49,2.34,4.47,3.62,3.62,4.26,4.47,3.83,6.60,7.87,,,,,,,,,,,,,,
1799999993338267950,2027-01-15T07:59:53.338267950Z,-3.83,-1.70,-0.21,-2.34,2.55,1.91,4.04,3.40,4.47,3.83,4.68,5.53,8.09,6.38,,,,,,,,,,,,,,
1799999993345669875,2027-01-15T07:59:53.345669875Z,-1.91,-1.70,1.06,0.00,2.98,0.64,2.77,3.62,4.26,4.04,4.89,6.60,8.30,6.60,,,,,,,,,,,,,,
1799999993353071799,2027-01-15T07:59:53.353071799Z,-1.91,-2.98,2.55,0.85,2.55,1.49,2.77,2.55,2.77,3.62,5.11,5.53,7.02,7.23,,,,,,,,,,,,,,
1799999993360473724,2027-01-15T07:59:53.360473724Z,-2.34,-2.98,2.55,-0.43,2.34,3.40,3.40,1.49,2.34,3.40,5.32,4.68,5.74,7.45,,,,,,,,,,,,,,
1799999993367875648,2027-01-15T07:59:53.367875648Z,-2.55,-1.28,1.70,-1.06,2.34,4.89,3.83,1.28,3.19,3.83,5.32,4.68,5.53,7.87,,,,,,,,,,,,,,
1799999993375277573,2027-01-15T07:59:53.375277573Z,,-0.21,0.85,-0.64,1.49,4.68,4.47,1.91,4.26,4.47,5.32,4.68,6.17,8.94,,,,,,,,,,,,,,
1799999993382679497,2027-01-15T07:59:53.382679497Z,-1.49,-0.64,1.49,0.85,0.21,2.34,4.26,3.19,4.68,4.89,5.53,4.89,7.02,7.45,,,,,,,,,,,,,,
1799999993390081422,2027-01-15T07:59:53.390081422Z,-1.06,1.28,2.55,2.34,0.21,0.21,2.98,2.98,4.47,5.11,5.74,5.96,7.02,4.89,,,,,,,,,,,,,,
1799999993397483346,2027-01-15T07:59:53.397483346Z,-0.85,4.04,1.28,3.19,1.28,1.06,2.34,1.91,4.04,5.53,5.32,6.81,6.81,4.47,,,,,,,,,,,,,,
1799999993404885271,2027-01-15T07:59:53.404885271Z,1.06,2.55,0.21,2.13,1.28,2.55,1.49,2.77,3.19,5.53,4.89,5.32,7.02,5.32,,,,,,,,,,,,,,
1799999993412287195,2027-01-15T07:59:53.412287195Z,1.70,0.00,0.85,1.06,1.28,1.91,0.64,3.62,2.98,5.11,5.11,4.04,6.60,5.96,,,,,,,,,,,,,,
1799999993419689120,2027-01-15T07:59:53.419689120Z,-1.70,0.43,0.85,1.06,2.55,1.91,1.28,3.40,3.83,4.68,3.83,5.74,6.17,6.81,,,,,,,,,,,,,,
1799999993427091044,2027-01-15T07:59:53.427091044Z,-1.91,0.64,1.06,1.06,1.70,2.77,2.55,3.40,4.26,4.47,2.55,7.45,5.74,7.23,,,,,,,,,,,,,,
1799999993434492969,2027-01-15T07:59:53.434492969Z,-2.13,-0.85,0.00,0.00,0.00,2.77,2.77,3.83,3.83,5.32,3.40,6.17,5.11,6.38,,,,,,,,,,,,,,
1799999993441894893,2027-01-15T07:59:53.441894893Z,-1.91,-0.64,-1.49,0.21,1.49,1.91,1.49,2.98,4.04,5.74,4.47,5.74,5.11,6.81,,,,,,,,,,,,,,
1799999993449296818,2027-01-15T07:59:53.449296818Z,0.00,0.85,-1.06,1.06,2.98,1.49,0.64,2.34,5.11,4.47,4.89,8.30,4.68,8.09,,,,,,,,,,,,,,
1799999993456698742,2027-01-15T07:59:53.456698742Z,0.21,1.49,-2.34,1.28,0.00,2.34,1.91,3.40,6.38,3.83,4.89,8.72,4.04,8.30,,,,,,,,,,,,,,
1799999993464100667,2027-01-15T07:59:53.464100667Z,,0.43,-3.19,1.06,-2.34,3.19,3.40,3.62,6.38,4.04,4.04,6.60,5.32,7.02,,,,,,,,,,,,,,
1799999993471502591,2027-01-15T07:59:53.471502591Z,0.21,-1.49,-1.49,0.64,0.21,2.77,4.04,2.77,4.89,2.77,4.04,5.74,6.81,7.45,,,,,,,,,,,,,,
1799999993478904516,2027-01-15T07:59:53.478904516Z,0.43,-2.34,-0.43,1.06,2.77,1.49,3.40,2.98,4.04,2.55,6.38,6.38,7.87,9.15,,,,,,,,,,,,,,
1799999993486306440,2027-01-15T07:59:53.486306440Z,1.28,-0.21,-0.21,2.13,1.28,0.85,2.13,3.19,4.68,4.47,7.45,6.17,7.87,8.51,,,,,,,,,,,,,,
1799999993493708365,2027-01-15T07:59:53.493708365Z,1.06,-0.21,-0.21,1.06,-0.21,1.28,3.40,2.55,5.11,5.32,4.89,6.17,6.81,6.81,,,,,,,,,,,,,,
1799999993501110289,2027-01-15T07:59:53.501110289Z,0.21,-2.13,-0.85,0.21,0.21,1.28,5.32,2.13,4.26,4.26,2.55,7.23,6.60,6.81,,,,,,,,,,,,,,
1799999993508512214,2027-01-15T07:59:53.508512214Z,0.64,-3.62,-1.28,1.70,1.06,0.85,5.53,1.70,3.40,3.62,2.55,8.09,7.45,8.09,,,,,,,,,,,,,,
1799999993515914138,2027-01-15T07:59:53.515914138Z,2.98,-2.98,-1.49,3.19,1.91,1.06,4.47,2.77,3.62,4.47,4.68,8.72,8.30,9.15,,,,,,,,,,,,,,
1799999993523316063,2027-01-15T07:59:53.523316063Z,-0.21,-1.28,-1.70,1.91,1.91,1.91,3.62,5.11,4.89,5.96,7.23,7.66,7.45,8.51,,,,,,,,,,,,,,
1799999993530717987,2027-01-15T07:59:53.530717987Z,-0.85,-1.70,-2.34,-0.85,0.85,2.77,4.04,5.74,4.68,5.32,7.45,6.17,5.96,7.23,,,,,,,,,,,,,,
1799999993538119912,2027-01-15T07:59:53.538119912Z,-1.49,-2.77,-3.19,-1.06,1.06,1.91,4.68,3.40,2.98,3.62,5.74,5.96,5.32,6.81,,,,,,,,,,,,,,
1799999993545521836,2027-01-15T07:59:53.545521836Z,-0.85,-0.85,-3.83,-0.43,1.91,1.28,5.11,1.70,1.49,4.04,4.04,7.02,6.17,7.23,,,,,,,,,,,,,,
1799999993552923761,2027-01-15T07:59:53.552923761Z,0.43,0.64,-3.40,-0.43,1.49,1.06,4.68,2.55,1.28,5.53,2.98,7.02,6.60,7.02,,,,,,,,,,,,,,
1799999993560325685,2027-01-15T07:59:53.560325685Z,-0.21,-0.43,-2.13,0.21,0.64,0.64,3.19,3.19,2.13,5.53,4.47,6.60,6.17,6.81,,,,,,,,,,,,,,
1799999993567727610,2027-01-15T07:59:53.567727610Z,-3.19,0.64,-0.64,0.64,0.21,2.13,1.70,2.77,3.19,5.32,6.38,6.81,5.11,6.17,,,,,,,,,,,,,,
1799999993575129534,2027-01-15T07:59:53.575129534Z,-0.43,1.91,0.64,1.28,-0.85,4.04,1.91,3.62,3.62,7.45,6.81,6.38,4.47,4.04,,,,,,,,,,,,,,
1799999993582531459,2027-01-15T07:59:53.582531459Z,-0.43,-0.21,0.43,2.34,-1.06,4.68,1.91,4.04,4.26,7.87,7.87,5.74,5.53,4.47,,,,,,,,,,,,,,
1799999993589933383,2027-01-15T07:59:53.589933383Z,-0.64,-1.06,-1.06,1.06,1.28,3.62,0.64,2.77,5.53,4.89,8.94,6.17,7.45,7.87,,,,,,,,,,,,,,
1799999993597335308,2027-01-15T07:59:53.597335308Z,0.00,0.64,-1.70,-1.49,2.98,2.98,1.28,3.40,5.53,4.26,7.02,6.17,9.36,8.72,,,,,,,,,,,,,,
1799999993604737232,2027-01-15T07:59:53.604737232Z,0.21,0.00,-0.64,-0.64,2.13,2.55,2.98,4.68,4.47,5.74,4.47,4.68,10.00,6.17,,,,,,,,,,,,,,
1799999993612139157,2027-01-15T07:59:53.612139157Z,-0.21,-2.77,-0.64,1.49,1.70,0.64,2.98,3.19,3.40,4.68,3.83,5.11,9.15,5.96,,,,,,,,,,,,,,
1799999993619541081,2027-01-15T07:59:53.619541081Z,-4.68,-2.55,-1.49,1.91,2.34,-0.85,1.70,1.70,2.34,3.40,4.26,6.81,7.23,7.66,,,,,,,,,,,,,,
1799999993626943006,2027-01-15T07:59:53.626943006Z,0.21,-0.21,-0.64,2.34,0.85,0.21,0.64,2.55,2.98,4.68,3.83,7.02,6.17,8.30,,,,,,,,,,,,,,
1799999993634344930,2027-01-15T07:59:53.634344930Z,-0.21,-1.28,0.21,3.19,0.43,1.49,1.06,2.98,4.68,5.74,5.11,5.74,7.23,7.66,,,,,,,,,,,,,,
1799999993641746855,2027-01-15T07:59:53.641746855Z,-0.64,-2.34,0.00,2.98,1.70,0.85,2.77,1.70,5.32,5.11,6.81,4.89,7.23,7.66,,,,,,,,,,,,,,
1799999993649148779,2027-01-15T07:59:53.649148779Z,-0.64,-1.06,0.00,2.55,3.19,0.00,4.26,0.21,4.04,4.04,7.45,4.68,5.74,7.66,,,,,,,,,,,,,,
1799999993656550704,2027-01-15T07:59:53.656550704Z,0.43,0.64,0.00,1.49,1.49,0.85,5.11,1.70,2.98,2.77,7.02,4.26,4.04,7.66,,,,,,,,,,,,,,
1799999993663952628,2027-01-15T07:59:53.663952628Z,-0.43,0.00,-0.64,0.00,-1.70,2.77,5.11,5.11,3.40,2.98,6.38,5.11,4.68,6.81,,,,,,,,,,,,,,
1799999993671354553,2027-01-15T07:59:53.671354553Z,-4.68,-2.77,-1.91,-0.85,-0.85,3.62,5.96,6.38,4.04,4.26,6.81,6.60,7.23,5.96,,,,,,,,,,,,,,
1799999993678756477,2027-01-15T07:59:53.678756477Z,-2.77,-3.19,-1.91,0.21,2.34,2.98,5.74,5.11,4.26,4.89,5.96,6.17,8.30,5.32,,,,,,,,,,,,,,
1799999993686158402,2027-01-15T07:59:53.686158402Z,0.85,-1.06,-1.06,1.70,1.91,1.70,4.89,3.83,5.32,4.26,4.89,5.32,7.87,5.53,,,,,,,,,,,,,,
1799999993693560326,2027-01-15T07:59:53.693560326Z,0.43,-0.21,-1.70,0.64,-0.43,0.85,4.04,2.98,4.89,3.83,4.89,6.17,7.45,7.02,,,,,,,,,,,,,,
1799999993700962251,2027-01-15T07:59:53.700962251Z,-3.19,-1.49,-1.91,-1.06,0.00,2.34,2.98,2.77,3.19,3.62,5.32,5.96,7.66,7.45,,,,,,,,,,,,,,
1799999993708364175,2027-01-15T07:59:53.708364175Z,-0.43,-0.85,-1.28,-0.21,1.70,4.47,2.34,2.77,3.83,5.11,5.96,5.74,7.02,6.38,,,,,,,,,,,,,,
1799999993715766100,2027-01-15T07:59:53.715766100Z,0.43,-0.85,-0.64,0.64,1.91,3.83,3.19,4.04,5.11,6.38,7.23,6.38,6.17,7.45,,,,,,,,,,,,,,
1799999993723168024,2027-01-15T07:59:53.723168024Z,-0.85,-2.77,0.43,-1.06,1.70,2.13,3.40,5.53,4.47,5.74,8.09,6.17,5.74,8.94,,,,,,,,,,,,,,
1799999993730569949,2027-01-15T07:59:53.730569949Z,-2.98,-1.91,0.64,-1.49,2.13,2.77,3.40,4.68,4.04,5.32,7.02,5.74,5.96,7.66,,,,,,,,,,,,,,
1799999993737971873,2027-01-15T07:59:53.737971873Z,-3.40,0.21,0.21,1.49,1.91,4.04,3.83,2.77,4.04,5.32,4.26,5.53,5.53,6.81,,,,,,,,,,,,,,
1799999993745373798,2027-01-15T07:59:53.745373798Z,-1.28,0.43,-0.21,3.40,1.91,3.40,4.04,2.13,3.62,4.89,2.34,4.68,5.53,8.30,,,,,,,,,,,,,,
1799999993752775722,2027-01-15T07:59:53.752775722Z,-0.85,-0.21,-1.28,0.64,2.34,2.55,3.62,2.77,4.68,6.38,4.04,5.74,7.45,8.51,,,,,,,,,,,,,,
1799999993760177647,2027-01-15T07:59:53.760177647Z,0.00,0.64,-0.85,-1.49,2.13,1.91,2.34,3.83,4.89,6.81,7.45,7.87,7.87,7.02,,,,,,,,,,,,,,
1799999993767579571,2027-01-15T07:59:53.767579571Z,0.21,1.28,1.70,-0.21,2.55,0.85,1.06,4.04,2.55,4.04,7.87,8.72,5.53,6.17,,,,,,,,,,,,,,
1799999993774981496,2027-01-15T07:59:53.774981496Z,0.43,-0.43,1.91,0.43,2.77,1.49,1.70,2.98,1.06,3.83,5.11,8.09,4.04,7.23,,,,,,,,,,,,,,
1799999993782383420,2027-01-15T07:59:53.782383420Z,0.21,-1.49,0.00,-1.06,1.91,2.98,2.34,2.34,1.70,5.53,3.83,7.02,5.53,8.30,,,,,,,,,,,,,,
1799999993789785345,2027-01-15T07:59:53.789785345Z,,-0.85,-0.85,-2.34,1.49,4.47,1.91,3.40,2.55,5.11,4.89,6.17,6.81,8.51,,,,,,,,,,,,,,
1799999993797187269,2027-01-15T07:59:53.797187269Z,0.21,0.43,0.00,-1.06,1.28,4.04,1.70,5.53,3.19,2.77,6.17,5.96,8.09,8.09,,,,,,,,,,,,,,
1799999993804589194,2027-01-15T07:59:53.804589194Z,0.43,0.85,1.49,1.28,1.49,1.91,2.34,6.17,4.26,1.70,5.11,6.17,8.94,7.87,,,,,,,,,,,,,,
1799999993811991118,2027-01-15T07:59:53.811991118Z,-1.06,-1.06,1.28,0.43,1.06,1.06,2.34,3.62,5.74,4.68,2.77,5.53,8.94,8.09,,,,,,,,,,,,,,
1799999993819393043,2027-01-15T07:59:53.819393043Z,-2.13,-2.13,0.00,-0.43,1.06,2.55,1.91,1.28,5.32,6.60,3.62,5.53,8.30,7.23,,,,,,,,,,,,,,
1799999993826794967,2027-01-15T07:59:53.826794967Z,1.49,-0.85,0.00,2.13,1.49,2.77,2.34,1.49,3.40,5.32,6.38,6.81,8.51,6.60,,,,,,,,,,,,,,
1799999993834196892,2027-01-15T07:59:53.834196892Z,-1.28,-1.06,1.06,2.55,1.28,1.28,2.77,2.55,2.77,3.19,6.60,7.02,8.30,7.23,,,,,,,,,,,,,,
1799999993841598816,2027-01-15T07:59:53.841598816Z,-1.91,-2.13,1.49,-0.21,2.13,0.43,2.13,3.62,2.34,4.26,5.11,6.81,6.17,8.30,,,,,,,,,,,,,,
1799999993849000741,2027-01-15T07:59:53.849000741Z,-2.77,-1.28,1.49,-0.21,2.77,0.85,1.28,4.26,1.70,7.45,5.11,7.45,4.89,8.72,,,,,,,,,,,,,,
1799999993856402665,2027-01-15T07:59:53.856402665Z,-1.49,-0.21,0.00,1.49,1.70,1.28,1.70,4.04,3.19,9.36,6.38,6.60,6.60,9.15,,,,,,,,,,,,,,
1799999993863804590,2027-01-15T07:59:53.863804590Z,0.85,0.21,-0.85,0.85,1.06,1.06,2.98,4.68,4.04,7.87,7.02,5.74,7.66,8.09,,,,,,,,,,,,,,
1799999993871206514,2027-01-15T07:59:53.871206514Z,1.28,1.70,0.21,-0.64,1.91,0.64,3.62,4.04,1.70,6.17,6.17,6.17,6.17,6.38,,,,,,,,,,,,,,
1799999993878608439,2027-01-15T07:59:53.878608439Z,-0.21,2.34,0.21,-0.64,1.91,1.91,3.83,2.55,1.28,5.74,6.17,5.53,5.96,7.02,,,,,,,,,,,,,,
1799999993886010363,2027-01-15T07:59:53.886010363Z,-0.43,1.91,-1.49,0.43,0.64,2.98,4.04,2.34,3.62,3.83,6.17,4.89,7.23,8.30,,,,,,,,,,,,,,
1799999993893412288,2027-01-15T07:59:53.893412288Z,0.43,0.43,-0.85,0.85,-1.06,2.13,4.26,2.13,4.89,2.55,5.32,5.53,6.60,8.94,,,,,,,,,,,,,,
1799999993900814212,2027-01-15T07:59:53.900814212Z,-2.13,-0.43,1.49,1.49,0.43,1.91,4.47,1.91,4.47,3.83,5.11,5.53,5.32,10.43,,,,,,,,,,,,,,
1799999993908216137,2027-01-15T07:59:53.908216137Z,-2.34,0.21,2.13,2.34,2.77,3.19,3.62,2.98,4.47,4.26,5.11,4.68,5.53,10.85,,,,,,,,,,,,,,
1799999993915618061,2027-01-15T07:59:53.915618061Z,-2.13,0.21,2.34,2.98,2.55,2.77,2.77,3.40,3.62,2.98,5.32,4.89,5.11,8.72,,,,,,,,,,,,,,
1799999993923019986,2027-01-15T07:59:53.923019986Z,-0.64,0.00,4.04,3.19,1.70,1.49,3.40,2.55,2.34,3.19,6.81,5.53,5.32,7.02,,,,,,,,,,,,,,
1799999993930421910,2027-01-15T07:59:53.930421910Z,-0.43,-0.43,4.04,2.34,2.77,1.70,3.83,2.98,1.91,4.68,7.45,5.96,6.38,6.60,,,,,,,,,,,,,,
1799999993937823835,2027-01-15T07:59:53.937823835Z,1.06,-1.28,2.13,1.06,3.19,1.70,3.40,3.83,2.34,6.17,5.74,5.96,7.02,6.60,,,,,,,,,,,,,,
1799999993945225759,2027-01-15T07:59:53.945225759Z,2.55,-2.34,-0.43,0.21,1.70,0.64,2.77,3.62,3.40,7.45,2.77,5.96,7.02,6.60,,,,,,,,,,,,,,
1799999993952627684,2027-01-15T07:59:53.952627684Z,3.19,-1.70,-1.49,1.06,0.43,0.00,2.77,2.77,3.83,6.81,1.28,5.96,5.53,5.74,,,,,,,,,,,,,,
1799999993960029608,2027-01-15T07:59:53.960029608Z,-2.13,-0.85,-0.64,1.06,1.49,1.28,1.91,3.40,3.19,4.47,4.04,6.38,4.26,5.74,,,,,,,,,,,,,,
1799999993967431533,2027-01-15T07:59:53.967431533Z,-2.34,-0.43,-0.43,0.85,1.70,1.70,0.43,3.62,3.40,3.40,6.60,6.17,5.32,7.02,,,,,,,,,,,,,,
1799999993974833457,2027-01-15T07:59:53.974833457Z,0.21,0.64,0.21,2.98,0.43,0.64,0.85,3.19,4.68,4.47,7.02,5.53,7.45,7.66,,,,,,,,,,,,,,
1799999993982235382,2027-01-15T07:59:53.982235382Z,0.21,0.00,0.64,3.19,-0.43,0.43,2.34,4.47,4.04,5.74,7.02,5.96,8.30,7.87,,,,,,,,,,,,,,
1799999993989637306,2027-01-15T07:59:53.989637306Z,0.43,-1.06,0.21,0.21,0.21,1.28,1.70,5.53,1.91,6.60,6.81,6.17,7.45,9.15,,,,,,,,,,,,,,
1799999993997039231,2027-01-15T07:59:53.997039231Z,-1.28,-0.21,-0.85,-1.28,0.64,2.55,1.06,4.68,2.98,5.32,5.53,5.11,6.60,9.36,,,,,,,,,,,,,,
1799999994004441155,2027-01-15T07:59:54.004441155Z,-2.55,-0.43,0.00,0.43,0.64,2.34,1.70,2.98,6.38,2.98,4.68,4.89,5.74,7.87,,,,,,,,,,,,,,
1799999994011843080,2027-01-15T07:59:54.011843080Z,-1.06,-1.06,1.70,1.06,0.21,1.49,1.06,1.91,7.66,2.13,4.89,6.38,6.81,7.87,,,,,,,,,,,,,,
1799999994019245004,2027-01-15T07:59:54.019245004Z,0.21,0.43,1.91,-0.43,0.64,2.13,-0.43,2.55,4.47,2.98,5.74,7.02,7.87,8.94,,,,,,,,,,,,,,
1799999994026646929,2027-01-15T07:59:54.026646929Z,-0.43,2.13,1.06,-0.43,2.13,3.19,-1.91,2.98,1.28,3.19,6.38,6.60,7.02,7.23,,,,,,,,,,,,,,
1799999994034048853,2027-01-15T07:59:54.034048853Z,-0.85,1.91,1.70,0.64,2.55,2.55,-2.55,2.13,2.77,3.40,5.32,6.81,6.60,5.32,,,,,,,,,,,,,,
1799999994041450778,2027-01-15T07:59:54.041450778Z,-2.55,0.85,1.06,0.21,1.28,1.49,-0.43,1.91,5.32,3.40,4.26,7.45,7.66,5.96,,,,,,,,,,,,,,
1799999994048852702,2027-01-15T07:59:54.048852702Z,-1.28,-0.43,-0.85,-0.64,0.21,2.13,1.70,3.62,4.47,3.62,5.11,6.38,7.45,6.17,,,,,,,,,,,,,,
1799999994056254627,2027-01-15T07:59:54.056254627Z,-2.13,-1.91,-1.70,-0.43,-0.85,2.55,2.77,4.47,2.98,4.26,5.11,6.38,5.53,6.38,,,,,,,,,,,,,,
1799999994063656551,2027-01-15T07:59:54.063656551Z,-4.47,-0.64,-1.70,0.43,-0.43,1.49,3.40,2.77,3.83,4.47,3.83,8.51,4.68,7.66,,,,,,,,,,,,,,
1799999994071058476,2027-01-15T07:59:54.071058476Z,-2.98,1.28,-2.77,0.43,1.06,1.06,4.26,1.28,5.32,4.89,3.83,9.79,5.96,8.72,,,,,,,,,,,,,,
1799999994078460400,2027-01-15T07:59:54.078460400Z,-1.49,2.13,-3.40,0.00,2.55,1.49,4.68,1.49,5.53,5.74,5.11,8.72,7.23,8.72,,,,,,,,,,,,,,
1799999994085862325,2027-01-15T07:59:54.085862325Z,-1.70,0.85,-2.13,0.64,2.77,1.70,2.98,2.34,4.04,5.11,5.11,7.02,7.87,8.30,,,,,,,,,,,,,,
1799999994093264249,2027-01-15T07:59:54.093264249Z,-1.91,-0.64,0.21,0.85,1.91,1.06,0.43,3.19,2.98,3.19,3.40,6.17,6.38,7.23,,,,,,,,,,,,,,
1799999994100666174,2027-01-15T07:59:54.100666174Z,-3.83,0.00,-0.21,-0.43,2.55,2.13,-0.43,2.98,4.04,2.98,3.83,6.81,5.11,6.60,,,,,,,,,,,,,,
1799999994108068098,2027-01-15T07:59:54.108068098Z,-2.13,1.06,-1.91,0.21,3.19,4.04,0.64,2.77,4.04,5.11,7.02,6.60,5.96,7.02,,,,,,,,,,,,,,
1799999994115470023,2027-01-15T07:59:54.115470023Z,-2.13,0.43,-1.91,0.64,2.55,4.26,1.91,3.19,3.62,5.11,7.45,5.96,7.23,7.87,,,,,,,,,,,,,,
1799999994122871947,2027-01-15T07:59:54.122871947Z,-2.55,-0.85,-1.06,-1.28,1.70,2.98,2.55,4.04,5.96,3.19,5.53,6.38,7.02,7.66,,,,,,,,,,,,,,
1799999994130273872,2027-01-15T07:59:54.130273872Z,-0.85,-1.49,-1.49,-0.43,1.49,2.34,2.13,4.89,6.38,3.62,6.17,7.02,5.96,8.51,,,,,,,,,,,,,,
1799999994137675796,2027-01-15T07:59:54.137675796Z,-0.43,-0.64,-2.77,2.13,1.49,2.77,1.91,5.32,2.77,5.53,5.96,5.96,6.38,8.72,,,,,,,,,,,,,,
1799999994145077721,2027-01-15T07:59:54.145077721Z,-1.06,-0.21,-2.13,2.13,1.06,3.19,1.91,4.47,1.06,4.89,2.13,4.47,7.23,6.81,,,,,,,,,,,,,,
1799999994152479645,2027-01-15T07:59:54.152479645Z,-1.70,-1.06,0.21,0.21,0.64,2.98,2.77,3.40,3.19,2.77,1.49,6.17,5.96,5.74,,,,,,,,,,,,,,
1799999994159881570,2027-01-15T07:59:54.159881570Z,-2.55,-1.28,0.43,-0.64,1.49,3.40,3.62,2.34,4.89,3.40,5.53,7.87,5.11,6.17,,,,,,,,,,,,,,
1799999994167283494,2027-01-15T07:59:54.167283494Z,0.64,-1.28,-1.91,0.21,1.49,3.62,2.55,2.34,5.32,4.89,7.23,5.53,6.60,5.53,,,,,,,,,,,,,,
1799999994174685419,2027-01-15T07:59:54.174685419Z,-0.64,-2.77,-2.13,0.21,0.64,2.55,0.64,3.19,4.26,4.89,5.74,4.04,7.02,5.32,,,,,,,,,,,,,,
1799999994182087343,2027-01-15T07:59:54.182087343Z,0.00,-2.98,0.21,-1.06,1.70,1.70,1.70,2.98,3.40,4.68,6.81,6.17,5.74,7.66,,,,,,,,,,,,,,
1799999994189489268,2027-01-15T07:59:54.189489268Z,0.00,-1.49,1.91,-1.06,1.49,2.13,4.26,2.13,4.89,3.62,8.09,7.87,5.74,9.57,,,,,,,,,,,,,,
1799999994196891192,2027-01-15T07:59:54.196891192Z,-0.43,-0.21,1.28,1.06,-0.43,1.70,4.89,3.40,6.38,1.70,7.23,7.02,6.81,8.94,,,,,,,,,,,,,,
1799999994204293117,2027-01-15T07:59:54.204293117Z,-2.13,0.43,-0.21,1.49,0.21,1.06,2.98,5.32,5.74,1.49,7.23,6.17,7.45,7.66,,,,,,,,,,,,,,
1799999994211695041,2027-01-15T07:59:54.211695041Z,-2.34,0.21,-1.49,-0.21,1.70,1.49,1.70,5.32,4.68,3.19,8.30,5.96,7.23,7.02,,,,,,,,,,,,,,
1799999994219096966,2027-01-15T07:59:54.219096966Z,-2.13,-0.21,-2.13,-1.70,1.49,2.34,1.91,4.47,4.68,4.68,8.51,5.53,6.81,7.02,,,,,,,,,,,,,,
1799999994226498890,2027-01-15T07:59:54.226498890Z,0.00,0.00,-1.06,-1.49,0.64,2.55,3.62,3.40,4.47,5.32,7.02,5.11,6.38,7.45,,,,,,,,,,,,,,
1799999994233900815,2027-01-15T07:59:54.233900815Z,0.43,0.64,0.64,-0.21,0.85,2.13,5.32,2.77,3.40,5.74,4.68,5.53,7.02,6.38,,,,,,,,,,,,,,
1799999994241302739,2027-01-15T07:59:54.241302739Z,-1.06,-1.28,0.64,-0.64,1.91,2.98,4.26,3.19,2.34,6.17,4.26,6.60,6.60,4.47,,,,,,,,,,,,,,
1799999994248704664,2027-01-15T07:59:54.248704664Z,-1.28,-2.55,-0.85,-1.28,1.28,3.40,1.91,3.40,2.55,4.68,6.17,6.81,4.47,4.89,,,,,,,,,,,,,,
1799999994256106588,2027-01-15T07:59:54.256106588Z,-0.64,-1.28,-1.70,-0.85,1.06,1.91,1.70,3.83,3.40,3.40,6.38,6.38,4.04,7.45,,,,,,,,,,,,,,
1799999994263508513,2027-01-15T07:59:54.263508513Z,-0.43,-0.64,-0.64,-0.43,1.06,1.06,2.98,4.47,4.26,4.26,3.83,6.38,5.53,8.94,,,,,,,,,,,,,,
1799999994270910437,2027-01-15T07:59:54.270910437Z,-2.77,-1.49,0.85,0.21,0.21,1.91,2.98,3.40,4.26,4.04,2.55,6.17,5.11,8.09,,,,,,,,,,,,,,
1799999994278312362,2027-01-15T07:59:54.278312362Z,-1.91,-1.70,0.21,0.21,0.43,1.28,1.70,1.91,4.26,2.55,4.26,5.32,4.68,6.60,,,,,,,,,,,,,,
1799999994285714286,2027-01-15T07:59:54.285714286Z,-1.70,-0.64,-0.43,-0.43,1.06,0.85,2.13,0.85,4.89,3.19,5.32,4.89,5.74,6.60,,,,,,,,,,,,,,
1799999994293116211,2027-01-15T07:59:54.293116211Z,-1.49,-1.28,0.21,-0.85,1.06,2.34,3.19,0.64,5.74,3.83,4.89,5.96,6.17,8.09,,,,,,,,,,,,,,
1799999994300518135,2027-01-15T07:59:54.300518135Z,-3.40,-2.13,-0.21,-1.28,1.49,2.98,2.34,1.49,5.53,2.98,4.47,7.02,6.81,6.60,,,,,,,,,,,,,,
1799999994307920060,2027-01-15T07:59:54.307920060Z,-2.13,-0.64,-1.06,-0.43,1.28,1.91,1.49,1.49,4.47,4.68,4.47,6.38,7.23,4.26,,,,,,,,,,,,,,
1799999994315321984,2027-01-15T07:59:54.315321984Z,-2.13,0.00,-1.49,1.06,1.49,2.55,1.91,-0.21,4.68,6.81,4.89,5.96,6.38,5.74,,,,,,,,,,,,,,
1799999994322723909,2027-01-15T07:59:54.322723909Z,-2.55,-0.64,-1.06,1.28,2.55,2.98,2.77,0.00,4.68,5.11,5.74,6.60,6.60,7.87,,,,,,,,,,,,,,
1799999994330125833,2027-01-15T07:59:54.330125833Z,-2.34,0.43,-0.43,0.43,0.85,1.70,3.83,2.13,2.55,3.19,5.96,6.38,7.45,6.60,,,,,,,,,,,,,,
1799999994337527758,2027-01-15T07:59:54.337527758Z,-1.70,1.06,-0.43,0.85,-0.64,1.49,4.04,3.40,1.91,5.11,6.81,5.53,7.02,5.11,,,,,,,,,,,,,,
1799999994344929682,2027-01-15T07:59:54.344929682Z,-0.21,0.64,-0.85,0.64,1.91,1.28,2.77,2.98,4.26,5.74,7.87,5.32,6.17,6.17,,,,,,,,,,,,,,
1799999994352331607,2027-01-15T07:59:54.352331607Z,-0.21,0.43,-1.49,-0.85,4.68,0.64,4.04,3.19,6.17,2.98,7.66,4.68,6.17,7.66,,,,,,,,,,,,,,
1799999994359733531,2027-01-15T07:59:54.359733531Z,-1.06,-0.21,-1.49,-1.28,3.83,1.28,6.17,3.40,5.11,2.13,6.81,4.47,7.02,8.30,,,,,,,,,,,,,,
1799999994367135456,2027-01-15T07:59:54.367135456Z,0.00,-1.06,-0.64,0.21,2.13,2.55,5.32,3.40,3.83,3.83,6.38,5.11,7.45,8.30,,,,,,,,,,,,,,
1799999994374537380,2027-01-15T07:59:54.374537380Z,0.00,-1.06,0.00,1.70,1.28,3.19,3.19,2.98,4.04,5.11,6.17,6.17,7.45,7.66,,,,,,,,,,,,,,
1799999994381939305,2027-01-15T07:59:54.381939305Z,-0.43,-0.21,-0.43,2.34,1.70,1.49,2.77,2.77,5.53,4.89,5.96,5.96,6.60,7.45,,,,,,,,,,,,,,
1799999994389341229,2027-01-15T07:59:54.389341229Z,-1.91,-0.43,-0.21,1.70,1.49,0.64,4.89,2.77,5.11,4.47,5.11,5.74,6.38,8.30,,,,,,,,,,,,,,
1799999994396743154,2027-01-15T07:59:54.396743154Z,-0.64,-0.64,1.06,1.49,0.85,2.13,4.26,3.62,3.19,5.74,4.47,8.09,7.02,8.51,,,,,,,,,,,,,,
1799999994404145078,2027-01-15T07:59:54.404145078Z,-0.43,0.85,1.28,1.70,0.21,2.55,3.62,4.26,2.98,7.23,4.47,9.79,7.45,7.02,,,,,,,,,,,,,,
1799999994411547003,2027-01-15T07:59:54.411547003Z,0.85,1.28,0.21,1.70,1.28,1.91,5.96,2.77,4.04,7.45,4.89,7.66,7.02,5.53,,,,,,,,,,,,,,
1799999994418948927,2027-01-15T07:59:54.418948927Z,-1.70,-1.06,-0.64,0.85,3.19,1.91,5.74,1.49,3.62,5.32,5.32,5.11,5.53,5.74,,,,,,,,,,,,,,
1799999994426350852,2027-01-15T07:59:54.426350852Z,0.64,-1.91,0.00,0.85,2.34,1.06,2.13,2.98,3.62,3.19,5.11,6.60,3.83,6.60,,,,,,,,,,,,,,
1799999994433752776,2027-01-15T07:59:54.433752776Z,1.28,-0.43,0.43,1.91,0.21,0.21,0.21,4.68,4.68,4.26,5.11,9.15,4.26,6.60,,,,,,,,,,,,,,
1799999994441154701,2027-01-15T07:59:54.441154701Z,0.00,0.43,0.64,2.77,0.43,0.85,1.28,3.40,3.19,5.96,5.53,7.87,6.81,6.81,,,,,,,,,,,,,,
1799999994448556625,2027-01-15T07:59:54.448556625Z,-0.21,-0.43,1.49,2.13,1.91,1.91,2.34,1.91,0.64,4.68,5.53,5.53,7.87,8.09,,,,,,,,,,,,,,
1799999994455958550,2027-01-15T07:59:54.455958550Z,2.13,-1.70,1.06,2.55,2.13,2.34,3.40,2.34,2.55,2.77,4.89,5.53,6.17,8.09,,,,,,,,,,,,,,
1799999994463360474,2027-01-15T07:59:54.463360474Z,2.34,-1.91,0.43,3.40,1.70,2.13,4.68,2.34,5.32,2.98,5.11,6.38,5.11,6.81,,,,,,,,,,,,,,
1799999994470762399,2027-01-15T07:59:54.470762399Z,1.28,-0.85,0.85,1.91,2.13,1.91,5.11,2.77,4.47,4.47,5.11,5.32,6.38,6.38,,,,,,,,,,,,,,
1799999994478164323,2027-01-15T07:59:54.478164323Z,1.28,-0.64,0.21,1.49,1.06,2.55,4.26,3.83,4.26,5.11,4.47,3.83,8.09,7.66,,,,,,,,,,,,,,
1799999994485566248,2027-01-15T07:59:54.485566248Z,2.55,0.00,0.21,2.98,-0.21,2.98,4.04,3.83,5.96,5.32,4.47,5.11,7.45,8.51,,,,,,,,,,,,,,
1799999994492968172,2027-01-15T07:59:54.492968172Z,0.64,1.06,1.49,0.85,0.43,2.34,4.47,3.62,4.04,5.74,3.62,6.81,6.17,8.51,,,,,,,,,,,,,,
1799999994500370097,2027-01-15T07:59:54.500370097Z,0.43,0.64,1.49,-1.91,1.06,1.91,3.19,4.04,1.28,5.53,2.98,6.81,6.17,8.51,,,,,,,,,,,,,,
1799999994507772021,2027-01-15T07:59:54.507772021Z,-0.85,0.21,0.21,-1.70,0.64,1.91,1.28,4.04,1.06,5.11,3.62,5.96,6.60,8.51,,,,,,,,,,,,,,
1799999994515173946,2027-01-15T07:59:54.515173946Z,-2.13,-0.64,-0.85,0.43,0.43,2.34,-1.06,3.40,4.04,5.11,4.89,4.89,7.23,8.72,,,,,,,,,,,,,,
1799999994522575870,2027-01-15T07:59:54.522575870Z,-2.34,-1.06,0.00,1.91,2.55,2.77,0.00,2.34,6.38,5.74,6.17,5.11,7.02,7.66,,,,,,,,,,,,,,
1799999994529977795,2027-01-15T07:59:54.529977795Z,-2.13,-0.21,0.85,1.06,3.62,2.77,3.62,2.77,4.04,5.74,5.53,6.38,6.81,6.17,,,,,,,,,,,,,,
1799999994537379719,2027-01-15T07:59:54.537379719Z,-3.40,1.06,0.43,1.49,1.28,2.34,4.47,4.68,2.34,4.89,5.11,7.02,7.66,5.53,,,,,,,,,,,,,,
1799999994544781644,2027-01-15T07:59:54.544781644Z,-1.28,1.49,1.70,1.70,-0.21,1.06,4.04,5.53,3.62,4.89,5.11,7.02,7.87,7.02,,,,,,,,,,,,,,
1799999994552183568,2027-01-15T07:59:54.552183568Z,-0.43,0.21,2.34,1.49,0.85,0.00,5.53,3.40,4.47,5.53,5.53,6.81,7.02,7.87,,,,,,,,,,,,,,
1799999994559585493,2027-01-15T07:59:54.559585493Z,-2.13,0.43,-0.43,1.49,1.91,1.28,5.32,2.13,3.62,5.11,6.17,6.60,7.02,7.02,,,,,,,,,,,,,,
1799999994566987417,2027-01-15T07:59:54.566987417Z,-0.43,2.13,-1.70,1.49,2.77,2.55,4.47,3.40,4.04,5.32,5.74,6.60,7.45,6.17,,,,,,,,,,,,,,
1799999994574389342,2027-01-15T07:59:54.574389342Z,0.43,0.64,0.85,-0.43,3.19,1.91,5.53,4.68,4.47,6.81,5.96,6.60,7.87,6.38,,,,,,,,,,,,,,
1799999994581791266,2027-01-15T07:59:54.581791266Z,1.70,-1.70,1.70,-2.13,1.91,0.64,4.68,2.98,2.98,6.38,6.81,6.38,8.72,7.23,,,,,,,,,,,,,,
1799999994589193191,2027-01-15T07:59:54.589193191Z,-0.64,-1.91,0.43,-1.06,1.06,1.28,2.34,1.28,2.13,4.47,6.60,5.96,7.66,7.87,,,,,,,,,,,,,,
1799999994596595115,2027-01-15T07:59:54.596595115Z,-1.06,-3.40,0.64,1.06,1.49,1.06,2.13,2.55,3.83,4.04,5.74,5.96,5.32,7.02,,,,,,,,,,,,,,
1799999994603997040,2027-01-15T07:59:54.603997040Z,0.43,-4.68,1.49,0.64,0.64,0.43,3.19,4.68,4.68,4.89,5.74,5.96,4.89,5.53,,,,,,,,,,,,,,
1799999994611398964,2027-01-15T07:59:54.611398964Z,-0.64,-3.19,0.00,-0.85,-1.06,2.13,3.83,4.89,3.19,4.47,6.17,5.11,6.60,5.74,,,,,,,,,,,,,,
1799999994618800889,2027-01-15T07:59:54.618800889Z,-1.06,-0.43,-1.49,-0.21,-0.85,3.83,3.83,4.68,4.04,3.62,4.47,5.53,7.45,8.09,,,,,,,,,,,,,,
1799999994626202813,2027-01-15T07:59:54.626202813Z,-3.19,1.91,-1.06,0.43,0.21,2.98,1.91,5.32,6.38,2.77,2.55,7.45,6.38,8.51,,,,,,,,,,,,,,
1799999994633604738,2027-01-15T07:59:54.633604738Z,-3.19,1.28,-1.28,-0.64,0.64,1.91,1.28,5.32,5.96,2.77,4.04,8.51,5.53,6.38,,,,,,,,,,,,,,
1799999994641006662,2027-01-15T07:59:54.641006662Z,-3.40,-0.43,-1.49,-0.85,1.28,2.55,2.55,4.47,4.26,3.62,6.38,7.66,5.74,5.32,,,,,,,,,,,,,,
1799999994648408587,2027-01-15T07:59:54.648408587Z,-3.19,-1.06,-1.06,0.00,2.55,3.40,3.62,3.62,3.62,4.47,7.02,6.81,6.17,5.74,,,,,,,,,,,,,,
1799999994655810511,2027-01-15T07:59:54.655810511Z,-1.49,-1.49,-0.43,0.43,3.19,3.40,4.04,3.19,4.26,4.89,5.32,6.38,7.02,6.17,,,,,,,,,,,,,,
1799999994663212436,2027-01-15T07:59:54.663212436Z,-1.28,-0.64,-0.21,0.00,2.34,2.13,5.53,2.34,5.74,4.89,4.04,6.60,6.17,6.81,,,,,,,,,,,,,,
1799999994670614360,2027-01-15T07:59:54.670614360Z,-2.55,0.00,0.43,0.43,1.70,2.77,7.23,1.06,5.32,4.89,5.96,5.11,5.11,7.87,,,,,,,,,,,,,,
1799999994678016285,2027-01-15T07:59:54.678016285Z,-4.89,-1.49,1.06,0.64,0.64,4.26,5.96,1.28,4.04,5.53,7.45,4.26,6.81,7.66,,,,,,,,,,,,,,
1799999994685418209,2027-01-15T07:59:54.685418209Z,-4.89,-2.98,0.64,1.28,-1.06,4.04,3.40,2.55,4.04,5.53,7.23,6.81,8.09,6.17,,,,,,,,,,,,,,
1799999994692820134,2027-01-15T07:59:54.692820134Z,-2.77,-2.13,0.21,2.77,-0.85,2.77,3.40,2.13,4.04,4.47,6.38,8.51,6.81,6.38,,,,,,,,,,,,,,
1799999994700222058,2027-01-15T07:59:54.700222058Z,-2.77,-1.06,-0.21,2.34,0.85,3.62,3.40,1.91,3.19,3.62,5.32,6.17,6.60,8.09,,,,,,,,,,,,,,
1799999994707623983,2027-01-15T07:59:54.707623983Z,-1.70,-0.64,-1.06,0.43,1.06,4.89,1.70,3.40,2.34,4.68,5.74,3.40,7.45,7.66,,,,,,,,,,,,,,
1799999994715025907,2027-01-15T07:59:54.715025907Z,-1.91,-0.85,-1.28,0.43,1.28,5.11,1.06,4.47,1.70,5.74,7.02,4.68,7.45,7.87,,,,,,,,,,,,,,
1799999994722427832,2027-01-15T07:59:54.722427832Z,-2.98,-1.91,-0.43,-0.21,2.13,4.68,1.91,4.04,0.85,5.53,7.45,6.81,6.60,11.70,,,,,,,,,,,,,,
1799999994729829756,2027-01-15T07:59:54.729829756Z,-1.49,-1.91,-0.64,-1.49,2.34,3.83,1.49,3.40,1.91,5.53,7.02,5.96,6.38,12.55,,,,,,,,,,,,,,
1799999994737231681,2027-01-15T07:59:54.737231681Z,-1.28,-0.85,-1.91,-0.85,3.40,2.13,2.34,3.83,4.68,5.53,6.60,5.11,7.23,8.09,,,,,,,,,,,,,,
1799999994744633605,2027-01-15T07:59:54.744633605Z,-1.06,-0.21,-0.43,0.00,3.19,0.43,2.55,4.68,6.38,4.26,5.32,6.38,7.87,6.60,,,,,,,,,,,,,,
1799999994752035530,2027-01-15T07:59:54.752035530Z,0.21,-1.49,1.91,-0.21,0.64,1.06,0.21,4.04,4.89,3.83,4.04,6.38,7.02,9.36,,,,,,,,,,,,,,
1799999994759437454,2027-01-15T07:59:54.759437454Z,0.21,-2.13,1.06,-0.21,-0.64,3.40,-0.43,1.70,3.19,5.53,4.68,5.11,5.74,8.51,,,,,,,,,,,,,,
1799999994766839379,2027-01-15T07:59:54.766839379Z,0.85,-2.13,-1.91,0.85,0.43,3.40,2.34,0.00,3.62,6.38,5.32,4.89,5.96,7.02,,,,,,,,,,,,,,
1799999994774241303,2027-01-15T07:59:54.774241303Z,-2.34,-4.04,-3.62,1.06,0.43,1.91,3.83,1.49,3.83,4.26,5.74,4.89,7.66,8.72,,,,,,,,,,,,,,
1799999994781643228,2027-01-15T07:59:54.781643228Z,-0.43,-3.40,-2.77,0.64,0.21,2.98,2.77,3.40,2.77,3.19,5.96,4.68,8.09,9.36,,,,,,,,,,,,,,
1799999994789045152,2027-01-15T07:59:54.789045152Z,0.21,-0.43,-1.28,1.06,1.06,4.89,3.40,3.19,2.13,4.47,5.11,5.11,6.81,8.09,,,,,,,,,,,,,,
1799999994796447077,2027-01-15T07:59:54.796447077Z,-1.70,2.13,-0.64,1.49,1.49,5.11,5.11,2.34,2.55,5.96,4.26,5.53,5.32,7.02,,,,,,,,,,,,,,
1799999994803849001,2027-01-15T07:59:54.803849001Z,-4.04,2.34,-1.28,0.64,1.91,3.62,5.53,2.34,2.98,6.17,4.04,5.11,4.04,6.81,,,,,,,,,,,,,,
1799999994811250926,2027-01-15T07:59:54.811250926Z,-2.77,0.43,-2.55,-1.06,2.13,2.13,3.62,3.40,3.40,5.32,4.89,4.68,3.83,6.38,,,,,,,,,,,,,,
1799999994818652850,2027-01-15T07:59:54.818652850Z,-0.85,-0.64,-3.19,-1.28,1.91,2.77,2.77,3.83,3.83,5.53,5.53,5.32,4.89,5.74,,,,,,,,,,,,,,
1799999994826054775,2027-01-15T07:59:54.826054775Z,,-0.21,-2.13,0.00,0.64,2.98,4.04,3.40,3.40,5.96,5.53,5.96,5.32,6.60,,,,,,,,,,,,,,
1799999994833456699,2027-01-15T07:59:54.833456699Z,,0.00,-1.06,-0.85,-1.28,1.70,2.98,4.47,2.77,5.53,5.96,6.38,5.11,7.02,,,,,,,,,,,,,,
1799999994840858624,2027-01-15T07:59:54.840858624Z,-0.21,-0.21,-0.21,-1.49,-2.34,0.85,0.85,4.47,3.62,6.17,5.53,6.60,4.89,6.17,,,,,,,,,,,,,,
1799999994848260548,2027-01-15T07:59:54.848260548Z,0.00,0.64,0.64,-0.21,-1.28,0.64,1.70,2.13,4.89,5.32,4.68,6.60,5.32,6.17,,,,,,,,,,,,,,
1799999994855662473,2027-01-15T07:59:54.855662473Z,-0.43,1.49,0.85,0.85,-0.21,1.49,1.91,2.13,4.89,2.55,4.68,6.17,5.74,6.60,,,,,,,,,,,,,,
1799999994863064397,2027-01-15T07:59:54.863064397Z,-0.85,0.21,1.91,1.70,-0.21,2.77,0.85,5.32,3.62,2.34,5.11,6.17,6.17,6.60,,,,,,,,,,,,,,
1799999994870466322,2027-01-15T07:59:54.870466322Z,-0.43,-2.13,2.98,0.85,0.43,2.34,2.77,5.32,2.55,4.89,5.53,7.45,7.45,6.17,,,,,,,,,,,,,,
1799999994877868246,2027-01-15T07:59:54.877868246Z,2.13,-2.55,1.06,0.00,1.70,0.43,4.26,2.77,2.55,5.32,5.53,8.51,8.30,5.74,,,,,,,,,,,,,,
1799999994885270171,2027-01-15T07:59:54.885270171Z,2.34,0.21,-0.43,1.28,2.13,0.21,2.55,2.77,4.47,3.83,4.89,7.02,7.02,6.38,,,,,,,,,,,,,,
1799999994892672095,2027-01-15T07:59:54.892672095Z,1.70,-0.21,0.43,1.28,1.28,1.70,3.62,3.62,4.47,4.04,4.68,5.11,6.81,7.66,,,,,,,,,,,,,,
1799999994900074020,2027-01-15T07:59:54.900074020Z,0.85,-1.49,0.85,1.49,1.28,1.91,5.74,2.55,0.85,5.32,5.11,5.74,8.09,7.66,,,,,,,,,,,,,,
1799999994907475944,2027-01-15T07:59:54.907475944Z,1.49,1.70,-0.21,3.19,2.13,1.06,4.26,2.77,-0.85,6.81,5.53,6.81,7.02,6.38,,,,,,,,,,,,,,
1799999994914877869,2027-01-15T07:59:54.914877869Z,0.85,2.34,-0.43,3.62,1.91,1.70,2.34,4.47,2.77,6.81,6.38,6.38,4.47,5.11,,,,,,,,,,,,,,
1799999994922279793,2027-01-15T07:59:54.922279793Z,0.21,-1.49,-0.43,2.13,0.64,2.13,1.91,4.89,5.53,5.53,6.81,7.02,5.32,5.74,,,,,,,,,,,,,,
1799999994929681718,2027-01-15T07:59:54.929681718Z,-0.43,-3.83,-0.85,1.06,0.43,1.28,0.85,4.04,4.89,4.47,5.96,7.87,7.23,7.45,,,,,,,,,,,,,,
1799999994937083642,2027-01-15T07:59:54.937083642Z,0.43,-3.19,-0.85,0.43,1.28,0.85,-0.43,3.40,3.62,4.26,5.11,8.09,7.66,8.94,,,,,,,,,,,,,,
1799999994944485567,2027-01-15T07:59:54.944485567Z,0.85,-2.34,-1.28,1.06,1.91,1.28,-1.49,3.19,3.19,4.68,4.89,6.60,6.60,7.87,,,,,,,,,,,,,,
1799999994951887491,2027-01-15T07:59:54.951887491Z,1.28,-2.77,-0.64,2.34,1.28,1.70,-0.43,2.98,3.40,5.74,5.74,4.68,5.96,5.53,,,,,,,,,,,,,,
1799999994959289416,2027-01-15T07:59:54.959289416Z,0.64,-2.55,1.70,1.70,0.64,0.85,1.06,3.19,2.98,5.96,5.53,4.89,6.17,5.53,,,,,,,,,,,,,,
1799999994966691340,2027-01-15T07:59:54.966691340Z,0.21,-0.85,3.19,0.00,1.28,-0.21,0.43,3.19,4.04,5.96,4.47,6.17,5.11,7.66,,,,,,,,,,,,,,
1799999994974093265,2027-01-15T07:59:54.974093265Z,-0.21,0.64,1.70,0.00,1.91,-0.21,1.06,2.77,5.74,5.32,4.89,5.53,4.47,7.87,,,,,,,,,,,,,,
1799999994981495189,2027-01-15T07:59:54.981495189Z,-1.70,0.43,0.21,0.00,1.49,0.43,4.04,3.19,5.53,3.83,4.04,4.89,5.74,6.38,,,,,,,,,,,,,,
1799999994988897114,2027-01-15T07:59:54.988897114Z,-2.34,0.43,0.64,-1.06,0.64,0.64,4.68,3.40,4.04,4.04,2.55,5.96,6.60,6.60,,,,,,,,,,,,,,
1799999994996299038,2027-01-15T07:59:54.996299038Z,-2.13,0.64,-1.06,-0.85,-0.21,0.43,1.49,2.55,3.62,6.17,4.89,7.02,6.17,7.87,,,,,,,,,,,,,,
1799999995003700963,2027-01-15T07:59:55.003700963Z,1.06,0.64,-2.13,0.43,0.64,0.00,0.43,1.49,3.40,6.38,7.66,6.38,6.60,7.45,,,,,,,,,,,,,,
1799999995011102887,2027-01-15T07:59:55.011102887Z,-0.43,0.21,-1.49,0.00,2.34,0.85,2.98,2.34,3.83,3.62,5.53,5.74,7.45,6.81,,,,,,,,,,,,,,
1799999995018504812,2027-01-15T07:59:55.018504812Z,-1.06,-0.21,-1.91,-1.06,2.77,2.13,4.68,4.04,5.11,2.13,3.62,5.53,6.60,7.23,,,,,,,,,,,,,,
1799999995025906736,2027-01-15T07:59:55.025906736Z,1.28,-0.85,-1.70,0.64,2.34,1.70,3.40,5.11,4.89,2.77,6.17,5.32,5.53,8.09,,,,,,,,,,,,,,
1799999995033308661,2027-01-15T07:59:55.033308661Z,1.06,-2.34,-1.49,2.77,2.98,1.06,2.34,4.04,3.40,2.34,7.02,5.74,6.60,9.15,,,,,,,,,,,,,,
1799999995040710585,2027-01-15T07:59:55.040710585Z,-1.49,-2.98,-2.55,1.28,2.98,1.91,2.77,2.34,2.77,3.40,4.47,6.60,7.66,8.30,,,,,,,,,,,,,,
1799999995048112510,2027-01-15T07:59:55.048112510Z,0.43,-2.13,-2.13,0.43,1.28,2.13,2.98,1.91,2.98,5.74,4.26,7.45,6.81,6.81,,,,,,,,,,,,,,
1799999995055514434,2027-01-15T07:59:55.055514434Z,0.64,-2.77,-0.85,1.91,0.21,1.06,3.83,1.91,3.83,6.17,5.96,6.38,6.60,7.87,,,,,,,,,,,,,,
1799999995062916359,2027-01-15T07:59:55.062916359Z,-1.49,-3.19,-1.06,2.13,0.64,1.49,5.11,1.91,4.89,4.26,5.96,5.96,7.45,10.21,,,,,,,,,,,,,,
1799999995070318283,2027-01-15T07:59:55.070318283Z,,-1.91,-2.13,0.85,0.85,2.34,5.53,2.98,5.11,3.19,4.89,6.81,7.66,10.00,,,,,,,,,,,,,,
1799999995077720208,2027-01-15T07:59:55.077720208Z,-1.70,-0.43,-2.98,-0.21,0.43,2.98,4.04,4.68,5.11,3.62,4.89,7.23,7.23,8.09,,,,,,,,,,,,,,
1799999995085122132,2027-01-15T07:59:55.085122132Z,0.21,0.64,-1.70,-0.21,0.64,2.13,2.55,4.47,5.32,4.47,6.17,7.02,7.87,6.38,,,,,,,,,,,,,,
1799999995092524057,2027-01-15T07:59:55.092524057Z,-0.43,0.21,0.43,-0.43,0.85,0.64,2.55,2.77,5.32,4.47,6.81,7.02,8.51,6.60,,,,,,,,,,,,,,
1799999995099925981,2027-01-15T07:59:55.099925981Z,-1.28,-0.64,0.21,-1.49,2.13,0.43,3.19,2.98,3.83,3.62,4.89,6.38,7.45,8.09,,,,,,,,,,,,,,
1799999995107327906,2027-01-15T07:59:55.107327906Z,-5.11,0.00,-0.43,-0.43,3.83,1.70,2.34,4.68,2.98,3.62,3.83,5.11,5.96,8.30,,,,,,,,,,,,,,
1799999995114729830,2027-01-15T07:59:55.114729830Z,-2.77,-0.43,0.21,1.91,2.77,2.34,2.34,4.47,4.04,4.47,5.32,4.47,7.45,7.87,,,,,,,,,,,,,,
1799999995122131755,2027-01-15T07:59:55.122131755Z,-1.28,-0.64,-0.21,1.91,0.21,2.13,2.55,3.19,4.47,4.47,6.38,5.53,10.00,7.23,,,,,,,,,,,,,,
1799999995129533679,2027-01-15T07:59:55.129533679Z,-1.49,0.21,-0.21,0.21,0.85,2.55,0.64,2.77,4.04,3.62,5.96,7.02,8.94,6.60,,,,,,,,,,,,,,
1799999995136935604,2027-01-15T07:59:55.136935604Z,-3.19,-0.64,1.06,-0.64,2.55,2.77,-0.43,3.19,5.32,3.62,5.74,8.51,5.96,7.66,,,,,,,,,,,,,,
1799999995144337528,2027-01-15T07:59:55.144337528Z,-1.06,-0.64,1.06,0.43,1.49,1.49,0.85,2.13,5.96,3.83,5.53,8.09,5.53,7.23,,,,,,,,,,,,,,
1799999995151739453,2027-01-15T07:59:55.151739453Z,-0.64,0.85,0.00,0.21,0.64,0.21,2.13,0.64,4.47,3.40,5.32,5.53,6.38,5.53,,,,,,,,,,,,,,
1799999995159141377,2027-01-15T07:59:55.159141377Z,-3.19,0.21,-1.06,-0.64,1.91,1.06,2.13,2.13,3.83,4.26,5.53,4.04,5.11,6.60,,,,,,,,,,,,,,
1799999995166543302,2027-01-15T07:59:55.166543302Z,-2.98,-0.64,-1.91,0.43,1.91,2.98,1.06,4.47,4.47,4.89,5.74,4.47,5.11,7.66,,,,,,,,,,,,,,
1799999995173945226,2027-01-15T07:59:55.173945226Z,-2.77,-0.21,-0.85,1.70,1.06,3.62,0.64,4.26,4.26,4.26,5.11,5.11,6.81,5.32,,,,,,,,,,,,,,
1799999995181347151,2027-01-15T07:59:55.181347151Z,-3.19,-1.06,0.85,1.06,1.06,1.28,0.43,2.34,4.26,4.68,4.47,5.53,6.60,5.11,,,,,,,,,,,,,,
1799999995188749075,2027-01-15T07:59:55.188749075Z,-1.91,-2.98,0.21,0.21,1.91,0.21,0.85,2.34,4.47,5.74,5.11,6.17,5.53,7.23,,,,,,,,,,,,,,
1799999995196151000,2027-01-15T07:59:55.196151000Z,-1.70,-3.19,-1.70,-0.64,1.91,2.34,1.49,4.47,4.89,5.11,6.17,6.38,7.02,6.81,,,,,,,,,,,,,,
1799999995203552924,2027-01-15T07:59:55.203552924Z,-1.91,-1.28,-1.49,-0.64,1.06,3.83,1.06,5.32,4.89,4.04,6.17,6.38,8.30,6.60,,,,,,,,,,,,,,
1799999995210954849,2027-01-15T07:59:55.210954849Z,-3.62,-0.43,-0.21,-0.64,0.85,3.40,1.49,4.04,4.47,4.04,5.74,6.81,7.45,7.87,,,,,,,,,,,,,,
1799999995218356773,2027-01-15T07:59:55.218356773Z,-5.32,-1.28,0.43,-1.06,1.49,3.40,2.77,2.55,4.26,4.89,5.53,6.81,6.17,8.51,,,,,,,,,,,,,,
1799999995225758698,2027-01-15T07:59:55.225758698Z,-4.04,-0.85,-0.43,-2.13,2.34,3.19,2.98,1.91,4.26,4.47,6.17,6.17,5.74,7.66,,,,,,,,,,,,,,
1799999995233160622,2027-01-15T07:59:55.233160622Z,-2.55,0.85,-1.91,-2.34,2.98,2.34,1.06,2.34,4.68,2.98,6.60,5.74,6.81,6.81,,,,,,,,,,,,,,
1799999995240562547,2027-01-15T07:59:55.240562547Z,-2.98,0.43,-2.34,-1.28,2.34,1.06,0.64,3.62,4.47,4.04,5.96,6.60,7.45,7.23,,,,,,,,,,,,,,
1799999995247964471,2027-01-15T07:59:55.247964471Z,0.00,-1.70,-1.28,-1.06,1.28,0.21,3.19,3.19,3.62,7.23,5.74,6.81,6.38,6.81,,,,,,,,,,,,,,
1799999995255366396,2027-01-15T07:59:55.255366396Z,0.21,-2.34,0.21,-0.43,0.21,-0.21,2.34,2.34,2.55,7.66,6.17,6.17,5.96,6.17,,,,,,,,,,,,,,
1799999995262768320,2027-01-15T07:59:55.262768320Z,-1.70,-1.49,1.06,1.06,0.00,0.00,1.06,3.19,2.98,4.47,5.11,6.60,6.38,6.81,,,,,,,,,,,,,,
1799999995270170245,2027-01-15T07:59:55.270170245Z,-0.21,-0.21,0.21,0.85,0.85,1.70,4.04,3.40,4.89,2.77,3.62,6.38,6.38,7.87,,,,,,,,,,,,,,
1799999995277572169,2027-01-15T07:59:55.277572169Z,0.00,0.21,-0.85,-0.43,1.91,2.55,4.89,3.19,5.74,3.40,4.26,5.74,5.53,7.02,,,,,,,,,,,,,,
1799999995284974094,2027-01-15T07:59:55.284974094Z,-0.43,-0.21,0.00,0.64,2.77,1.28,1.70,1.70,3.62,3.19,4.47,6.38,4.89,5.96,,,,,,,,,,,,,,
1799999995292376018,2027-01-15T07:59:55.292376018Z,0.64,0.00,1.06,0.64,2.55,1.70,1.28,0.00,2.55,3.62,4.04,6.60,5.11,6.81,,,,,,,,,,,,,,
1799999995299777943,2027-01-15T07:59:55.299777943Z,-1.49,0.64,0.21,-0.43,3.19,2.98,1.91,1.06,3.83,4.89,5.74,5.96,4.68,7.45,,,,,,,,,,,,,,
1799999995307179867,2027-01-15T07:59:55.307179867Z,-0.43,1.06,-0.85,0.64,4.04,1.70,-0.64,2.77,5.32,5.53,8.30,6.38,5.11,7.02,,,,,,,,,,,,,,
1799999995314581792,2027-01-15T07:59:55.314581792Z,-0.43,0.85,-1.06,0.85,3.19,-0.43,-1.06,2.34,4.68,5.11,6.81,6.81,6.81,8.09,,,,,,,,,,,,,,
1799999995321983716,2027-01-15T07:59:55.321983716Z,-0.85,1.70,0.21,-0.21,1.70,-0.85,2.13,1.49,3.40,4.68,3.62,7.02,7.45,10.00,,,,,,,,,,,,,,
1799999995329385641,2027-01-15T07:59:55.329385641Z,-2.13,1.06,0.64,-0.64,1.70,0.43,3.62,1.49,3.83,5.32,3.40,7.45,6.38,9.36,,,,,,,,,,,,,,
1799999995336787565,2027-01-15T07:59:55.336787565Z,-2.34,-1.49,-0.64,-0.85,1.70,1.49,2.77,2.77,5.11,6.38,5.11,6.38,6.38,7.23,,,,,,,,,,,,,,
1799999995344189490,2027-01-15T07:59:55.344189490Z,0.85,-2.13,-0.64,-0.21,0.43,1.91,4.04,4.26,5.53,5.96,4.68,5.74,6.38,7.02,,,,,,,,,,,,,,
1799999995351591414,2027-01-15T07:59:55.351591414Z,0.85,-1.49,-1.06,0.64,0.21,1.49,5.74,4.47,5.53,4.68,4.26,6.17,5.74,8.94,,,,,,,,,,,,,,
1799999995358993339,2027-01-15T07:59:55.358993339Z,-1.91,-1.91,-2.55,0.64,1.06,1.06,5.11,3.40,5.96,4.04,5.11,5.74,6.38,9.79,,,,,,,,,,,,,,
1799999995366395263,2027-01-15T07:59:55.366395263Z,,-1.91,-3.40,0.21,1.49,0.85,3.83,2.34,6.38,4.47,5.53,5.32,7.66,8.51,,,,,,,,,,,,,,
1799999995373797188,2027-01-15T07:59:55.373797188Z,-2.77,-1.28,-1.49,0.21,1.70,1.70,3.19,2.34,5.53,4.89,5.32,5.32,8.09,7.23,,,,,,,,,,,,,,
1799999995381199112,2027-01-15T07:59:55.381199112Z,-1.70,-1.06,1.28,1.28,0.85,2.77,3.62,3.40,2.98,4.26,5.74,6.38,6.17,7.87,,,,,,,,,,,,,,
1799999995388601037,2027-01-15T07:59:55.388601037Z,0.64,-0.43,1.49,1.91,0.43,2.34,3.83,3.19,0.43,4.04,6.60,7.02,4.89,8.51,,,,,,,,,,,,,,
1799999995396002961,2027-01-15T07:59:55.396002961Z,0.64,0.64,0.85,0.00,1.28,2.34,3.62,2.34,1.70,4.89,5.74,6.17,5.53,7.66,,,,,,,,,,,,,,
1799999995403404886,2027-01-15T07:59:55.403404886Z,-1.28,0.21,1.91,-0.43,2.13,3.62,3.19,3.19,3.62,5.53,4.47,6.60,5.11,8.51,,,,,,,,,,,,,,
1799999995410806810,2027-01-15T07:59:55.410806810Z,-1.49,-1.06,1.70,1.28,2.34,3.40,3.19,4.47,2.34,5.74,5.32,7.45,5.32,8.51,,,,,,,,,,,,,,
1799999995418208735,2027-01-15T07:59:55.418208735Z,-0.85,-1.06,0.21,1.06,1.49,2.13,4.04,5.32,1.06,5.74,5.74,7.02,6.81,5.96,,,,,,,,,,,,,,
1799999995425610659,2027-01-15T07:59:55.425610659Z,-0.43,0.21,0.43,2.13,0.21,2.34,4.47,4.47,3.40,5.53,5.11,6.17,7.23,5.53,,,,,,,,,,,,,,
1799999995433012584,2027-01-15T07:59:55.433012584Z,-1.06,0.43,1.91,2.98,0.64,3.19,3.40,3.62,5.32,5.11,4.47,5.32,7.23,7.45,,,,,,,,,,,,,,
1799999995440414508,2027-01-15T07:59:55.440414508Z,-1.28,0.00,1.28,-0.21,2.77,1.91,3.62,3.19,4.68,4.89,3.62,4.68,8.30,8.30,,,,,,,,,,,,,,
1799999995447816433,2027-01-15T07:59:55.447816433Z,-1.06,0.43,-0.64,-0.85,3.83,1.49,4.89,3.19,4.89,5.11,3.40,4.89,7.66,7.02,,,,,,,,,,,,,,
1799999995455218357,2027-01-15T07:59:55.455218357Z,-1.06,-0.43,-1.28,2.34,2.77,2.77,4.89,3.40,5.53,5.74,3.83,5.32,6.60,5.32,,,,,,,,,,,,,,
1799999995462620282,2027-01-15T07:59:55.462620282Z,-1.91,-0.85,0.00,2.34,2.13,2.98,3.83,3.40,4.89,4.89,4.68,5.96,7.23,5.53,,,,,,,,,,,,,,
1799999995470022206,2027-01-15T07:59:55.470022206Z,0.21,0.43,-0.85,0.00,1.91,2.77,5.11,2.55,4.89,2.34,5.74,6.81,7.87,7.02,,,,,,,,,,,,,,
1799999995477424131,2027-01-15T07:59:55.477424131Z,,1.49,-2.13,0.21,0.64,3.83,6.17,2.34,3.83,0.64,6.17,6.17,7.66,7.66,,,,,,,,,,,,,,
1799999995484826055,2027-01-15T07:59:55.484826055Z,0.64,1.28,-0.85,2.13,-0.85,3.83,4.26,3.62,1.28,2.34,5.74,5.32,7.23,7.45,,,,,,,,,,,,,,
1799999995492227980,2027-01-15T07:59:55.492227980Z,,0.21,0.21,3.40,-0.43,2.34,2.34,4.68,1.49,4.68,5.53,6.38,7.02,7.45,,,,,,,,,,,,,,
1799999995499629904,2027-01-15T07:59:55.499629904Z,1.06,0.43,-0.64,2.98,1.06,1.70,2.13,3.83,3.62,4.89,5.96,7.02,6.81,7.66,,,,,,,,,,,,,,
1799999995507031829,2027-01-15T07:59:55.507031829Z,1.49,1.70,-1.06,2.55,2.55,1.91,2.13,2.55,4.47,3.62,5.96,6.17,6.60,8.09,,,,,,,,,,,,,,
1799999995514433753,2027-01-15T07:59:55.514433753Z,1.91,2.77,-0.85,3.40,2.77,2.34,2.55,1.28,2.77,3.40,5.74,5.32,5.96,8.94,,,,,,,,,,,,,,
1799999995521835678,2027-01-15T07:59:55.521835678Z,2.55,1.91,-0.21,4.68,0.85,3.19,2.34,1.28,0.85,4.68,4.89,5.74,5.74,8.30,,,,,,,,,,,,,,
1799999995529237602,2027-01-15T07:59:55.529237602Z,3.19,-0.21,-0.85,3.83,-0.64,2.77,1.91,1.49,1.91,5.32,3.83,7.02,6.60,6.81,,,,,,,,,,,,,,
1799999995536639527,2027-01-15T07:59:55.536639527Z,3.19,-0.43,-1.70,1.49,0.85,1.06,2.55,1.06,2.77,4.68,3.62,8.30,7.66,6.60,,,,,,,,,,,,,,
1799999995544041451,2027-01-15T07:59:55.544041451Z,3.19,0.85,0.00,1.70,1.49,0.21,3.40,2.55,2.13,4.47,4.04,8.51,8.30,7.87,,,,,,,,,,,,,,
1799999995551443376,2027-01-15T07:59:55.551443376Z,2.13,1.49,1.70,2.34,-0.43,1.06,3.83,4.68,2.77,5.32,4.68,6.60,8.51,8.30,,,,,,,,,,,,,,
1799999995558845300,2027-01-15T07:59:55.558845300Z,-0.43,0.85,0.64,-0.43,-0.21,1.28,3.19,5.53,4.26,5.74,6.17,5.32,8.94,7.45,,,,,,,,,,,,,,
1799999995566247225,2027-01-15T07:59:55.566247225Z,-0.21,1.49,-0.85,-2.77,1.70,1.49,1.28,3.40,3.83,5.11,6.38,5.96,8.51,7.02,,,,,,,,,,,,,,
1799999995573649149,2027-01-15T07:59:55.573649149Z,0.43,1.70,-0.21,-1.06,1.49,3.40,0.64,2.13,3.40,4.47,4.89,5.96,7.23,7.66,,,,,,,,,,,,,,
1799999995581051074,2027-01-15T07:59:55.581051074Z,-0.21,0.64,0.64,0.85,0.00,3.40,2.34,3.19,3.62,5.53,4.68,5.96,6.60,7.66,,,,,,,,,,,,,,
1799999995588452998,2027-01-15T07:59:55.588452998Z,-2.98,-0.43,1.49,0.43,-0.85,1.49,2.34,3.19,2.55,6.60,5.96,7.02,6.60,6.17,,,,,,,,,,,,,,
1799999995595854923,2027-01-15T07:59:55.595854923Z,-1.06,-1.70,1.91,-0.21,-0.64,1.06,0.85,2.13,2.34,6.38,5.11,6.38,6.38,5.11,,,,,,,,,,,,,,
1799999995603256847,2027-01-15T07:59:55.603256847Z,-1.49,-2.34,1.06,0.43,0.43,2.13,1.28,1.49,3.62,5.32,4.47,5.11,6.17,5.96,,,,,,,,,,,,,,
1799999995610658772,2027-01-15T07:59:55.610658772Z,-1.49,-1.06,0.21,-1.06,0.85,2.77,2.34,1.91,4.89,4.26,5.74,6.17,5.11,7.02,,,,,,,,,,,,,,
1799999995618060696,2027-01-15T07:59:55.618060696Z,-0.43,0.43,0.85,-2.34,-0.43,2.98,2.34,2.98,5.53,3.19,4.89,6.60,4.26,6.60,,,,,,,,,,,,,,
1799999995625462621,2027-01-15T07:59:55.625462621Z,0.00,0.64,2.13,-0.43,-1.06,3.19,3.19,4.26,5.11,2.98,3.19,6.17,5.32,7.02,,,,,,,,,,,,,,
1799999995632864545,2027-01-15T07:59:55.632864545Z,-1.91,-0.85,3.19,1.49,-0.64,3.19,4.68,4.47,5.74,3.40,3.83,7.23,6.17,8.30,,,,,,,,,,,,,,
1799999995640266470,2027-01-15T07:59:55.640266470Z,-3.62,-1.49,2.34,0.85,-0.21,2.55,5.11,3.62,6.38,4.26,5.11,8.09,5.11,8.72,,,,,,,,,,,,,,
1799999995647668394,2027-01-15T07:59:55.647668394Z,-0.85,-1.06,1.06,0.00,0.00,1.70,3.62,2.77,6.17,5.11,5.96,7.45,4.47,8.30,,,,,,,,,,,,,,
1799999995655070319,2027-01-15T07:59:55.655070319Z,-0.64,-0.85,-0.21,-0.21,0.00,1.06,2.13,3.40,4.26,6.38,7.02,6.38,5.32,7.45,,,,,,,,,,,,,,
1799999995662472243,2027-01-15T07:59:55.662472243Z,-0.43,-1.49,-0.64,0.21,-0.43,2.55,1.91,4.89,2.98,5.53,7.87,6.17,7.02,7.23,,,,,,,,,,,,,,
1799999995669874168,2027-01-15T07:59:55.669874168Z,-0.64,-1.06,-0.21,-0.64,0.00,3.40,3.40,5.74,3.83,4.26,7.66,7.23,7.23,7.66,,,,,,,,,,,,,,
1799999995677276092,2027-01-15T07:59:55.677276092Z,-2.13,0.00,0.21,-1.70,1.06,2.13,4.89,4.68,4.04,5.11,5.96,6.81,5.96,7.02,,,,,,,,,,,,,,
1799999995684678017,2027-01-15T07:59:55.684678017Z,-4.26,-0.64,0.64,-1.28,1.91,0.85,5.32,3.62,2.98,5.32,4.26,5.74,4.68,5.74,,,,,,,,,,,,,,
1799999995692079941,2027-01-15T07:59:55.692079941Z,-5.53,-3.19,-0.64,-0.85,2.55,0.85,4.26,4.47,3.19,4.47,3.62,5.53,5.53,6.17,,,,,,,,,,,,,,
1799999995699481866,2027-01-15T07:59:55.699481866Z,-8.09,-5.11,-2.13,-1.49,2.55,2.13,2.98,5.32,4.04,4.26,3.83,5.74,6.81,8.09,,,,,,,,,,,,,,
1799999995706883790,2027-01-15T07:59:55.706883790Z,-5.11,-4.47,-0.64,-0.64,1.28,3.19,2.98,4.68,3.62,4.26,3.19,5.32,5.74,8.94,,,,,,,,,,,,,,
1799999995714285715,2027-01-15T07:59:55.714285715Z,-4.26,-4.04,0.64,-0.43,0.64,2.55,4.26,3.62,3.62,4.26,5.32,4.47,4.68,8.09,,,,,,,,,,,,,,
1799999995721687639,2027-01-15T07:59:55.721687639Z,-3.19,-3.83,-0.43,-1.28,1.28,2.13,5.11,3.19,4.04,4.47,7.87,4.89,6.60,7.66,,,,,,,,,,,,,,
1799999995729089564,2027-01-15T07:59:55.729089564Z,0.64,-1.28,-0.85,-0.21,2.55,2.55,4.26,3.40,3.62,3.40,6.81,6.38,7.66,7.87,,,,,,,,,,,,,,
1799999995736491488,2027-01-15T07:59:55.736491488Z,1.06,1.06,-1.06,1.70,2.55,2.77,3.83,4.26,3.40,2.98,4.68,7.87,5.74,7.23,,,,,,,,,,,,,,
1799999995743893413,2027-01-15T07:59:55.743893413Z,0.00,1.91,-0.85,1.49,1.49,2.98,5.11,4.04,3.83,4.26,5.74,8.30,5.32,7.45,,,,,,,,,,,,,,
1799999995751295337,2027-01-15T07:59:55.751295337Z,0.00,0.85,-0.85,0.64,1.28,3.40,4.89,3.19,4.04,4.89,6.81,6.17,7.45,8.30,,,,,,,,,,,,,,
1799999995758697262,2027-01-15T07:59:55.758697262Z,-0.21,1.06,-0.64,1.70,1.70,2.98,2.98,3.40,3.83,5.96,7.02,4.89,8.30,7.23,,,,,,,,,,,,,,
1799999995766099186,2027-01-15T07:59:55.766099186Z,0.00,3.19,1.49,2.98,1.28,2.34,1.91,2.55,4.26,7.23,7.87,5.74,6.81,6.81,,,,,,,,,,,,,,
1799999995773501111,2027-01-15T07:59:55.773501111Z,-0.43,2.55,1.49,3.40,0.21,2.77,2.55,0.85,4.47,6.38,7.23,5.74,7.02,7.87,,,,,,,,,,,,,,
1799999995780903035,2027-01-15T07:59:55.780903035Z,0.00,-0.43,-1.06,3.19,0.00,2.55,3.62,1.28,2.98,4.68,5.96,4.47,8.51,8.09,,,,,,,,,,,,,,
1799999995788304960,2027-01-15T07:59:55.788304960Z,0.43,-1.91,-2.13,3.19,0.43,1.49,4.47,2.13,1.49,4.04,4.89,4.68,8.94,6.81,,,,,,,,,,,,,,
1799999995795706884,2027-01-15T07:59:55.795706884Z,0.85,-1.28,-1.49,3.19,0.85,1.06,5.32,1.91,1.49,4.47,4.89,6.38,7.45,5.96,,,,,,,,,,,,,,
1799999995803108809,2027-01-15T07:59:55.803108809Z,-0.85,0.00,-0.64,1.91,1.91,1.28,4.68,1.49,3.40,4.89,5.53,7.87,5.53,5.32,,,,,,,,,,,,,,
1799999995810510733,2027-01-15T07:59:55.810510733Z,-1.06,0.64,-1.06,0.43,3.19,2.77,2.98,1.70,5.96,3.83,6.17,7.02,5.11,5.32,,,,,,,,,,,,,,
1799999995817912658,2027-01-15T07:59:55.817912658Z,-0.43,-0.85,-1.49,-0.64,3.19,4.26,2.34,2.34,5.32,2.98,5.32,5.96,6.60,6.81,,,,,,,,,,,,,,
1799999995825314582,2027-01-15T07:59:55.825314582Z,0.00,-2.13,-0.43,-0.21,1.70,3.19,3.62,1.91,3.40,4.04,5.53,7.23,7.45,8.51,,,,,,,,,,,,,,
1799999995832716507,2027-01-15T07:59:55.832716507Z,1.28,-2.34,0.00,0.64,0.64,2.13,3.62,2.34,4.47,4.26,6.81,7.02,7.02,8.72,,,,,,,,,,,,,,
1799999995840118431,2027-01-15T07:59:55.840118431Z,-1.28,-3.40,-0.21,1.49,0.64,3.40,2.13,3.83,3.40,2.77,6.38,5.53,7.66,7.87,,,,,,,,,,,,,,
1799999995847520356,2027-01-15T07:59:55.847520356Z,0.43,-3.62,-1.06,2.34,0.85,4.04,0.85,4.89,0.85,3.40,5.74,5.11,7.87,7.87,,,,,,,,,,,,,,
1799999995854922280,2027-01-15T07:59:55.854922280Z,-0.21,-2.34,-2.34,1.91,0.64,2.13,0.85,5.32,2.34,5.74,6.17,5.96,7.02,8.72,,,,,,,,,,,,,,
1799999995862324205,2027-01-15T07:59:55.862324205Z,-3.40,-1.06,-2.34,2.13,0.43,1.70,1.49,4.04,5.32,6.17,4.47,5.74,6.17,9.57,,,,,,,,,,,,,,
1799999995869726129,2027-01-15T07:59:55.869726129Z,-3.83,-0.64,-1.06,2.34,1.06,4.04,1.49,2.98,4.47,5.96,3.40,5.53,6.60,8.30,,,,,,,,,,,,,,
1799999995877128054,2027-01-15T07:59:55.877128054Z,-4.04,-1.49,-1.28,1.70,2.98,6.17,2.13,4.04,2.77,5.32,5.53,5.96,7.87,6.38,,,,,,,,,,,,,,
1799999995884529978,2027-01-15T07:59:55.884529978Z,-0.64,-2.13,-2.13,1.70,3.83,5.11,3.19,4.47,4.26,3.83,7.02,6.60,8.09,6.81,,,,,,,,,,,,,,
1799999995891931903,2027-01-15T07:59:55.891931903Z,-0.21,-2.34,-1.06,0.64,1.91,2.98,2.98,2.98,5.96,3.62,5.32,6.38,6.81,7.45,,,,,,,,,,,,,,
1799999995899333827,2027-01-15T07:59:55.899333827Z,-1.91,-1.70,-0.43,-0.85,1.28,3.40,2.34,1.70,5.11,4.89,4.04,5.74,6.81,6.81,,,,,,,,,,,,,,
1799999995906735752,2027-01-15T07:59:55.906735752Z,0.00,-1.70,-1.70,-0.64,2.98,5.11,3.40,2.13,5.32,5.53,5.53,6.17,6.38,7.02,,,,,,,,,,,,,,
1799999995914137676,2027-01-15T07:59:55.914137676Z,0.21,-2.55,-2.13,0.43,4.04,4.68,3.40,3.19,6.81,4.89,5.74,5.32,4.04,6.81,,,,,,,,,,,,,,
1799999995921539601,2027-01-15T07:59:55.921539601Z,-1.91,-1.49,-1.28,1.06,3.19,2.55,1.70,2.13,4.89,4.68,4.89,4.89,2.55,6.60,,,,,,,,,,,,,,
1799999995928941525,2027-01-15T07:59:55.928941525Z,-4.04,-0.43,-1.28,0.85,2.77,1.28,0.85,1.28,2.13,5.11,5.11,6.81,3.83,7.45,,,,,,,,,,,,,,
1799999995936343450,2027-01-15T07:59:55.936343450Z,,-1.49,-1.70,0.64,2.77,1.28,1.70,2.13,1.91,5.11,5.53,8.94,5.11,8.30,,,,,,,,,,,,,,
1799999995943745374,2027-01-15T07:59:55.943745374Z,-3.19,-3.19,-0.85,0.00,3.19,1.70,2.77,3.19,3.62,4.04,5.11,9.36,5.74,8.51,,,,,,,,,,,,,,
1799999995951147299,2027-01-15T07:59:55.951147299Z,-2.55,-2.13,0.64,-1.70,2.77,1.49,2.34,3.83,4.89,2.55,5.11,6.81,5.74,8.51,,,,,,,,,,,,,,
1799999995958549223,2027-01-15T07:59:55.958549223Z,-2.13,0.43,0.85,-3.40,0.64,1.28,2.55,3.19,3.83,3.83,6.60,5.32,6.60,6.81,,,,,,,,,,,,,,
1799999995965951148,2027-01-15T07:59:55.965951148Z,-0.21,0.43,-0.64,-1.49,-0.64,1.70,4.26,2.77,5.11,5.32,6.81,5.96,6.81,3.83,,,,,,,,,,,,,,
1799999995973353072,2027-01-15T07:59:55.973353072Z,0.00,-0.43,-1.91,1.70,1.28,2.34,4.47,2.77,7.23,3.62,5.32,5.11,5.53,3.83,,,,,,,,,,,,,,
1799999995980754997,2027-01-15T07:59:55.980754997Z,1.49,0.43,-1.06,0.85,4.47,2.77,2.98,2.98,6.60,1.91,5.53,4.68,5.32,8.09,,,,,,,,,,,,,,
1799999995988156921,2027-01-15T07:59:55.988156921Z,0.43,1.06,-0.64,-0.43,2.98,2.13,2.55,3.19,3.62,2.98,6.17,6.60,5.74,9.36,,,,,,,,,,,,,,
1799999995995558846,2027-01-15T07:59:55.995558846Z,0.00,0.00,-1.28,0.43,-1.06,1.06,1.91,2.13,2.98,4.47,5.11,6.60,7.23,6.38,,,,,,,,,,,,,,
1799999996002960770,2027-01-15T07:59:56.002960770Z,0.43,0.21,-0.21,0.00,-0.43,1.28,-0.21,1.28,4.89,4.47,4.47,4.68,8.94,5.96,,,,,,,,,,,,,,
1799999996010362695,2027-01-15T07:59:56.010362695Z,2.77,0.64,1.91,-0.85,2.98,2.34,-0.21,2.77,4.89,4.89,5.32,4.47,8.30,7.02,,,,,,,,,,,,,,
1799999996017764619,2027-01-15T07:59:56.017764619Z,-0.64,0.43,2.34,-1.06,3.62,2.98,2.13,3.62,2.77,5.74,5.11,5.53,7.45,6.17,,,,,,,,,,,,,,
1799999996025166544,2027-01-15T07:59:56.025166544Z,-0.85,0.64,1.70,-0.21,2.34,3.40,3.19,1.91,2.13,4.47,5.32,6.17,8.51,5.96,,,,,,,,,,,,,,
1799999996032568468,2027-01-15T07:59:56.032568468Z,-1.91,-1.28,1.06,0.00,2.34,2.98,2.98,2.34,4.26,3.40,6.81,6.60,8.09,6.81,,,,,,,,,,,,,,
1799999996039970393,2027-01-15T07:59:56.039970393Z,-4.47,-1.91,0.43,-0.64,2.98,2.77,3.19,3.62,5.53,4.68,6.81,7.23,6.17,6.81,,,,,,,,,,,,,,
1799999996047372317,2027-01-15T07:59:56.047372317Z,-1.28,-0.43,0.64,-0.21,3.62,2.98,2.13,2.77,3.83,5.53,5.11,7.23,5.32,6.81,,,,,,,,,,,,,,
1799999996054774242,2027-01-15T07:59:56.054774242Z,,-0.43,1.28,0.64,2.13,1.06,1.49,3.62,2.34,3.83,5.32,7.02,6.38,7.66,,,,,,,,,,,,,,
1799999996062176166,2027-01-15T07:59:56.062176166Z,0.21,-0.85,1.06,-0.21,-0.21,-0.85,2.34,5.32,2.55,2.13,7.23,6.81,6.60,8.94,,,,,,,,,,,,,,
1799999996069578091,2027-01-15T07:59:56.069578091Z,0.43,0.21,0.64,-0.85,-0.43,-0.43,2.77,4.47,3.19,2.98,7.02,6.38,5.74,9.36,,,,,,,,,,,,,,
1799999996076980015,2027-01-15T07:59:56.076980015Z,0.21,0.64,0.43,-0.64,0.85,0.85,2.77,2.77,3.83,4.68,4.68,6.38,4.89,9.15,,,,,,,,,,,,,,
1799999996084381940,2027-01-15T07:59:56.084381940Z,-0.21,1.28,1.49,-0.21,1.49,1.91,2.34,1.70,4.89,5.74,2.77,6.38,4.47,8.72,,,,,,,,,,,,,,
1799999996091783864,2027-01-15T07:59:56.091783864Z,-2.34,0.85,2.13,-0.64,0.43,1.70,1.91,2.98,4.68,5.32,3.19,7.02,5.74,8.09,,,,,,,,,,,,,,
1799999996099185789,2027-01-15T07:59:56.099185789Z,-2.55,0.64,-0.64,-1.70,0.64,1.91,1.70,3.83,3.19,4.68,5.11,7.23,7.45,7.23,,,,,,,,,,,,,,
1799999996106587713,2027-01-15T07:59:56.106587713Z,-1.70,1.06,-3.19,-1.28,1.91,2.77,1.28,2.55,2.77,4.47,5.11,6.38,7.45,5.96,,,,,,,,,,,,,,
1799999996113989638,2027-01-15T07:59:56.113989638Z,-0.21,-0.21,-1.91,-0.85,1.06,2.13,1.49,2.77,4.04,4.04,4.68,5.74,5.96,6.38,,,,,,,,,,,,,,
1799999996121391562,2027-01-15T07:59:56.121391562Z,0.21,-1.06,0.00,-0.85,0.85,0.85,2.34,4.26,3.83,4.47,5.32,6.38,4.89,7.66,,,,,,,,,,,,,,
1799999996128793487,2027-01-15T07:59:56.128793487Z,0.00,-0.43,0.00,1.06,2.55,1.49,2.55,3.62,2.55,4.26,5.11,7.02,5.11,7.87,,,,,,,,,,,,,,
1799999996136195411,2027-01-15T07:59:56.136195411Z,-1.49,-2.34,0.00,1.70,1.70,2.98,2.13,2.98,1.91,3.62,3.83,5.74,4.47,6.81,,,,,,,,,,,,,,
1799999996143597336,2027-01-15T07:59:56.143597336Z,-1.49,-2.98,0.21,0.85,-0.85,2.13,1.91,3.83,2.34,5.11,4.47,4.26,4.04,6.81,,,,,,,,,,,,,,
1799999996150999260,2027-01-15T07:59:56.150999260Z,-0.21,-0.85,-1.49,1.91,-0.85,0.64,2.13,3.83,3.19,7.02,6.17,4.26,5.74,7.23,,,,,,,,,,,,,,
1799999996158401185,2027-01-15T07:59:56.158401185Z,-0.64,0.21,-2.13,2.98,0.64,1.06,2.55,2.55,4.04,6.60,5.96,6.17,6.38,7.02,,,,,,,,,,,,,,
1799999996165803109,2027-01-15T07:59:56.165803109Z,1.28,-0.21,-0.21,1.49,0.00,1.28,3.40,1.49,3.19,5.32,4.89,8.09,5.11,8.09,,,,,,,,,,,,,,
1799999996173205034,2027-01-15T07:59:56.173205034Z,0.00,-0.85,0.64,-0.21,0.00,0.43,3.83,1.06,2.77,5.53,5.53,7.66,6.38,7.87,,,,,,,,,,,,,,
1799999996180606958,2027-01-15T07:59:56.180606958Z,-0.43,-1.06,-0.21,-0.21,1.91,0.21,4.04,1.06,3.62,4.89,5.96,6.60,8.94,6.38,,,,,,,,,,,,,,
1799999996188008883,2027-01-15T07:59:56.188008883Z,0.21,0.00,-0.21,0.00,2.77,-1.06,4.89,1.91,3.40,4.47,5.11,6.38,8.30,6.38,,,,,,,,,,,,,,
1799999996195410807,2027-01-15T07:59:56.195410807Z,0.64,0.00,0.21,0.21,0.85,-2.98,5.32,3.19,2.77,5.53,4.68,5.96,6.38,6.60,,,,,,,,,,,,,,
1799999996202812732,2027-01-15T07:59:56.202812732Z,0.21,-0.21,0.21,0.21,-0.64,-3.19,4.26,3.62,3.40,5.96,4.68,4.89,6.17,5.32,,,,,,,,,,,,,,
1799999996210214656,2027-01-15T07:59:56.210214656Z,-0.43,0.43,-0.43,-0.64,-0.21,-0.64,4.26,3.83,4.47,5.32,4.26,5.11,6.17,6.17,,,,,,,,,,,,,,
1799999996217616581,2027-01-15T07:59:56.217616581Z,-2.98,0.00,-1.06,-0.64,0.43,1.28,5.11,4.47,4.89,6.38,4.89,5.74,5.74,7.66,,,,,,,,,,,,,,
1799999996225018505,2027-01-15T07:59:56.225018505Z,-2.13,-0.85,-1.28,-0.21,0.43,1.06,4.89,4.47,4.89,7.66,6.17,5.96,5.53,7.02,,,,,,,,,,,,,,
1799999996232420430,2027-01-15T07:59:56.232420430Z,-2.55,-1.91,0.21,-0.64,0.64,0.43,3.40,3.40,4.26,7.66,6.60,6.38,5.96,6.17,,,,,,,,,,,,,,
1799999996239822354,2027-01-15T07:59:56.239822354Z,-2.77,-1.70,1.49,-1.49,1.49,0.21,3.19,2.98,3.62,5.11,4.89,7.23,6.17,7.02,,,,,,,,,,,,,,
1799999996247224279,2027-01-15T07:59:56.247224279Z,-0.64,-0.64,0.00,-0.64,2.34,1.28,5.32,4.04,4.04,3.40,3.83,7.87,5.32,9.15,,,,,,,,,,,,,,
1799999996254626203,2027-01-15T07:59:56.254626203Z,0.00,-0.64,-1.06,0.85,1.49,1.91,4.68,3.62,4.89,4.26,5.53,7.87,4.68,7.87,,,,,,,,,,,,,,
1799999996262028128,2027-01-15T07:59:56.262028128Z,-1.28,0.00,1.06,1.91,-0.43,1.28,1.91,2.34,4.26,4.89,6.17,8.09,5.96,6.81,,,,,,,,,,,,,,
1799999996269430052,2027-01-15T07:59:56.269430052Z,0.43,0.21,1.91,2.34,-0.21,0.64,2.77,2.34,3.83,4.26,5.32,7.45,7.87,8.72,,,,,,,,,,,,,,
1799999996276831977,2027-01-15T07:59:56.276831977Z,0.64,-1.06,0.85,0.85,2.77,2.34,4.68,3.83,4.68,3.19,6.17,5.74,7.87,8.72,,,,,,,,,,,,,,
1799999996284233901,2027-01-15T07:59:56.284233901Z,,0.00,1.28,0.00,4.26,4.04,2.98,4.04,5.11,4.04,6.81,4.47,7.02,5.96,,,,,,,,,,,,,,
1799999996291635826,2027-01-15T07:59:56.291635826Z,-0.64,0.43,1.28,1.28,1.91,3.62,1.91,2.77,4.89,5.53,5.53,5.11,6.60,4.89,,,,,,,,,,,,,,
1799999996299037750,2027-01-15T07:59:56.299037750Z,-0.21,-1.70,-0.21,1.06,-0.64,2.98,3.40,2.55,4.89,5.53,5.53,5.53,6.81,6.17,,,,,,,,,,,,,,
1799999996306439675,2027-01-15T07:59:56.306439675Z,-0.85,-1.91,-0.85,1.06,0.21,3.19,2.77,3.83,3.83,4.89,6.38,5.11,6.60,6.38,,,,,,,,,,,,,,
1799999996313841599,2027-01-15T07:59:56.313841599Z,-1.28,-1.28,0.21,1.91,1.28,2.55,1.91,5.32,2.34,5.96,5.32,4.68,5.96,5.74,,,,,,,,,,,,,,
1799999996321243524,2027-01-15T07:59:56.321243524Z,-3.19,-0.85,1.49,1.28,-0.21,2.13,4.26,6.60,2.13,5.53,3.62,4.89,6.38,6.60,,,,,,,,,,,,,,
1799999996328645448,2027-01-15T07:59:56.328645448Z,0.64,0.64,1.06,0.21,-0.43,2.98,5.53,7.02,4.26,4.47,4.04,5.74,6.81,7.66,,,,,,,,,,,,,,
1799999996336047373,2027-01-15T07:59:56.336047373Z,0.21,0.43,-0.85,1.06,0.85,2.55,4.04,4.89,6.38,5.11,4.26,5.32,6.60,7.87,,,,,,,,,,,,,,
1799999996343449297,2027-01-15T07:59:56.343449297Z,0.00,-0.85,-1.28,1.91,0.21,1.06,2.77,1.70,6.17,5.32,3.62,3.62,6.60,7.23,,,,,,,,,,,,,,
1799999996350851222,2027-01-15T07:59:56.350851222Z,-2.13,0.43,0.00,1.06,-1.91,1.28,3.40,1.91,4.68,3.40,4.68,3.40,6.17,7.45,,,,,,,,,,,,,,
1799999996358253146,2027-01-15T07:59:56.358253146Z,-1.28,2.34,0.00,1.06,-1.91,2.77,3.40,4.47,3.83,2.34,5.96,5.11,5.74,7.66,,,,,,,,,,,,,,
1799999996365655071,2027-01-15T07:59:56.365655071Z,0.21,2.34,-1.28,2.34,0.00,3.83,2.34,5.96,4.04,2.98,7.45,7.02,5.74,7.45,,,,,,,,,,,,,,
1799999996373056995,2027-01-15T07:59:56.373056995Z,0.43,0.64,-1.91,1.91,1.70,3.40,1.06,6.17,5.32,4.47,7.45,7.66,5.96,7.02,,,,,,,,,,,,,,
1799999996380458920,2027-01-15T07:59:56.380458920Z,-0.85,-0.43,-1.06,-1.28,1.49,2.13,1.49,3.83,5.32,5.11,5.32,5.96,6.38,7.02,,,,,,,,,,,,,,
1799999996387860844,2027-01-15T07:59:56.387860844Z,-1.49,0.64,-0.64,-2.55,-0.21,2.13,2.98,1.49,2.98,3.83,3.83,6.17,6.38,8.51,,,,,,,,,,,,,,
1799999996395262769,2027-01-15T07:59:56.395262769Z,,1.06,-2.55,1.06,0.64,2.77,2.77,1.91,2.34,4.26,4.89,8.30,7.66,9.36,,,,,,,,,,,,,,
1799999996402664693,2027-01-15T07:59:56.402664693Z,,-0.64,-2.98,2.98,3.19,1.28,3.40,2.98,3.40,5.32,5.32,8.51,9.36,8.09,,,,,,,,,,,,,,
1799999996410066618,2027-01-15T07:59:56.410066618Z,-1.28,-1.28,-1.70,0.85,3.83,0.64,5.32,2.34,2.34,4.89,4.26,7.23,8.94,6.81,,,,,,,,,,,,,,
1799999996417468542,2027-01-15T07:59:56.417468542Z,-2.13,-0.21,-0.64,-0.64,1.70,1.91,3.40,2.34,1.70,4.26,5.11,6.38,6.17,6.81,,,,,,,,,,,,,,
1799999996424870467,2027-01-15T07:59:56.424870467Z,0.00,-0.64,0.43,1.06,0.43,1.70,-0.64,4.04,2.98,4.04,5.53,7.02,4.47,7.45,,,,,,,,,,,,,,
1799999996432272391,2027-01-15T07:59:56.432272391Z,0.21,-2.13,-0.85,2.13,1.70,0.64,0.64,4.68,3.83,4.26,4.04,6.17,5.96,7.02,,,,,,,,,,,,,,
1799999996439674316,2027-01-15T07:59:56.439674316Z,-1.06,0.00,-2.98,0.85,1.70,0.85,4.89,2.98,3.83,4.89,5.53,4.47,6.81,7.02,,,,,,,,,,,,,,
1799999996447076240,2027-01-15T07:59:56.447076240Z,-0.64,2.55,-2.98,0.43,0.21,0.43,5.11,2.34,2.98,5.74,7.23,3.62,5.74,8.30,,,,,,,,,,,,,,
1799999996454478165,2027-01-15T07:59:56.454478165Z,0.43,0.64,-1.49,2.34,-0.21,0.85,2.77,3.62,3.19,6.17,5.96,4.89,5.11,8.51,,,,,,,,,,,,,,
