# spacing_uv=20.0
timestamp_ns,timestamp_iso,AF3,F7,F3,FC5,T7,P7,O1,O2,P8,T8,FC6,F4,F8,AF4,AF3_q,F7_q,F3_q,FC5_q,T7_q,P7_q,O1_q,O2_q,P8_q,T8_q,FC6_q,F4_q,F8_q,AF4_q
1799999990000000000,2027-01-15T07:59:50.000000000Z,,,-2.31,0.31,-1.54,,,,0.92,,,4.62,,6.46,,,,,,,,,,,,,,
1799999990016000000,2027-01-15T07:59:50.016000000Z,-3.08,-0.46,-0.46,1.08,0.62,1.69,0.62,0.15,2.15,4.92,4.15,5.08,6.00,6.46,,,,,,,,,,,,,,
1799999990032000000,2027-01-15T07:59:50.032000000Z,0.31,-1.38,0.15,0.77,1.69,1.54,-0.15,1.23,2.62,4.62,4.31,4.77,5.23,6.00,,,,,,,,,,,,,,
1799999990048000000,2027-01-15T07:59:50.048000000Z,0.31,-2.77,-0.15,0.31,1.08,2.00,1.85,2.46,3.23,3.23,6.00,4.15,5.08,5.38,,,,,,,,,,,,,,
1799999990064000000,2027-01-15T07:59:50.064000000Z,0.31,-2.92,-0.31,0.92,0.31,1.38,2.46,4.00,3.85,3.38,5.85,3.85,3.85,5.54,,,,,,,,,,,,,,
1799999990080000000,2027-01-15T07:59:50.080000000Z,-2.92,-2.62,-1.08,-0.46,0.46,1.23,2.46,3.54,3.23,3.23,4.31,2.31,3.85,5.85,,,,,,,,,,,,,,
1799999990096000000,2027-01-15T07:59:50.096000000Z,-2.31,-1.85,0.62,-0.62,1.54,0.77,3.08,2.92,3.08,3.08,3.08,3.23,5.38,5.38,,,,,,,,,,,,,,
1799999990112000000,2027-01-15T07:59:50.112000000Z,-1.23,-2.00,1.85,-0.15,2.15,2.15,2.46,1.85,2.46,2.31,3.69,4.15,5.54,5.23,,,,,,,,,,,,,,
1799999990128000000,2027-01-15T07:59:50.128000000Z,-1.38,-1.85,2.00,0.15,0.46,2.31,3.23,1.85,2.31,2.62,3.85,3.08,4.92,5.54,,,,,,,,,,,,,,
1799999990144000000,2027-01-15T07:59:50.144000000Z,0.00,1.85,1.85,1.54,0.15,1.38,2.77,2.15,3.23,4.15,3.69,4.15,5.54,4.62,,,,,,,,,,,,,,
1799999990160000000,2027-01-15T07:59:50.160000000Z,2.62,2.31,1.69,2.15,0.92,0.62,0.77,2.00,2.46,4.31,3.54,3.54,5.23,2.92,,,,,,,,,,,,,,
1799999990176000000,2027-01-15T07:59:50.176000000Z,-1.23,0.31,1.23,1.08,1.08,1.54,1.08,2.62,2.62,3.69,2.15,4.00,4.62,4.46,,,,,,,,,,,,,,
1799999990192000000,2027-01-15T07:59:50.192000000Z,-0.92,-0.31,0.15,0.46,1.08,1.69,0.92,2.15,3.08,4.15,1.85,4.46,3.85,4.46,,,,,,,,,,,,,,
1799999990208000000,2027-01-15T07:59:50.208000000Z,0.46,-0.15,-2.31,0.62,-0.15,1.54,1.08,2.31,4.46,3.69,3.08,5.54,3.23,5.23,,,,,,,,,,,,,,
1799999990224000000,2027-01-15T07:59:50.224000000Z,0.77,-0.77,-2.15,0.92,-0.31,1.85,1.85,2.46,4.46,1.69,2.62,5.85,4.46,5.38,,,,,,,,,,,,,,
1799999990240000000,2027-01-15T07:59:50.240000000Z,0.46,-0.92,-1.38,1.38,-0.15,1.38,2.31,2.15,3.85,2.62,4.15,4.00,5.69,6.00,,,,,,,,,,,,,,
1799999990256000000,2027-01-15T07:59:50.256000000Z,-1.54,-1.54,-0.46,1.08,0.92,0.46,2.92,1.69,3.08,3.54,3.69,5.23,5.85,6.15,,,,,,,,,,,,,,
1799999990272000000,2027-01-15T07:59:50.272000000Z,0.92,-2.31,-1.08,1.69,0.77,1.08,3.69,3.54,3.38,3.69,3.69,5.69,6.00,5.85,,,,,,,,,,,,,,
1799999990288000000,2027-01-15T07:59:50.288000000Z,2.00,-1.69,-2.46,1.23,0.92,1.38,3.23,3.23,2.62,3.54,4.92,5.23,5.38,6.00,,,,,,,,,,,,,,
1799999990304000000,2027-01-15T07:59:50.304000000Z,-1.54,-0.92,-3.23,-1.08,0.92,1.08,4.00,2.46,1.54,3.69,3.23,4.62,4.31,4.92,,,,,,,,,,,,,,
1799999990320000000,2027-01-15T07:59:50.320000000Z,1.23,0.46,-1.38,0.62,-0.15,2.31,2.46,2.31,1.38,5.85,3.23,4.92,3.85,2.77,,,,,,,,,,,,,,
1799999990336000000,2027-01-15T07:59:50.336000000Z,-2.31,0.15,-0.46,1.08,0.31,2.31,0.46,2.62,3.23,4.92,6.00,4.46,5.23,4.31,,,,,,,,,,,,,,
1799999990352000000,2027-01-15T07:59:50.352000000Z,-0.31,-0.31,-0.92,0.15,0.77,2.46,0.92,2.62,3.69,3.85,4.62,3.69,6.62,5.54,,,,,,,,,,,,,,
1799999990368000000,2027-01-15T07:59:50.368000000Z,0.00,-1.38,-0.46,-0.31,1.69,0.46,1.69,2.15,2.62,3.54,2.62,4.00,6.46,4.62,,,,,,,,,,,,,,
1799999990384000000,2027-01-15T07:59:50.384000000Z,0.62,-2.00,-0.46,2.62,0.46,-0.31,0.46,1.69,2.92,3.38,3.69,4.46,5.85,5.54,,,,,,,,,,,,,,
1799999990400000000,2027-01-15T07:59:50.400000000Z,-0.46,-0.77,0.15,2.15,1.23,0.15,1.69,0.92,3.23,2.92,4.15,3.23,4.00,5.54,,,,,,,,,,,,,,
1799999990416000000,2027-01-15T07:59:50.416000000Z,0.00,-1.38,-1.08,0.62,0.00,1.08,4.77,2.77,2.31,2.62,5.38,3.85,4.31,4.77,,,,,,,,,,,,,,
1799999990432000000,2027-01-15T07:59:50.432000000Z,-0.92,-1.85,-1.54,0.62,-0.15,1.54,4.77,4.46,3.85,3.38,3.85,4.46,5.69,3.54,,,,,,,,,,,,,,
1799999990448000000,2027-01-15T07:59:50.448000000Z,1.08,-1.08,-1.38,0.15,0.92,1.69,2.92,2.46,3.23,3.08,3.23,4.00,6.15,4.31,,,,,,,,,,,,,,
1799999990464000000,2027-01-15T07:59:50.464000000Z,0.00,-1.08,-0.92,-0.31,0.00,2.31,2.31,3.08,2.92,4.00,4.92,4.31,5.23,5.23,,,,,,,,,,,,,,
1799999990480000000,2027-01-15T07:59:50.480000000Z,0.00,-1.69,0.15,-0.62,1.38,2.77,2.62,3.69,3.54,4.62,5.54,4.46,4.62,5.38,,,,,,,,,,,,,,
1799999990496000000,2027-01-15T07:59:50.496000000Z,-1.85,-1.38,0.46,0.92,1.23,2.15,2.77,3.23,3.08,4.15,3.38,3.23,4.00,5.85,,,,,,,,,,,,,,
1799999990512000000,2027-01-15T07:59:50.512000000Z,0.31,0.62,-0.62,1.08,1.38,2.00,1.69,2.46,3.69,5.38,3.85,4.77,5.54,5.54,,,,,,,,,,,,,,
1799999990528000000,2027-01-15T07:59:50.528000000Z,-0.31,-0.15,0.77,-0.46,2.15,0.92,1.38,2.62,2.31,4.00,4.62,6.00,4.77,4.92,,,,,,,,,,,,,,
1799999990544000000,2027-01-15T07:59:50.544000000Z,1.38,-0.31,1.38,-0.92,1.54,2.00,0.92,4.00,1.08,1.85,3.38,5.54,4.46,5.54,,,,,,,,,,,,,,
1799999990560000000,2027-01-15T07:59:50.560000000Z,0.92,-0.46,0.62,-0.46,0.77,2.15,1.38,3.38,3.85,2.62,2.62,3.69,6.62,6.15,,,,,,,,,,,,,,
1799999990576000000,2027-01-15T07:59:50.576000000Z,0.15,-0.92,0.92,1.54,0.62,1.54,1.54,2.46,3.69,3.54,3.08,4.31,7.08,5.23,,,,,,,,,,,,,,
1799999990592000000,2027-01-15T07:59:50.592000000Z,2.00,-1.38,0.62,1.23,1.54,1.38,1.54,1.85,2.15,3.54,4.46,4.92,5.23,5.23,,,,,,,,,,,,,,
1799999990608000000,2027-01-15T07:59:50.608000000Z,-1.38,-1.38,0.46,-0.15,1.38,0.31,1.23,2.62,2.15,4.92,4.31,4.62,4.77,6.77,,,,,,,,,,,,,,
1799999990624000000,2027-01-15T07:59:50.624000000Z,1.08,1.08,0.15,0.15,1.23,0.62,1.69,3.08,1.23,6.77,4.92,4.62,4.92,5.69,,,,,,,,,,,,,,
1799999990640000000,2027-01-15T07:59:50.640000000Z,-1.38,0.77,-0.31,0.00,-0.15,1.38,3.23,2.31,1.38,3.23,4.15,3.85,4.92,5.54,,,,,,,,,,,,,,
1799999990656000000,2027-01-15T07:59:50.656000000Z,-0.46,0.46,0.46,1.23,0.62,2.00,3.08,2.00,2.46,2.62,4.15,3.54,4.92,7.69,,,,,,,,,,,,,,
1799999990672000000,2027-01-15T07:59:50.672000000Z,-0.31,0.00,3.69,2.77,2.15,2.15,2.77,2.31,2.00,2.46,4.92,3.23,4.00,7.08,,,,,,,,,,,,,,
1799999990688000000,2027-01-15T07:59:50.688000000Z,-0.62,-1.38,1.54,1.85,1.38,0.00,2.31,2.46,1.85,4.00,2.46,3.85,4.62,4.92,,,,,,,,,,,,,,
1799999990704000000,2027-01-15T07:59:50.704000000Z,0.77,-1.85,-0.31,0.92,1.38,0.31,1.08,2.46,2.31,4.31,1.69,4.31,4.00,3.85,,,,,,,,,,,,,,
1799999990720000000,2027-01-15T07:59:50.720000000Z,0.62,-0.15,0.15,2.62,0.46,0.62,0.31,2.46,3.23,3.08,2.92,4.15,4.46,4.46,,,,,,,,,,,,,,
1799999990736000000,2027-01-15T07:59:50.736000000Z,-0.92,-0.31,0.31,1.38,-0.15,0.46,0.15,3.54,2.31,4.15,4.92,4.00,5.69,6.92,,,,,,,,,,,,,,
1799999990752000000,2027-01-15T07:59:50.752000000Z,-0.15,-0.62,0.15,0.15,0.00,1.08,0.92,2.92,3.85,3.08,4.31,3.38,5.38,6.46,,,,,,,,,,,,,,
1799999990768000000,2027-01-15T07:59:50.768000000Z,0.00,0.00,0.92,0.15,0.31,1.54,-0.62,2.00,4.15,1.85,3.85,4.00,5.23,5.85,,,,,,,,,,,,,,
1799999990784000000,2027-01-15T07:59:50.784000000Z,-1.85,0.62,2.15,-0.31,1.08,1.85,-2.00,1.38,2.92,1.85,3.85,5.08,5.54,5.23,,,,,,,,,,,,,,
1799999990800000000,2027-01-15T07:59:50.800000000Z,-1.08,0.46,0.15,-0.15,0.77,1.85,-0.92,2.46,2.15,2.46,3.54,4.46,5.85,4.00,,,,,,,,,,,,,,
1799999990816000000,2027-01-15T07:59:50.816000000Z,-1.54,-0.62,-0.77,-0.31,-0.92,1.23,1.69,2.31,3.23,2.92,2.92,5.85,4.77,5.38,,,,,,,,,,,,,,
1799999990832000000,2027-01-15T07:59:50.832000000Z,-1.08,-0.31,-1.69,0.62,0.46,0.77,2.31,1.85,3.08,3.85,2.77,6.31,4.46,6.00,,,,,,,,,,,,,,
1799999990848000000,2027-01-15T07:59:50.848000000Z,-1.23,0.77,-1.23,0.15,2.15,1.69,1.08,1.69,3.08,2.62,2.31,5.38,4.77,5.54,,,,,,,,,,,,,,
1799999990864000000,2027-01-15T07:59:50.864000000Z,-1.38,0.31,-0.62,0.31,2.15,2.31,0.00,2.31,2.92,3.08,3.85,4.77,4.77,4.92,,,,,,,,,,,,,,
1799999990880000000,2027-01-15T07:59:50.880000000Z,-0.77,-0.15,-1.54,-0.62,1.69,3.08,1.23,2.92,4.62,3.23,4.92,4.92,4.92,6.46,,,,,,,,,,,,,,
1799999990896000000,2027-01-15T07:59:50.896000000Z,-1.23,-0.92,-2.00,0.31,0.62,2.15,1.23,3.69,2.92,3.08,1.85,3.85,4.77,5.38,,,,,,,,,,,,,,
1799999990912000000,2027-01-15T07:59:50.912000000Z,-0.77,-1.08,-0.77,1.38,0.92,2.92,2.15,2.92,1.54,2.92,2.31,4.31,4.46,4.92,,,,,,,,,,,,,,
1799999990928000000,2027-01-15T07:59:50.928000000Z,1.38,-2.62,-0.77,0.15,0.77,2.15,1.23,2.15,3.23,2.31,4.00,3.85,4.46,3.54,,,,,,,,,,,,,,
1799999990944000000,2027-01-15T07:59:50.944000000Z,-0.31,-2.31,-0.46,-0.46,1.08,2.00,2.15,1.85,3.85,2.77,5.08,3.69,4.62,5.23,,,,,,,,,,,,,,
1799999990960000000,2027-01-15T07:59:50.960000000Z,0.00,-1.08,0.31,0.00,0.31,1.08,2.92,2.77,4.15,1.38,5.85,4.77,4.46,6.31,,,,,,,,,,,,,,
1799999990976000000,2027-01-15T07:59:50.976000000Z,0.46,0.00,-0.15,0.00,-0.31,1.08,3.08,3.54,3.69,1.85,4.31,3.85,5.38,4.62,,,,,,,,,,,,,,
1799999990992000000,2027-01-15T07:59:50.992000000Z,-0.15,-1.23,0.00,-0.77,0.62,2.46,2.62,2.31,2.15,3.69,3.85,4.00,3.69,3.54,,,,,,,,,,,,,,
1799999991008000000,2027-01-15T07:59:51.008000000Z,-1.85,-1.69,-0.62,-0.92,0.62,1.85,1.54,3.23,2.46,3.38,3.08,4.77,2.77,4.00,,,,,,,,,,,,,,
1799999991024000000,2027-01-15T07:59:51.024000000Z,-1.08,-1.38,0.00,0.00,0.31,0.62,1.69,2.00,3.08,2.46,2.15,3.69,3.54,5.23,,,,,,,,,,,,,,
1799999991040000000,2027-01-15T07:59:51.040000000Z,-2.15,-1.23,0.46,-0.31,0.15,1.38,1.38,0.62,4.15,2.00,2.62,3.85,3.69,5.23,,,,,,,,,,,,,,
1799999991056000000,2027-01-15T07:59:51.056000000Z,-2.15,-1.08,-0.31,-0.46,0.92,1.85,1.69,0.46,4.15,3.38,3.08,4.15,5.23,4.15,,,,,,,,,,,,,,
1799999991072000000,2027-01-15T07:59:51.072000000Z,-1.85,-0.92,-1.08,0.00,1.69,1.85,1.54,-0.46,3.69,3.85,3.69,4.62,5.08,4.00,,,,,,,,,,,,,,
1799999991088000001,2027-01-15T07:59:51.088000001Z,-2.31,0.15,-0.77,0.92,0.46,1.69,2.77,0.15,2.00,3.85,4.77,4.31,5.23,4.62,,,,,,,,,,,,,,
1799999991104000001,2027-01-15T07:59:51.104000001Z,0.15,0.62,-0.92,-0.15,1.23,0.46,3.23,2.31,2.62,3.23,5.38,3.23,5.08,4.46,,,,,,,,,,,,,,
1799999991120000000,2027-01-15T07:59:51.120000000Z,0.62,-0.31,-0.62,0.46,2.62,1.23,3.08,2.15,3.85,2.31,5.69,3.69,5.23,5.69,,,,,,,,,,,,,,
1799999991136000001,2027-01-15T07:59:51.136000001Z,0.00,-0.77,0.00,1.54,1.23,1.08,2.62,2.00,3.85,3.85,3.69,4.15,5.38,6.15,,,,,,,,,,,,,,
1799999991152000000,2027-01-15T07:59:51.152000000Z,0.62,0.46,0.62,1.54,0.46,0.92,3.38,2.62,3.23,5.08,3.23,6.00,5.23,5.38,,,,,,,,,,,,,,
1799999991168000000,2027-01-15T07:59:51.168000000Z,1.54,-0.62,0.62,1.08,1.38,1.85,4.46,1.85,2.15,4.62,3.23,5.54,4.31,4.77,,,,,,,,,,,,,,
1799999991184000000,2027-01-15T07:59:51.184000000Z,1.23,-1.23,0.00,1.54,1.23,0.31,2.77,2.15,3.23,3.69,3.54,5.23,3.23,4.00,,,,,,,,,,,,,,
1799999991200000000,2027-01-15T07:59:51.200000000Z,0.15,-0.31,1.23,2.00,0.46,0.46,0.31,2.62,1.54,3.08,3.54,5.54,4.15,5.69,,,,,,,,,,,,,,
1799999991216000001,2027-01-15T07:59:51.216000001Z,1.54,-1.23,1.23,2.62,1.23,1.23,2.77,1.38,1.85,2.92,3.38,4.00,5.23,5.38,,,,,,,,,,,,,,
1799999991232000000,2027-01-15T07:59:51.232000000Z,1.54,-1.69,0.31,1.85,0.62,1.69,3.85,2.31,3.54,2.62,3.23,3.54,5.08,4.92,,,,,,,,,,,,,,
1799999991248000001,2027-01-15T07:59:51.248000001Z,1.38,-0.15,0.92,0.92,0.31,1.69,3.54,3.08,2.92,4.31,2.00,3.85,5.38,5.54,,,,,,,,,,,,,,
1799999991264000000,2027-01-15T07:59:51.264000000Z,1.54,-0.15,0.46,0.92,-0.15,1.54,0.00,2.62,2.92,4.31,2.77,4.15,4.92,6.46,,,,,,,,,,,,,,
1799999991280000000,2027-01-15T07:59:51.280000000Z,-1.23,-0.46,0.15,0.62,2.00,1.85,0.62,2.15,2.92,4.31,3.23,3.85,5.54,4.77,,,,,,,,,,,,,,
1799999991296000001,2027-01-15T07:59:51.296000001Z,-0.46,0.31,1.85,1.38,1.38,0.77,3.08,3.08,3.08,4.00,3.85,4.46,5.85,4.62,,,,,,,,,,,,,,
1799999991312000000,2027-01-15T07:59:51.312000000Z,0.31,1.08,0.46,1.38,0.92,0.92,4.00,3.08,2.77,4.00,4.00,4.92,5.85,5.08,,,,,,,,,,,,,,
1799999991328000000,2027-01-15T07:59:51.328000000Z,-2.00,0.46,0.15,-0.77,1.85,1.23,4.00,2.31,2.00,4.92,4.62,4.77,6.77,5.08,,,,,,,,,,,,,,
1799999991344000000,2027-01-15T07:59:51.344000000Z,-1.38,-3.23,1.38,-0.62,1.54,0.62,3.23,1.85,2.46,4.31,4.46,4.46,4.92,4.92,,,,,,,,,,,,,,
1799999991360000000,2027-01-15T07:59:51.360000000Z,1.38,-3.38,0.46,0.00,-0.46,1.54,2.15,2.00,2.77,3.08,4.15,3.54,4.15,4.15,,,,,,,,,,,,,,
1799999991376000000,2027-01-15T07:59:51.376000000Z,0.15,-1.23,0.15,-0.31,-1.08,1.85,1.69,4.31,3.69,2.62,2.31,4.92,5.08,5.08,,,,,,,,,,,,,,
1799999991392000000,2027-01-15T07:59:51.392000000Z,-2.46,0.46,-0.92,-0.15,1.08,2.31,1.38,3.54,4.15,2.31,2.92,5.69,4.62,5.38,,,,,,,,,,,,,,
1799999991408000001,2027-01-15T07:59:51.408000001Z,-1.08,-0.92,-0.77,-0.31,1.54,2.15,3.85,2.46,3.69,2.92,3.85,5.23,4.62,4.00,,,,,,,,,,,,,,
1799999991424000000,2027-01-15T07:59:51.424000000Z,-1.85,-1.54,0.62,0.46,0.92,2.92,5.08,0.77,4.15,4.15,3.85,3.38,5.08,5.38,,,,,,,,,,,,,,
1799999991440000000,2027-01-15T07:59:51.440000000Z,-3.38,-1.69,0.92,2.15,-0.46,3.23,4.46,0.92,3.08,3.54,4.92,4.92,5.23,4.62,,,,,,,,,,,,,,
1799999991456000000,2027-01-15T07:59:51.456000000Z,-1.69,-1.69,-0.31,2.00,-0.77,3.23,1.54,2.00,2.15,3.23,4.15,4.15,5.38,4.92,,,,,,,,,,,,,,
1799999991472000000,2027-01-15T07:59:51.472000000Z,-1.54,-1.23,-0.46,-0.15,0.92,4.15,0.77,2.62,0.46,3.69,4.46,2.92,5.69,8.62,,,,,,,,,,,,,,
1799999991488000000,2027-01-15T07:59:51.488000000Z,-0.92,-1.23,-1.08,-0.46,2.46,2.31,1.54,3.23,2.46,4.46,5.23,4.00,5.54,7.69,,,,,,,,,,,,,,
1799999991504000000,2027-01-15T07:59:51.504000000Z,0.00,-1.38,0.46,-0.62,0.92,0.77,0.15,3.08,3.69,3.54,3.85,4.00,5.54,6.00,,,,,,,,,,,,,,
1799999991520000000,2027-01-15T07:59:51.520000000Z,-0.92,-1.69,0.00,0.31,0.15,1.38,0.62,1.38,3.54,4.00,3.08,4.00,4.92,6.46,,,,,,,,,,,,,,
1799999991536000000,2027-01-15T07:59:51.536000000Z,-0.46,-3.38,-1.85,0.77,0.00,2.31,1.69,0.77,2.00,3.54,4.00,3.08,5.38,6.15,,,,,,,,,,,,,,
1799999991552000000,2027-01-15T07:59:51.552000000Z,0.46,-1.23,-1.85,0.46,0.46,2.46,3.38,2.00,1.54,3.38,3.23,3.54,4.62,6.46,,,,,,,,,,,,,,
1799999991568000001,2027-01-15T07:59:51.568000001Z,-1.54,1.23,-1.69,-0.31,1.38,2.77,3.23,2.15,2.31,4.62,2.92,3.38,2.77,4.46,,,,,,,,,,,,,,
1799999991584000000,2027-01-15T07:59:51.584000000Z,-1.54,-0.46,-1.85,-0.92,-0.77,1.69,2.00,3.54,2.31,4.31,4.00,3.85,3.23,4.62,,,,,,,,,,,,,,
1799999991600000000,2027-01-15T07:59:51.600000000Z,0.31,0.62,0.00,-0.77,-1.69,1.08,1.69,2.00,3.08,4.00,3.69,4.62,3.54,4.62,,,,,,,,,,,,,,
1799999991616000000,2027-01-15T07:59:51.616000000Z,1.23,-1.08,1.85,0.46,-1.08,1.54,2.15,2.77,2.62,2.62,3.54,5.38,5.08,4.31,,,,,,,,,,,,,,
1799999991632000000,2027-01-15T07:59:51.632000000Z,0.15,-0.77,1.08,0.92,0.62,0.62,2.15,3.54,2.92,2.15,3.54,5.23,5.69,4.31,,,,,,,,,,,,,,
1799999991648000000,2027-01-15T07:59:51.648000000Z,-2.92,-0.31,0.31,1.38,1.38,0.15,2.92,2.00,0.77,3.69,3.38,4.92,6.15,4.92,,,,,,,,,,,,,,
1799999991664000000,2027-01-15T07:59:51.664000000Z,-0.46,1.08,0.62,2.31,1.23,0.92,3.38,2.92,0.92,4.77,4.31,4.00,4.77,4.15,,,,,,,,,,,,,,
1799999991680000000,2027-01-15T07:59:51.680000000Z,-0.92,0.31,-0.46,2.31,0.77,0.92,-0.31,3.85,2.00,4.62,4.00,5.38,3.85,4.92,,,,,,,,,,,,,,
1799999991696000000,2027-01-15T07:59:51.696000000Z,0.62,-3.23,-0.15,1.69,0.46,0.62,-0.62,2.62,3.08,4.00,3.85,4.31,4.77,4.77,,,,,,,,,,,,,,
1799999991712000000,2027-01-15T07:59:51.712000000Z,0.77,-1.38,1.38,1.38,0.77,0.15,-0.92,2.15,3.38,4.46,3.85,3.38,3.69,4.62,,,,,,,,,,,,,,
1799999991728000000,2027-01-15T07:59:51.728000000Z,0.46,-0.62,2.00,0.00,1.08,-0.62,2.15,2.31,3.85,3.23,2.46,3.54,4.00,5.23,,,,,,,,,,,,,,
1799999991744000000,2027-01-15T07:59:51.744000000Z,-1.54,0.46,-0.77,-0.46,0.46,-0.15,2.00,2.00,4.00,4.15,3.23,3.85,4.31,4.77,,,,,,,,,,,,,,
1799999991760000000,2027-01-15T07:59:51.760000000Z,-1.38,0.31,-1.08,-0.31,1.08,0.15,1.38,1.54,2.92,3.54,3.54,4.62,5.38,5.38,,,,,,,,,,,,,,
1799999991776000000,2027-01-15T07:59:51.776000000Z,0.31,-0.46,-1.69,0.77,2.00,0.62,2.15,2.46,3.54,2.46,4.00,3.69,5.08,5.54,,,,,,,,,,,,,,
1799999991792000000,2027-01-15T07:59:51.792000000Z,1.85,-2.15,-2.00,0.92,2.46,0.92,2.31,2.46,3.38,2.31,4.15,4.46,5.08,6.31,,,,,,,,,,,,,,
1799999991808000000,2027-01-15T07:59:51.808000000Z,1.23,-2.92,-1.38,1.38,1.23,1.08,2.62,1.38,2.62,3.54,3.23,4.62,5.23,6.00,,,,,,,,,,,,,,
1799999991824000000,2027-01-15T07:59:51.824000000Z,0.15,-2.00,-1.54,1.38,-0.15,1.38,3.54,2.77,3.23,4.00,4.31,4.46,5.23,6.62,,,,,,,,,,,,,,
1799999991840000000,2027-01-15T07:59:51.840000000Z,0.77,-1.08,-0.92,0.15,0.31,0.77,3.08,2.77,4.31,2.77,4.62,5.08,6.31,6.46,,,,,,,,,,,,,,
1799999991856000000,2027-01-15T07:59:51.856000000Z,-0.46,0.00,0.31,-0.46,2.46,0.46,1.69,2.62,3.08,3.08,3.85,3.69,5.54,5.08,,,,,,,,,,,,,,
1799999991872000000,2027-01-15T07:59:51.872000000Z,-2.00,-0.31,-0.15,0.46,1.38,1.08,1.38,2.92,2.62,3.08,3.23,3.38,6.92,5.69,,,,,,,,,,,,,,
1799999991888000000,2027-01-15T07:59:51.888000000Z,-1.08,-0.77,0.46,0.92,0.46,1.85,0.31,2.31,4.15,2.92,4.31,5.23,6.31,5.54,,,,,,,,,,,,,,
1799999991904000000,2027-01-15T07:59:51.904000000Z,-0.46,-0.31,0.62,-0.15,1.08,0.92,0.00,0.77,3.85,2.31,3.85,4.62,4.31,4.62,,,,,,,,,,,,,,
1799999991920000000,2027-01-15T07:59:51.920000000Z,-1.54,0.15,-0.62,0.46,0.92,1.54,0.77,2.00,3.38,3.08,3.85,3.69,3.85,4.62,,,,,,,,,,,,,,
1799999991936000000,2027-01-15T07:59:51.936000000Z,-1.54,-2.15,0.00,0.46,1.23,1.38,0.15,2.77,3.23,3.69,3.38,3.38,4.15,3.85,,,,,,,,,,,,,,
1799999991952000000,2027-01-15T07:59:51.952000000Z,-2.46,-2.15,-0.31,0.31,0.92,1.23,0.15,2.92,3.69,3.69,3.69,4.00,5.23,3.54,,,,,,,,,,,,,,
1799999991968000000,2027-01-15T07:59:51.968000000Z,-2.31,-1.23,-0.92,-1.54,1.54,2.77,1.38,2.92,3.54,3.38,4.31,4.46,5.38,5.08,,,,,,,,,,,,,,
1799999991984000000,2027-01-15T07:59:51.984000000Z,-4.77,0.15,-0.92,-1.85,1.85,1.23,0.46,2.00,3.38,2.62,4.31,4.62,5.08,5.69,,,,,,,,,,,,,,
1799999992000000000,2027-01-15T07:59:52.000000000Z,0.31,-0.31,-0.77,-0.77,0.77,-0.15,1.08,2.31,2.46,4.46,4.15,4.77,5.23,4.62,,,,,,,,,,,,,,
1799999992016000000,2027-01-15T07:59:52.016000000Z,0.62,-1.23,0.31,0.46,0.15,0.46,2.77,2.00,3.23,4.92,3.38,4.62,4.62,5.08,,,,,,,,,,,,,,
1799999992032000000,2027-01-15T07:59:52.032000000Z,0.92,-0.46,0.15,0.77,1.08,0.92,2.46,1.08,3.08,1.85,2.62,4.62,4.15,4.92,,,,,,,,,,,,,,
1799999992048000000,2027-01-15T07:59:52.048000000Z,1.08,0.46,0.15,0.62,2.62,1.38,0.92,0.31,2.62,2.92,4.00,4.62,3.08,4.77,,,,,,,,,,,,,,
1799999992064000000,2027-01-15T07:59:52.064000000Z,0.15,0.77,0.00,0.46,2.62,0.31,-0.77,0.46,3.08,3.85,5.08,4.62,4.46,6.31,,,,,,,,,,,,,,
1799999992080000000,2027-01-15T07:59:52.080000000Z,-0.15,1.23,0.15,0.46,2.15,-0.92,-0.31,1.08,3.23,4.15,4.15,5.23,5.23,6.77,,,,,,,,,,,,,,
1799999992096000000,2027-01-15T07:59:52.096000000Z,-0.15,-0.15,0.15,-0.31,0.46,0.15,3.23,2.15,3.23,4.62,2.15,4.46,4.77,6.31,,,,,,,,,,,,,,
1799999992112000000,2027-01-15T07:59:52.112000000Z,1.54,-2.15,-1.85,0.00,0.31,0.77,3.54,2.77,5.08,4.31,3.08,3.69,5.54,6.15,,,,,,,,,,,,,,
1799999992128000000,2027-01-15T07:59:52.128000000Z,-1.08,-1.38,-0.46,1.08,0.62,1.23,3.69,2.15,2.46,3.23,4.00,4.15,5.08,6.46,,,,,,,,,,,,,,
1799999992144000000,2027-01-15T07:59:52.144000000Z,1.08,-0.15,1.54,0.31,0.62,1.69,3.08,2.15,1.38,3.38,4.00,4.46,4.62,5.69,,,,,,,,,,,,,,
1799999992160000000,2027-01-15T07:59:52.160000000Z,-0.15,-0.31,1.54,0.15,1.23,2.31,2.46,2.92,0.92,4.00,4.00,4.92,3.69,6.15,,,,,,,,,,,,,,
1799999992176000000,2027-01-15T07:59:52.176000000Z,0.31,-0.31,1.23,2.15,0.62,2.31,2.92,3.54,1.69,4.46,3.85,5.08,4.62,4.92,,,,,,,,,,,,,,
1799999992192000000,2027-01-15T07:59:52.192000000Z,-1.38,0.15,1.23,0.46,1.54,1.38,2.92,3.38,2.15,4.15,2.62,3.69,6.15,4.46,,,,,,,,,,,,,,
1799999992208000000,2027-01-15T07:59:52.208000000Z,-0.31,-0.46,0.62,0.62,2.15,1.38,3.38,2.46,3.85,4.46,2.00,3.38,6.15,4.77,,,,,,,,,,,,,,
1799999992224000000,2027-01-15T07:59:52.224000000Z,-0.62,0.00,-0.46,1.69,2.00,1.85,4.46,2.00,4.15,2.00,3.23,4.62,5.69,4.31,,,,,,,,,,,,,,
1799999992240000000,2027-01-15T07:59:52.240000000Z,-0.77,0.62,-0.62,1.23,0.00,2.92,3.85,2.62,1.54,1.23,4.00,4.31,5.85,5.08,,,,,,,,,,,,,,
1799999992256000000,2027-01-15T07:59:52.256000000Z,0.62,1.54,-0.46,2.62,0.46,2.46,3.23,2.15,1.23,1.85,4.31,4.31,4.77,6.46,,,,,,,,,,,,,,
1799999992272000000,2027-01-15T07:59:52.272000000Z,1.69,1.08,-0.62,3.85,0.62,1.85,1.54,2.00,1.54,3.08,3.08,4.62,4.92,5.54,,,,,,,,,,,,,,
1799999992288000000,2027-01-15T07:59:52.288000000Z,3.08,0.31,0.15,2.92,0.31,1.08,1.85,1.69,0.92,3.69,2.00,5.85,5.54,5.23,,,,,,,,,,,,,,
1799999992304000000,2027-01-15T07:59:52.304000000Z,1.23,0.77,0.46,0.15,-0.15,0.31,2.31,2.77,2.15,3.85,4.15,5.23,7.08,5.69,,,,,,,,,,,,,,
1799999992320000000,2027-01-15T07:59:52.320000000Z,-0.46,1.38,0.62,-0.31,-0.31,2.00,1.08,2.77,2.77,3.85,4.00,4.15,6.31,5.38,,,,,,,,,,,,,,
1799999992336000000,2027-01-15T07:59:52.336000000Z,1.38,0.46,0.46,-0.62,0.15,1.85,0.92,1.85,1.85,4.31,3.38,4.77,5.69,4.62,,,,,,,,,,,,,,
1799999992352000000,2027-01-15T07:59:52.352000000Z,-0.62,-1.23,1.38,0.31,-0.46,0.77,1.08,1.85,2.00,4.62,3.38,4.46,4.62,4.15,,,,,,,,,,,,,,
1799999992368000000,2027-01-15T07:59:52.368000000Z,-0.31,-0.77,1.08,-1.08,-0.46,1.69,0.62,1.69,3.08,3.23,3.38,4.31,3.38,4.15,,,,,,,,,,,,,,
1799999992384000000,2027-01-15T07:59:52.384000000Z,0.62,-0.31,1.85,-0.62,-0.92,2.31,3.23,2.62,4.62,2.31,2.92,5.23,3.85,5.54,,,,,,,,,,,,,,
1799999992400000000,2027-01-15T07:59:52.400000000Z,-0.15,-0.77,1.38,0.62,-0.77,1.38,2.62,2.62,3.38,4.15,3.38,4.92,4.00,6.00,,,,,,,,,,,,,,
1799999992416000000,2027-01-15T07:59:52.416000000Z,1.08,-0.92,0.00,-0.62,-0.31,1.69,2.00,3.38,3.23,4.46,5.38,4.77,4.62,5.54,,,,,,,,,,,,,,
1799999992432000000,2027-01-15T07:59:52.432000000Z,-1.38,-0.77,0.46,-0.92,0.46,1.38,3.23,4.00,2.46,3.85,4.00,4.77,4.46,4.31,,,,,,,,,,,,,,
1799999992448000000,2027-01-15T07:59:52.448000000Z,-4.77,-2.77,-0.77,-1.38,1.85,0.92,3.38,3.69,2.00,3.85,2.46,3.85,4.15,5.23,,,,,,,,,,,,,,
1799999992464000000,2027-01-15T07:59:52.464000000Z,-3.85,-4.77,-0.46,-0.62,1.23,1.38,3.08,3.69,2.62,2.92,3.69,3.08,4.31,6.15,,,,,,,,,,,,,,
1799999992480000000,2027-01-15T07:59:52.480000000Z,-0.77,-2.00,0.31,-0.31,1.38,2.00,3.54,2.77,2.77,2.46,4.15,4.00,4.77,6.15,,,,,,,,,,,,,,
1799999992496000000,2027-01-15T07:59:52.496000000Z,-0.92,-0.92,-0.62,0.15,1.69,2.15,3.85,3.23,2.77,2.46,4.92,5.23,4.77,5.23,,,,,,,,,,,,,,
1799999992512000000,2027-01-15T07:59:52.512000000Z,0.46,0.92,-0.31,1.69,1.23,2.31,2.92,3.08,2.92,4.15,4.31,5.08,5.08,5.23,,,,,,,,,,,,,,
1799999992528000000,2027-01-15T07:59:52.528000000Z,-0.31,2.31,0.92,2.15,0.46,2.15,2.00,1.23,3.23,5.23,5.69,4.00,5.85,5.54,,,,,,,,,,,,,,
1799999992544000000,2027-01-15T07:59:52.544000000Z,-0.31,1.08,0.46,3.38,0.15,1.08,3.08,0.31,2.00,4.77,4.77,3.85,6.15,5.08,,,,,,,,,,,,,,
1799999992560000001,2027-01-15T07:59:52.560000001Z,-0.92,-0.92,-1.23,1.23,1.69,1.54,2.92,0.77,3.23,2.77,3.69,4.31,5.38,4.31,,,,,,,,,,,,,,
1799999992576000001,2027-01-15T07:59:52.576000001Z,1.08,-1.08,-0.62,0.31,1.69,2.46,2.31,1.08,4.31,2.77,4.46,5.23,4.46,5.38,,,,,,,,,,,,,,
1799999992592000000,2027-01-15T07:59:52.592000000Z,-0.46,-3.08,-0.62,0.92,1.23,2.62,1.54,2.46,1.54,2.31,4.46,4.62,6.00,6.46,,,,,,,,,,,,,,
1799999992608000001,2027-01-15T07:59:52.608000001Z,0.46,-2.46,-1.54,2.31,0.15,2.31,0.15,3.23,2.00,2.92,2.92,3.54,5.23,6.62,,,,,,,,,,,,,,
1799999992624000000,2027-01-15T07:59:52.624000000Z,-2.92,-1.23,-1.54,2.31,2.00,3.38,1.23,3.23,3.38,4.62,3.69,4.00,5.38,5.69,,,,,,,,,,,,,,
1799999992640000001,2027-01-15T07:59:52.640000001Z,0.15,-1.69,-0.92,0.62,2.00,4.00,1.85,2.92,3.23,3.38,3.85,4.46,5.85,4.62,,,,,,,,,,,,,,
1799999992656000000,2027-01-15T07:59:52.656000000Z,-0.77,-1.69,-1.08,0.31,1.85,3.38,2.46,2.00,4.46,3.23,3.85,4.46,4.92,5.08,,,,,,,,,,,,,,
1799999992672000000,2027-01-15T07:59:52.672000000Z,0.77,-1.38,-1.54,0.00,2.62,2.92,1.38,1.23,3.85,4.00,3.69,3.54,3.08,4.92,,,,,,,,,,,,,,
1799999992688000001,2027-01-15T07:59:52.688000001Z,-2.62,-2.15,-0.92,0.31,2.62,1.85,0.77,1.69,3.69,2.92,3.54,5.54,2.31,5.54,,,,,,,,,,,,,,
1799999992704000000,2027-01-15T07:59:52.704000000Z,-1.54,-1.69,0.15,-1.85,0.77,0.62,1.54,2.31,2.46,2.77,4.62,5.69,4.62,5.08,,,,,,,,,,,,,,
1799999992720000001,2027-01-15T07:59:52.720000001Z,0.46,0.31,0.31,-0.92,0.77,1.08,2.77,2.15,4.77,2.77,4.46,3.08,4.62,3.08,,,,,,,,,,,,,,
1799999992736000000,2027-01-15T07:59:52.736000000Z,0.77,0.46,-0.92,0.92,1.85,1.69,3.08,2.00,4.15,2.46,3.85,4.15,4.15,4.31,,,,,,,,,,,,,,
1799999992752000000,2027-01-15T07:59:52.752000000Z,0.00,0.46,0.15,0.00,0.92,1.08,-0.15,1.23,3.08,2.00,3.69,4.15,6.15,5.85,,,,,,,,,,,,,,
1799999992768000001,2027-01-15T07:59:52.768000001Z,1.23,0.00,0.77,-0.31,0.31,1.38,0.00,2.00,2.77,3.85,3.23,2.92,6.77,4.00,,,,,,,,,,,,,,
1799999992784000000,2027-01-15T07:59:52.784000000Z,1.54,-1.23,2.00,-0.31,2.92,2.46,1.23,1.85,2.62,3.38,4.62,4.15,6.46,4.31,,,,,,,,,,,,,,
1799999992800000001,2027-01-15T07:59:52.800000001Z,-2.15,-1.38,0.92,-0.15,2.46,2.46,1.69,1.54,3.23,3.54,4.15,5.08,5.54,4.92,,,,,,,,,,,,,,
1799999992816000000,2027-01-15T07:59:52.816000000Z,0.62,-0.46,1.08,-0.15,0.77,0.15,1.54,2.77,2.62,2.92,4.31,5.23,4.31,6.15,,,,,,,,,,,,,,
1799999992832000000,2027-01-15T07:59:52.832000000Z,-0.62,-0.15,1.69,-0.31,-0.15,-0.31,1.54,2.77,3.08,2.92,3.23,4.77,4.00,6.77,,,,,,,,,,,,,,
1799999992848000001,2027-01-15T07:59:52.848000001Z,-1.38,0.62,-0.15,-1.08,0.31,1.38,1.23,2.15,2.92,4.31,2.00,4.77,4.77,5.69,,,,,,,,,,,,,,
1799999992864000000,2027-01-15T07:59:52.864000000Z,-0.62,-0.31,-0.62,-1.38,0.46,1.38,0.62,2.15,2.46,3.38,3.38,4.62,5.08,4.46,,,,,,,,,,,,,,
1799999992880000001,2027-01-15T07:59:52.880000001Z,-0.31,-0.31,-1.54,0.46,1.38,0.92,0.92,2.31,2.46,3.23,3.38,4.62,4.46,4.92,,,,,,,,,,,,,,
1799999992896000000,2027-01-15T07:59:52.896000000Z,0.92,-2.00,-1.23,1.54,0.31,1.23,1.23,2.62,1.85,4.62,3.38,3.38,3.85,5.54,,,,,,,,,,,,,,
1799999992912000000,2027-01-15T07:59:52.912000000Z,0.62,-2.00,-0.77,1.85,-1.23,1.38,2.00,2.00,2.15,4.77,3.38,4.15,3.85,5.69,,,,,,,,,,,,,,
1799999992928000000,2027-01-15T07:59:52.928000000Z,-1.08,-0.92,0.00,1.38,0.62,0.15,2.62,0.77,2.31,3.85,4.00,5.54,5.69,5.23,,,,,,,,,,,,,,
1799999992944000000,2027-01-15T07:59:52.944000000Z,-1.54,-0.62,0.00,0.15,0.92,-2.77,4.00,1.69,2.46,4.15,3.69,4.15,6.46,4.31,,,,,,,,,,,,,,
1799999992960000001,2027-01-15T07:59:52.960000001Z,-1.38,0.00,-0.15,-0.15,0.31,-2.15,3.69,2.62,2.77,4.46,2.92,3.54,4.92,4.00,,,,,,,,,,,,,,
1799999992976000000,2027-01-15T07:59:52.976000000Z,-0.15,-0.92,0.31,-0.62,-0.62,-1.23,2.92,2.62,3.38,5.85,3.85,3.69,4.46,4.00,,,,,,,,,,,,,,
1799999992992000000,2027-01-15T07:59:52.992000000Z,-1.23,-1.54,0.31,-0.62,1.08,0.00,3.69,2.46,2.92,4.62,3.23,5.23,3.85,5.54,,,,,,,,,,,,,,
1799999993008000000,2027-01-15T07:59:53.008000000Z,0.31,-0.31,0.62,0.62,0.00,0.62,2.77,2.00,3.08,2.77,3.38,6.15,4.31,5.69,,,,,,,,,,,,,,
1799999993024000000,2027-01-15T07:59:53.024000000Z,-0.92,-0.62,1.08,1.23,1.23,1.54,2.00,2.15,3.38,2.77,4.62,4.77,4.92,6.00,,,,,,,,,,,,,,
1799999993040000001,2027-01-15T07:59:53.040000001Z,0.62,-0.15,1.23,1.08,1.85,1.85,2.31,2.46,3.69,3.54,4.46,4.00,6.00,5.23,,,,,,,,,,,,,,
1799999993056000000,2027-01-15T07:59:53.056000000Z,-0.31,-0.77,0.31,1.23,1.08,2.92,1.85,2.46,2.92,4.46,4.15,3.23,4.92,3.54,,,,,,,,,,,,,,
1799999993072000000,2027-01-15T07:59:53.072000000Z,-0.62,-1.69,0.46,1.23,-0.15,2.00,2.77,4.00,2.15,4.31,3.38,3.08,4.77,4.31,,,,,,,,,,,,,,
1799999993088000000,2027-01-15T07:59:53.088000000Z,1.08,-0.15,0.15,1.08,0.00,1.85,3.23,4.15,3.38,4.15,2.31,3.69,4.77,4.92,,,,,,,,,,,,,,
1799999993104000000,2027-01-15T07:59:53.104000000Z,0.62,0.31,-0.77,1.08,-1.08,1.38,3.08,2.62,4.46,2.77,2.92,2.46,4.62,5.69,,,,,,,,,,,,,,
1799999993120000001,2027-01-15T07:59:53.120000001Z,0.62,0.46,-0.62,1.69,-0.62,1.54,1.38,2.46,4.00,2.62,4.15,3.54,4.31,5.23,,,,,,,,,,,,,,
1799999993136000000,2027-01-15T07:59:53.136000000Z,0.00,0.62,-0.77,-0.62,0.62,2.00,1.08,2.92,2.77,3.38,4.00,4.77,4.46,6.15,,,,,,,,,,,,,,
1799999993152000000,2027-01-15T07:59:53.152000000Z,-0.62,-0.15,-1.69,-0.15,1.54,0.92,2.62,1.08,1.85,3.08,3.08,5.38,6.77,6.31,,,,,,,,,,,,,,
1799999993168000000,2027-01-15T07:59:53.168000000Z,-0.62,-0.62,-1.85,1.38,1.85,0.77,2.62,1.54,1.23,3.54,3.54,6.00,5.69,5.54,,,,,,,,,,,,,,
1799999993184000000,2027-01-15T07:59:53.184000000Z,0.62,-1.23,-0.62,0.77,1.08,1.08,1.23,2.62,1.38,3.08,3.23,4.31,4.62,4.77,,,,,,,,,,,,,,
1799999993200000000,2027-01-15T07:59:53.200000000Z,0.62,0.15,-1.54,1.08,0.46,-0.15,1.38,2.62,2.15,3.85,3.69,3.38,4.31,5.69,,,,,,,,,,,,,,
1799999993216000000,2027-01-15T07:59:53.216000000Z,0.15,0.62,-2.31,1.69,0.15,0.77,3.54,2.31,2.92,3.69,4.46,3.69,4.15,5.69,,,,,,,,,,,,,,
1799999993232000000,2027-01-15T07:59:53.232000000Z,0.15,-1.23,-0.31,2.92,0.77,2.00,2.00,2.92,3.38,3.08,4.77,4.92,4.15,5.69,,,,,,,,,,,,,,
1799999993248000000,2027-01-15T07:59:53.248000000Z,-1.08,-0.62,-0.15,1.23,1.54,2.00,1.38,4.00,2.31,4.31,5.54,6.15,6.00,6.31,,,,,,,,,,,,,,
1799999993264000000,2027-01-15T07:59:53.264000000Z,-0.31,-1.08,0.46,0.92,1.85,2.31,0.62,3.85,2.00,3.69,5.23,4.92,7.69,7.54,,,,,,,,,,,,,,
1799999993280000000,2027-01-15T07:59:53.280000000Z,-0.15,-0.62,0.46,1.08,0.62,1.85,0.77,2.62,2.46,2.62,4.31,3.85,6.92,6.15,,,,,,,,,,,,,,
1799999993296000000,2027-01-15T07:59:53.296000000Z,-1.54,-1.23,1.69,-0.15,0.77,0.62,1.23,2.31,3.23,3.85,4.46,4.62,5.23,3.38,,,,,,,,,,,,,,
1799999993312000000,2027-01-15T07:59:53.312000000Z,-1.23,-0.62,1.23,-0.15,2.15,1.23,1.54,2.62,4.00,3.69,4.92,5.54,5.08,3.54,,,,,,,,,,,,,,
1799999993328000000,2027-01-15T07:59:53.328000000Z,-2.31,-0.31,0.00,0.00,0.31,2.46,2.00,3.38,4.46,4.15,4.31,4.62,5.23,4.46,,,,,,,,,,,,,,
1799999993344000000,2027-01-15T07:59:53.344000000Z,-1.85,-1.85,0.00,0.15,0.62,2.00,3.54,3.38,3.23,3.69,3.69,3.38,4.31,6.00,,,,,,,,,,,,,,
1799999993360000000,2027-01-15T07:59:53.360000000Z,-3.23,-1.85,-0.46,0.46,0.77,1.54,3.85,2.77,2.92,4.31,3.08,4.15,3.85,5.23,,,,,,,,,,,,,,
1799999993376000000,2027-01-15T07:59:53.376000000Z,-1.38,-2.15,-0.62,0.15,0.15,0.77,3.85,2.46,2.46,4.00,2.46,3.85,5.08,5.08,,,,,,,,,,,,,,
1799999993392000000,2027-01-15T07:59:53.392000000Z,0.31,-1.54,0.15,-0.46,0.31,0.92,2.77,3.54,3.85,2.62,3.69,5.08,3.54,5.08,,,,,,,,,,,,,,
1799999993408000000,2027-01-15T07:59:53.408000000Z,-0.62,-1.23,-0.46,-0.15,0.62,1.23,1.54,2.92,3.69,3.23,3.85,5.08,6.00,5.85,,,,,,,,,,,,,,
1799999993424000000,2027-01-15T07:59:53.424000000Z,-0.46,-0.62,0.31,0.31,0.92,1.69,1.38,1.85,2.77,4.31,4.46,3.69,7.23,5.23,,,,,,,,,,,,,,
1799999993440000000,2027-01-15T07:59:53.440000000Z,-0.62,-1.08,1.08,1.23,0.77,1.08,2.00,2.00,2.62,3.85,3.85,4.00,6.31,4.15,,,,,,,,,,,,,,
1799999993456000000,2027-01-15T07:59:53.456000000Z,-0.77,0.00,0.15,0.92,0.77,1.69,1.23,1.23,3.08,3.54,3.38,5.23,5.23,4.46,,,,,,,,,,,,,,
1799999993472000000,2027-01-15T07:59:53.472000000Z,1.08,0.92,-0.46,-0.77,0.92,2.77,1.54,0.77,2.92,4.15,2.77,4.77,2.92,4.46,,,,,,,,,,,,,,
1799999993488000000,2027-01-15T07:59:53.488000000Z,-1.08,1.23,0.62,0.31,1.08,3.08,1.85,1.38,3.85,4.15,2.77,4.46,4.92,4.77,,,,,,,,,,,,,,
1799999993504000000,2027-01-15T07:59:53.504000000Z,-0.62,0.31,1.54,-0.15,0.62,2.00,2.92,1.38,4.00,3.08,2.31,4.62,5.69,4.62,,,,,,,,,,,,,,
1799999993520000000,2027-01-15T07:59:53.520000000Z,-0.92,-0.77,1.38,0.31,-0.15,1.85,1.69,1.23,2.92,4.15,3.23,4.62,4.31,5.38,,,,,,,,,,,,,,
1799999993536000000,2027-01-15T07:59:53.536000000Z,0.46,-0.62,-0.92,0.92,1.08,2.15,1.23,0.46,3.38,2.62,4.92,3.54,4.46,6.31,,,,,,,,,,,,,,
1799999993552000000,2027-01-15T07:59:53.552000000Z,-0.46,-0.92,-0.62,0.92,1.38,2.92,0.92,0.46,2.46,1.54,4.31,3.54,5.69,6.15,,,,,,,,,,,,,,
1799999993568000000,2027-01-15T07:59:53.568000000Z,0.46,0.92,-0.31,1.08,0.31,2.62,0.31,0.92,2.46,2.92,3.08,4.46,4.62,4.77,,,,,,,,,,,,,,
1799999993584000001,2027-01-15T07:59:53.584000001Z,-0.15,-1.23,0.77,1.23,0.00,2.77,0.00,1.69,3.23,4.00,3.54,4.92,3.54,5.08,,,,,,,,,,,,,,
1799999993600000000,2027-01-15T07:59:53.600000000Z,-0.77,-1.85,0.46,0.31,-0.15,2.15,-1.08,2.92,2.46,3.69,3.38,4.15,4.77,5.54,,,,,,,,,,,,,,
1799999993616000001,2027-01-15T07:59:53.616000001Z,-0.62,-0.15,0.31,0.46,1.23,2.46,-1.08,2.46,3.38,1.69,3.54,3.23,6.00,5.23,,,,,,,,,,,,,,
1799999993632000000,2027-01-15T07:59:53.632000000Z,0.46,-0.92,-0.92,2.00,2.31,1.85,1.38,2.46,3.38,1.08,2.92,2.62,5.69,4.92,,,,,,,,,,,,,,
1799999993648000000,2027-01-15T07:59:53.648000000Z,-0.62,-0.31,-1.69,0.77,1.85,1.54,2.77,1.69,3.69,2.15,4.00,2.92,5.38,6.31,,,,,,,,,,,,,,
1799999993664000000,2027-01-15T07:59:53.664000000Z,0.31,-0.46,-0.46,-1.08,1.38,1.85,1.69,1.38,5.69,5.23,5.38,2.92,4.31,6.46,,,,,,,,,,,,,,
1799999993680000000,2027-01-15T07:59:53.680000000Z,-1.23,-1.38,0.31,1.23,1.23,0.77,0.31,1.54,4.62,4.15,3.69,2.92,4.31,5.54,,,,,,,,,,,,,,
1799999993696000001,2027-01-15T07:59:53.696000001Z,0.15,-0.77,0.00,2.46,1.23,1.54,1.69,3.08,2.77,3.54,4.31,2.62,4.62,5.08,,,,,,,,,,,,,,
1799999993712000000,2027-01-15T07:59:53.712000000Z,-0.46,0.31,-0.46,0.62,0.92,1.54,1.54,3.54,1.85,4.00,3.23,3.23,5.69,4.46,,,,,,,,,,,,,,
1799999993728000000,2027-01-15T07:59:53.728000000Z,0.92,-1.08,-0.77,-1.38,1.23,1.08,1.38,3.08,1.85,3.38,2.62,4.00,7.08,5.69,,,,,,,,,,,,,,
1799999993744000000,2027-01-15T07:59:53.744000000Z,-0.62,-2.00,-0.31,0.46,1.23,-0.31,1.85,3.08,1.08,2.77,3.85,5.08,6.15,5.69,,,,,,,,,,,,,,
1799999993760000000,2027-01-15T07:59:53.760000000Z,-2.15,-1.54,-0.62,0.62,0.31,-0.31,3.23,2.31,0.31,3.38,3.85,5.38,5.38,4.77,,,,,,,,,,,,,,
1799999993776000001,2027-01-15T07:59:53.776000001Z,-0.46,-1.38,0.92,0.46,0.77,0.92,1.85,1.38,1.23,3.23,2.31,5.08,4.46,4.92,,,,,,,,,,,,,,
1799999993792000000,2027-01-15T07:59:53.792000000Z,0.92,-1.85,1.23,0.46,2.15,0.46,3.23,2.31,2.92,3.23,2.62,4.77,5.38,5.54,,,,,,,,,,,,,,
1799999993808000000,2027-01-15T07:59:53.808000000Z,-0.92,0.92,2.31,0.31,0.77,0.31,2.92,4.31,2.77,3.54,4.77,3.85,4.77,5.08,,,,,,,,,,,,,,
1799999993824000000,2027-01-15T07:59:53.824000000Z,0.77,0.46,1.85,0.92,-0.31,1.23,1.23,4.46,3.54,2.00,5.23,4.31,4.62,5.23,,,,,,,,,,,,,,
1799999993840000000,2027-01-15T07:59:53.840000000Z,-0.62,-1.69,0.46,1.23,1.69,1.85,1.38,3.69,3.69,3.69,4.31,4.77,5.85,4.00,,,,,,,,,,,,,,
1799999993856000001,2027-01-15T07:59:53.856000001Z,-0.62,-1.85,0.77,0.00,1.23,1.85,2.46,1.54,3.69,3.69,3.38,5.23,4.31,3.69,,,,,,,,,,,,,,
1799999993872000000,2027-01-15T07:59:53.872000000Z,-0.77,-2.15,1.08,-0.77,-0.62,1.69,1.08,1.38,2.00,2.00,4.15,5.38,4.46,5.08,,,,,,,,,,,,,,
1799999993888000000,2027-01-15T07:59:53.888000000Z,-0.46,-2.46,0.77,-1.08,-0.31,1.69,1.85,3.08,1.54,3.54,4.31,5.54,5.38,6.00,,,,,,,,,,,,,,
1799999993904000000,2027-01-15T07:59:53.904000000Z,-2.31,-1.08,-0.31,-1.38,0.77,1.85,2.62,3.38,2.62,3.85,3.54,4.62,4.15,6.62,,,,,,,,,,,,,,
1799999993920000000,2027-01-15T07:59:53.920000000Z,0.15,-0.77,-0.62,0.15,1.08,2.00,2.31,3.38,2.31,1.69,2.31,3.85,4.15,6.15,,,,,,,,,,,,,,
1799999993936000000,2027-01-15T07:59:53.936000000Z,0.46,-0.77,-0.46,0.77,1.23,1.38,1.85,2.92,0.92,2.62,2.77,4.62,4.46,5.23,,,,,,,,,,,,,,
1799999993952000000,2027-01-15T07:59:53.952000000Z,-0.15,-1.08,-0.77,0.77,0.77,0.77,2.77,2.15,3.23,3.08,3.85,5.08,4.46,6.31,,,,,,,,,,,,,,
1799999993968000000,2027-01-15T07:59:53.968000000Z,-1.08,-0.92,-0.46,-0.31,0.46,0.46,2.46,3.08,2.46,2.62,2.92,5.38,4.62,5.85,,,,,,,,,,,,,,
1799999993984000000,2027-01-15T07:59:53.984000000Z,-0.62,0.46,0.15,-0.46,0.62,0.77,2.31,3.54,2.77,3.54,3.38,4.31,6.15,4.15,,,,,,,,,,,,,,
1799999994000000000,2027-01-15T07:59:54.000000000Z,0.00,-0.15,-0.77,0.62,1.08,0.62,3.08,2.46,2.46,3.38,3.69,3.38,6.31,3.08,,,,,,,,,,,,,,
1799999994016000000,2027-01-15T07:59:54.016000000Z,0.62,0.92,-0.62,0.46,0.62,1.23,3.85,1.23,1.38,3.08,4.00,3.54,6.92,2.77,,,,,,,,,,,,,,
1799999994032000000,2027-01-15T07:59:54.032000000Z,-0.46,0.62,0.00,0.77,0.77,0.62,2.92,3.08,2.15,3.54,4.15,4.46,5.54,4.92,,,,,,,,,,,,,,
1799999994048000000,2027-01-15T07:59:54.048000000Z,-0.62,-0.31,-0.15,0.00,1.08,0.15,2.00,3.23,2.00,4.00,3.38,5.23,4.00,4.92,,,,,,,,,,,,,,
1799999994064000000,2027-01-15T07:59:54.064000000Z,0.31,-2.46,-0.77,0.46,1.38,0.92,2.46,2.46,2.46,4.62,3.54,5.08,4.00,6.15,,,,,,,,,,,,,,
1799999994080000000,2027-01-15T07:59:54.080000000Z,0.46,-1.38,-0.31,2.62,1.38,0.15,2.15,2.00,3.23,5.23,3.85,4.62,4.77,6.62,,,,,,,,,,,,,,
1799999994096000000,2027-01-15T07:59:54.096000000Z,-0.92,-0.77,-0.46,1.85,1.38,0.46,2.00,2.46,3.38,3.38,4.62,6.15,4.62,5.54,,,,,,,,,,,,,,
1799999994112000000,2027-01-15T07:59:54.112000000Z,-1.38,-0.62,-0.77,1.38,1.85,0.77,3.08,2.31,5.08,3.85,3.85,6.15,5.38,5.69,,,,,,,,,,,,,,
1799999994128000000,2027-01-15T07:59:54.128000000Z,-3.08,-2.92,-0.92,1.54,1.69,1.69,3.85,1.85,4.00,4.00,4.00,5.85,5.54,4.92,,,,,,,,,,,,,,
1799999994144000000,2027-01-15T07:59:54.144000000Z,-2.15,-4.15,-1.54,-0.15,1.23,2.77,4.15,3.69,4.15,4.77,3.85,3.38,4.62,4.15,,,,,,,,,,,,,,
1799999994160000000,2027-01-15T07:59:54.160000000Z,-7.38,-1.38,0.00,-0.77,1.08,3.69,4.00,0.92,5.23,3.85,3.23,3.23,5.08,5.08,,,,,,,,,,,,,,
1799999994176000000,2027-01-15T07:59:54.176000000Z,-1.85,2.31,0.00,0.92,0.62,1.85,2.15,-0.31,4.92,2.62,3.54,4.31,5.08,5.85,,,,,,,,,,,,,,
1799999994192000000,2027-01-15T07:59:54.192000000Z,-0.92,0.46,-1.38,0.77,1.85,2.15,2.15,2.77,4.31,4.15,4.15,3.69,4.62,4.92,,,,,,,,,,,,,,
1799999994208000000,2027-01-15T07:59:54.208000000Z,1.69,0.46,-0.77,2.31,1.38,2.31,2.62,2.92,2.62,2.62,4.00,4.00,6.46,6.31,,,,,,,,,,,,,,
1799999994224000000,2027-01-15T07:59:54.224000000Z,0.62,-0.46,-0.62,0.92,0.92,1.54,1.23,2.46,2.00,4.31,4.77,3.54,6.15,5.23,,,,,,,,,,,,,,
1799999994240000000,2027-01-15T07:59:54.240000000Z,2.46,-2.00,-1.85,0.31,1.23,2.00,0.92,1.85,1.69,5.69,3.38,3.69,5.38,4.31,,,,,,,,,,,,,,
1799999994256000000,2027-01-15T07:59:54.256000000Z,1.85,-0.15,-0.31,0.15,1.08,2.46,2.77,1.23,2.62,3.23,2.77,4.77,5.08,6.00,,,,,,,,,,,,,,
1799999994272000000,2027-01-15T07:59:54.272000000Z,0.15,1.08,0.77,0.46,0.46,3.08,0.77,1.69,1.54,4.92,2.92,3.85,3.38,6.46,,,,,,,,,,,,,,
1799999994288000000,2027-01-15T07:59:54.288000000Z,2.15,1.23,1.85,0.77,-0.62,2.00,1.08,1.54,1.08,3.54,5.85,2.62,2.77,7.54,,,,,,,,,,,,,,
1799999994304000000,2027-01-15T07:59:54.304000000Z,4.31,2.31,2.00,0.31,0.00,4.31,1.38,1.23,2.31,4.00,5.54,3.69,4.46,6.92,,,,,,,,,,,,,,
1799999994320000000,2027-01-15T07:59:54.320000000Z,1.08,2.15,1.38,1.08,0.00,3.38,1.69,1.23,2.92,4.77,4.62,4.92,4.92,6.62,,,,,,,,,,,,,,
1799999994336000000,2027-01-15T07:59:54.336000000Z,1.08,1.69,0.15,2.00,0.00,1.85,0.62,1.85,3.85,4.92,3.38,5.23,5.54,5.54,,,,,,,,,,,,,,
1799999994352000000,2027-01-15T07:59:54.352000000Z,-0.46,1.54,-0.31,1.54,0.62,0.46,3.23,1.54,4.00,5.85,4.00,5.69,5.69,5.54,,,,,,,,,,,,,,
1799999994368000000,2027-01-15T07:59:54.368000000Z,1.38,0.31,0.62,1.85,0.77,-0.15,2.00,0.15,1.85,4.31,3.08,5.23,5.38,5.23,,,,,,,,,,,,,,
1799999994384000000,2027-01-15T07:59:54.384000000Z,-2.00,-0.15,1.08,0.15,0.92,-0.77,0.92,-0.31,1.38,3.23,1.69,3.08,3.85,5.38,,,,,,,,,,,,,,
1799999994400000000,2027-01-15T07:59:54.400000000Z,-0.92,-1.23,-0.31,0.62,2.15,0.15,0.46,3.69,2.00,2.92,2.15,1.38,3.08,5.69,,,,,,,,,,,,,,
1799999994416000000,2027-01-15T07:59:54.416000000Z,-0.77,-2.46,-0.15,0.92,1.23,2.92,0.46,1.85,2.92,1.69,3.85,2.62,4.15,4.15,,,,,,,,,,,,,,
1799999994432000000,2027-01-15T07:59:54.432000000Z,-0.77,-2.15,0.15,1.23,0.46,2.46,0.92,2.31,2.92,1.23,4.31,3.38,6.31,4.00,,,,,,,,,,,,,,
1799999994448000000,2027-01-15T07:59:54.448000000Z,1.69,-2.00,-0.15,1.23,1.08,2.15,4.77,4.00,1.85,2.15,2.77,5.38,4.92,4.31,,,,,,,,,,,,,,
1799999994464000000,2027-01-15T07:59:54.464000000Z,0.15,0.46,0.15,2.00,-0.31,1.69,2.46,4.46,2.00,2.77,3.54,4.46,4.46,5.54,,,,,,,,,,,,,,
1799999994480000000,2027-01-15T07:59:54.480000000Z,-0.15,0.31,0.31,2.00,-0.46,1.23,0.31,4.31,3.08,2.46,4.46,3.69,3.54,5.38,,,,,,,,,,,,,,
1799999994496000000,2027-01-15T07:59:54.496000000Z,0.15,-1.85,-0.31,0.62,1.08,2.46,1.38,2.46,3.38,3.69,4.00,5.23,4.31,5.08,,,,,,,,,,,,,,
1799999994512000000,2027-01-15T07:59:54.512000000Z,-2.00,-2.15,-0.62,0.77,3.08,2.62,2.46,1.85,3.69,5.08,4.00,4.31,5.08,4.46,,,,,,,,,,,,,,
1799999994528000000,2027-01-15T07:59:54.528000000Z,0.00,-2.00,-0.15,0.92,2.62,1.08,2.62,2.46,2.15,3.38,3.85,2.15,5.08,4.31,,,,,,,,,,,,,,
1799999994544000001,2027-01-15T07:59:54.544000001Z,-1.69,-1.54,1.08,0.46,1.23,1.23,3.54,2.46,4.00,1.08,2.31,4.15,4.46,4.46,,,,,,,,,,,,,,
1799999994560000000,2027-01-15T07:59:54.560000000Z,1.38,-0.77,0.62,0.62,1.08,1.69,2.46,2.46,3.69,1.69,2.00,4.31,3.85,4.77,,,,,,,,,,,,,,
1799999994576000001,2027-01-15T07:59:54.576000001Z,0.31,-0.77,0.31,0.92,0.92,1.23,2.31,2.31,2.31,3.69,3.08,3.69,3.85,4.77,,,,,,,,,,,,,,
1799999994592000001,2027-01-15T07:59:54.592000001Z,-0.62,-1.85,0.00,0.62,1.23,0.46,2.31,1.69,3.69,3.85,5.38,4.77,4.31,5.38,,,,,,,,,,,,,,
1799999994608000000,2027-01-15T07:59:54.608000000Z,-2.15,-2.62,-1.08,-0.15,0.62,-0.92,1.69,1.38,4.00,4.31,4.62,4.46,4.92,4.46,,,,,,,,,,,,,,
1799999994624000001,2027-01-15T07:59:54.624000001Z,-2.31,-3.08,-1.54,-1.54,-0.15,-1.08,1.69,1.69,4.77,4.62,4.62,3.69,4.31,3.85,,,,,,,,,,,,,,
1799999994640000000,2027-01-15T07:59:54.640000000Z,-2.00,-2.31,-1.23,-0.77,0.77,-0.62,1.38,1.85,2.62,3.38,3.85,4.46,4.92,4.46,,,,,,,,,,,,,,
1799999994656000001,2027-01-15T07:59:54.656000001Z,1.85,-0.31,0.46,0.31,0.46,0.31,1.08,1.23,1.54,4.62,3.69,3.54,4.62,6.46,,,,,,,,,,,,,,
1799999994672000000,2027-01-15T07:59:54.672000000Z,-0.77,0.77,-0.15,0.77,0.31,1.08,0.77,2.00,1.85,4.46,3.23,2.77,3.54,7.08,,,,,,,,,,,,,,
1799999994688000000,2027-01-15T07:59:54.688000000Z,1.23,-1.38,-1.08,0.62,0.92,0.77,1.38,4.00,2.92,3.23,3.23,4.31,5.08,6.77,,,,,,,,,,,,,,
1799999994704000001,2027-01-15T07:59:54.704000001Z,0.00,-1.69,-0.62,0.46,1.23,-0.46,2.62,4.77,4.77,4.00,4.31,4.46,5.54,5.69,,,,,,,,,,,,,,
1799999994720000000,2027-01-15T07:59:54.720000000Z,-0.15,-2.00,-0.31,-0.62,1.08,0.92,2.62,2.62,4.62,5.38,3.69,4.31,5.23,4.15,,,,,,,,,,,,,,
1799999994736000001,2027-01-15T07:59:54.736000001Z,-2.15,-1.85,-0.77,-1.23,0.15,2.00,1.38,3.08,3.23,4.62,2.77,5.69,5.69,4.31,,,,,,,,,,,,,,
1799999994752000000,2027-01-15T07:59:54.752000000Z,-2.31,-1.69,-0.46,-1.54,0.77,0.62,1.08,2.77,2.00,1.38,3.08,6.46,5.69,4.92,,,,,,,,,,,,,,
1799999994768000000,2027-01-15T07:59:54.768000000Z,0.15,0.31,0.46,0.15,1.23,0.77,1.69,2.77,2.77,2.46,3.23,5.69,5.38,3.69,,,,,,,,,,,,,,
1799999994784000001,2027-01-15T07:59:54.784000001Z,0.46,-0.15,0.46,0.62,1.38,2.15,4.15,4.31,2.46,3.38,3.38,5.08,5.69,4.77,,,,,,,,,,,,,,
1799999994800000000,2027-01-15T07:59:54.800000000Z,0.00,-0.62,0.00,0.15,0.62,2.31,3.38,3.08,2.62,2.15,5.38,4.92,6.31,5.69,,,,,,,,,,,,,,
1799999994816000001,2027-01-15T07:59:54.816000001Z,0.15,-0.46,0.46,-0.62,-0.77,2.46,2.15,0.92,2.62,1.69,5.69,4.31,6.62,5.69,,,,,,,,,,,,,,
1799999994832000000,2027-01-15T07:59:54.832000000Z,0.46,0.77,0.46,0.00,-0.31,1.69,2.77,0.62,3.08,3.38,3.69,5.08,6.46,5.54,,,,,,,,,,,,,,
1799999994848000000,2027-01-15T07:59:54.848000000Z,1.54,0.31,1.69,0.77,0.46,1.08,2.31,1.54,3.23,3.38,3.69,6.31,5.85,4.92,,,,,,,,,,,,,,
1799999994864000001,2027-01-15T07:59:54.864000001Z,-1.08,-0.31,0.62,0.15,1.38,0.62,0.77,2.77,3.38,2.92,5.08,5.08,4.31,4.00,,,,,,,,,,,,,,
1799999994880000000,2027-01-15T07:59:54.880000000Z,0.15,-0.62,-1.23,1.23,1.69,1.23,0.00,0.77,2.92,3.54,3.54,2.92,4.15,6.46,,,,,,,,,,,,,,
1799999994896000001,2027-01-15T07:59:54.896000001Z,0.77,0.62,0.15,1.85,1.38,1.38,2.46,-0.62,2.62,4.46,3.85,3.38,4.15,6.00,,,,,,,,,,,,,,
1799999994912000000,2027-01-15T07:59:54.912000000Z,0.46,1.69,1.08,0.92,1.23,1.08,0.46,1.69,3.08,3.85,4.46,4.00,4.31,5.23,,,,,,,,,,,,,,
1799999994928000000,2027-01-15T07:59:54.928000000Z,-1.85,0.31,0.62,-0.92,1.23,2.15,1.38,2.62,2.77,2.46,4.92,4.15,4.77,5.08,,,,,,,,,,,,,,
1799999994944000000,2027-01-15T07:59:54.944000000Z,0.00,0.46,-0.92,0.31,1.69,3.54,2.15,3.23,2.00,2.15,3.38,4.31,3.54,6.15,,,,,,,,,,,,,,
1799999994960000000,2027-01-15T07:59:54.960000000Z,-0.46,2.00,0.15,1.54,1.54,2.00,1.23,1.23,2.62,4.00,1.69,3.38,3.54,5.54,,,,,,,,,,,,,,
1799999994976000001,2027-01-15T07:59:54.976000001Z,-0.62,-0.15,1.08,0.62,0.92,1.23,2.00,2.31,2.62,5.69,2.46,5.54,4.00,4.46,,,,,,,,,,,,,,
1799999994992000000,2027-01-15T07:59:54.992000000Z,0.46,-0.15,-0.31,0.00,0.92,2.00,0.77,3.69,2.62,4.46,4.15,5.23,5.23,4.15,,,,,,,,,,,,,,
1799999995008000000,2027-01-15T07:59:55.008000000Z,0.00,-0.15,0.31,0.31,3.08,2.62,0.92,2.62,2.77,2.77,4.00,3.85,6.00,4.15,,,,,,,,,,,,,,
1799999995024000000,2027-01-15T07:59:55.024000000Z,-0.62,-0.62,0.31,1.08,4.15,2.15,2.00,1.69,3.23,3.85,4.15,6.00,5.23,4.92,,,,,,,,,,,,,,
1799999995040000000,2027-01-15T07:59:55.040000000Z,-0.62,-1.38,-0.62,-1.23,-0.15,3.08,3.54,1.54,3.38,4.00,4.77,6.77,5.38,5.38,,,,,,,,,,,,,,
1799999995056000000,2027-01-15T07:59:55.056000000Z,0.15,-1.85,-0.15,-1.54,0.46,1.54,3.08,1.23,3.23,2.15,4.77,4.62,5.69,4.15,,,,,,,,,,,,,,
1799999995072000000,2027-01-15T07:59:55.072000000Z,-1.54,-2.00,0.15,-0.15,2.00,0.62,2.77,1.54,3.23,3.85,3.38,3.08,4.92,5.69,,,,,,,,,,,,,,
1799999995088000000,2027-01-15T07:59:55.088000000Z,-1.54,-1.08,-1.54,0.46,0.46,0.31,0.46,1.69,1.23,3.23,3.54,2.77,4.15,5.85,,,,,,,,,,,,,,
1799999995104000000,2027-01-15T07:59:55.104000000Z,0.15,-1.85,-1.69,-0.46,-0.46,-0.92,0.46,2.46,1.85,3.54,3.69,4.15,4.15,5.08,,,,,,,,,,,,,,
1799999995120000000,2027-01-15T07:59:55.120000000Z,-0.62,-1.38,-0.46,0.77,-0.46,-2.15,1.69,3.54,2.31,2.31,3.69,6.00,4.92,5.54,,,,,,,,,,,,,,
1799999995136000000,2027-01-15T07:59:55.136000000Z,1.08,-0.31,-0.31,1.69,0.31,-1.38,1.69,4.15,3.69,1.23,3.69,6.00,4.46,5.08,,,,,,,,,,,,,,
1799999995152000000,2027-01-15T07:59:55.152000000Z,0.46,0.62,0.92,0.62,-0.77,0.31,2.77,1.69,4.15,2.31,2.92,5.69,4.62,5.54,,,,,,,,,,,,,,
1799999995168000000,2027-01-15T07:59:55.168000000Z,0.92,-0.15,1.38,0.31,-0.46,-0.31,4.31,1.23,3.54,2.62,2.92,4.15,5.23,5.69,,,,,,,,,,,,,,
1799999995184000000,2027-01-15T07:59:55.184000000Z,-0.15,-0.15,0.62,0.62,0.15,1.08,3.38,2.31,2.92,2.62,2.77,4.15,5.08,4.77,,,,,,,,,,,,,,
1799999995200000000,2027-01-15T07:59:55.200000000Z,-0.31,-0.77,-0.31,0.77,0.92,1.38,2.77,2.77,3.23,3.54,2.92,3.85,5.85,4.92,,,,,,,,,,,,,,
1799999995216000000,2027-01-15T07:59:55.216000000Z,1.23,-0.46,-0.62,0.31,0.92,1.38,3.85,3.54,2.77,3.85,4.00,4.62,6.15,5.08,,,,,,,,,,,,,,
1799999995232000000,2027-01-15T07:59:55.232000000Z,-0.15,-1.69,0.62,-0.15,-0.31,0.31,3.23,3.54,2.77,2.15,5.08,5.08,6.46,5.08,,,,,,,,,,,,,,
1799999995248000000,2027-01-15T07:59:55.248000000Z,0.46,-0.92,1.08,0.46,-1.23,0.62,2.00,4.00,2.46,2.31,4.15,5.54,5.54,6.46,,,,,,,,,,,,,,
1799999995264000000,2027-01-15T07:59:55.264000000Z,-1.23,-1.08,0.62,0.92,-1.69,0.62,1.54,4.15,2.92,3.23,2.92,4.77,4.31,6.15,,,,,,,,,,,,,,
1799999995280000000,2027-01-15T07:59:55.280000000Z,1.08,-3.08,1.08,1.54,-0.77,0.92,2.00,3.08,3.54,4.15,2.62,5.23,3.85,6.00,,,,,,,,,,,,,,
1799999995296000000,2027-01-15T07:59:55.296000000Z,-0.15,0.00,-0.92,1.38,1.23,2.46,1.38,1.54,2.00,4.15,3.38,4.92,4.15,6.31,,,,,,,,,,,,,,
1799999995312000000,2027-01-15T07:59:55.312000000Z,-0.15,0.62,-0.15,-0.31,2.31,2.31,1.23,0.92,2.46,3.69,3.23,4.15,6.15,5.23,,,,,,,,,,,,,,
1799999995328000000,2027-01-15T07:59:55.328000000Z,-1.08,-0.15,0.46,-0.62,0.62,2.62,0.77,1.85,3.38,5.23,2.92,3.38,6.31,6.31,,,,,,,,,,,,,,
1799999995344000000,2027-01-15T07:59:55.344000000Z,1.54,-1.38,1.69,-0.62,1.08,2.92,-0.15,2.00,3.54,5.23,3.38,2.00,4.92,6.31,,,,,,,,,,,,,,
1799999995360000000,2027-01-15T07:59:55.360000000Z,0.92,-0.77,0.77,0.77,0.77,1.85,1.69,1.54,2.46,4.31,3.69,4.15,3.85,5.23,,,,,,,,,,,,,,
1799999995376000000,2027-01-15T07:59:55.376000000Z,0.31,0.00,-0.62,1.85,-0.46,1.85,2.62,2.92,2.46,3.23,4.46,4.62,4.46,4.62,,,,,,,,,,,,,,
1799999995392000000,2027-01-15T07:59:55.392000000Z,-0.62,-0.46,0.46,1.54,-0.15,2.31,2.15,2.62,2.92,3.54,6.00,4.15,5.23,4.92,,,,,,,,,,,,,,
1799999995408000000,2027-01-15T07:59:55.408000000Z,2.00,-1.08,-1.23,1.23,1.85,1.08,1.23,1.54,3.08,3.08,5.85,4.62,5.08,5.69,,,,,,,,,,,,,,
1799999995424000000,2027-01-15T07:59:55.424000000Z,0.46,-2.92,-1.69,0.77,1.54,1.85,0.46,2.77,2.62,2.77,4.31,3.38,5.85,5.38,,,,,,,,,,,,,,
1799999995440000000,2027-01-15T07:59:55.440000000Z,-1.69,-3.08,-1.85,0.77,1.38,3.85,1.08,3.23,2.62,4.46,3.38,5.38,5.08,5.38,,,,,,,,,,,,,,
1799999995456000000,2027-01-15T07:59:55.456000000Z,-0.31,-2.31,0.46,0.00,0.46,1.85,1.38,4.00,2.92,5.23,3.38,5.69,4.15,5.85,,,,,,,,,,,,,,
1799999995472000000,2027-01-15T07:59:55.472000000Z,0.46,0.00,0.62,-0.77,1.08,1.85,1.54,2.77,2.92,3.38,4.31,4.77,6.46,5.38,,,,,,,,,,,,,,
1799999995488000000,2027-01-15T07:59:55.488000000Z,-1.08,0.15,-0.46,-0.46,1.69,3.23,2.62,2.46,2.31,4.31,4.15,3.85,6.00,4.00,,,,,,,,,,,,,,
1799999995504000000,2027-01-15T07:59:55.504000000Z,-1.08,0.00,-0.46,0.77,1.54,3.23,2.00,2.77,4.77,4.46,2.62,4.00,4.31,4.46,,,,,,,,,,,,,,
1799999995520000000,2027-01-15T07:59:55.520000000Z,-2.31,-0.15,-0.62,-0.62,0.31,1.85,1.69,2.46,5.38,1.23,1.69,2.92,4.00,5.38,,,,,,,,,,,,,,
1799999995536000000,2027-01-15T07:59:55.536000000Z,-1.38,-0.77,-0.77,-0.15,0.15,2.62,2.46,1.69,3.69,1.54,1.85,3.85,3.85,5.08,,,,,,,,,,,,,,
1799999995552000001,2027-01-15T07:59:55.552000001Z,0.00,-0.77,-0.46,1.85,0.62,1.38,2.77,2.46,2.00,2.00,3.23,4.00,3.85,4.92,,,,,,,,,,,,,,
1799999995568000001,2027-01-15T07:59:55.568000001Z,0.62,-1.23,-1.08,1.85,-0.46,0.00,2.77,2.00,2.77,2.77,4.62,3.38,4.62,4.15,,,,,,,,,,,,,,
1799999995584000000,2027-01-15T07:59:55.584000000Z,-0.46,0.31,-0.31,1.23,0.00,0.92,3.08,1.38,2.77,2.92,5.38,4.00,3.23,4.46,,,,,,,,,,,,,,
1799999995600000000,2027-01-15T07:59:55.600000000Z,0.31,1.23,1.38,1.38,0.62,0.46,2.00,2.00,3.23,2.46,3.69,3.54,4.15,5.23,,,,,,,,,,,,,,
1799999995616000000,2027-01-15T07:59:55.616000000Z,-0.77,0.00,0.31,0.15,1.08,0.15,2.15,3.08,2.62,2.46,1.69,3.54,4.77,5.85,,,,,,,,,,,,,,
1799999995632000000,2027-01-15T07:59:55.632000000Z,-0.31,-1.54,0.00,-0.62,1.69,1.23,2.62,3.23,1.38,2.62,1.85,4.62,4.92,5.85,,,,,,,,,,,,,,
1799999995648000001,2027-01-15T07:59:55.648000001Z,0.46,-1.69,-0.15,0.62,1.54,0.92,2.77,4.31,2.31,3.08,4.62,6.00,5.69,5.38,,,,,,,,,,,,,,
1799999995664000000,2027-01-15T07:59:55.664000000Z,-1.23,-0.46,0.92,0.62,0.62,0.15,2.77,3.54,1.69,2.46,5.69,5.69,3.69,4.62,,,,,,,,,,,,,,
1799999995680000000,2027-01-15T07:59:55.680000000Z,-0.77,0.46,-0.46,-0.15,0.31,0.62,1.54,2.15,2.92,4.15,5.23,4.31,3.08,4.92,,,,,,,,,,,,,,
1799999995696000000,2027-01-15T07:59:55.696000000Z,-0.31,-1.23,-2.15,0.46,2.00,2.46,1.23,1.23,4.00,5.69,2.77,5.85,4.15,5.69,,,,,,,,,,,,,,
1799999995712000000,2027-01-15T07:59:55.712000000Z,0.00,-1.38,-1.23,1.08,3.23,2.77,1.38,0.92,3.38,4.92,2.46,6.62,5.23,5.69,,,,,,,,,,,,,,
1799999995728000000,2027-01-15T07:59:55.728000000Z,-0.62,-1.85,-0.31,1.54,3.23,2.62,3.69,2.15,4.46,3.54,3.23,5.69,4.62,5.54,,,,,,,,,,,,,,
1799999995744000000,2027-01-15T07:59:55.744000000Z,1.23,-1.69,0.31,2.00,0.31,2.46,3.08,2.15,3.08,2.77,4.77,3.08,5.08,6.00,,,,,,,,,,,,,,
1799999995760000000,2027-01-15T07:59:55.760000000Z,-0.92,0.46,0.31,2.77,1.38,1.85,3.38,0.62,1.69,3.54,4.00,3.85,4.46,6.46,,,,,,,,,,,,,,
1799999995776000000,2027-01-15T07:59:55.776000000Z,-0.46,1.23,0.15,2.31,1.23,2.15,3.23,1.69,2.15,4.15,4.31,4.92,5.23,6.15,,,,,,,,,,,,,,
1799999995792000000,2027-01-15T07:59:55.792000000Z,-1.23,-0.46,0.00,0.92,1.23,1.23,1.38,2.77,1.69,2.77,4.31,5.23,7.23,5.38,,,,,,,,,,,,,,
1799999995808000000,2027-01-15T07:59:55.808000000Z,-1.08,-1.38,0.46,0.15,0.62,0.46,1.23,0.77,1.54,3.08,4.31,5.08,6.62,3.23,,,,,,,,,,,,,,
1799999995824000000,2027-01-15T07:59:55.824000000Z,-1.08,-1.23,0.77,0.15,0.77,1.69,1.08,0.31,2.15,3.54,4.62,4.31,5.69,2.62,,,,,,,,,,,,,,
1799999995840000000,2027-01-15T07:59:55.840000000Z,-2.15,-1.69,-0.15,-0.15,0.92,2.15,1.23,1.54,2.77,2.77,4.00,4.62,5.08,6.31,,,,,,,,,,,,,,
1799999995856000000,2027-01-15T07:59:55.856000000Z,-1.85,-1.85,-1.23,0.00,0.77,0.46,3.38,4.00,2.77,3.08,3.23,4.31,5.23,6.62,,,,,,,,,,,,,,
1799999995872000000,2027-01-15T07:59:55.872000000Z,0.00,-0.77,-0.92,0.46,-0.92,0.46,2.92,3.38,2.62,6.00,4.77,4.00,4.92,6.15,,,,,,,,,,,,,,
1799999995888000000,2027-01-15T07:59:55.888000000Z,-1.54,-0.77,-1.69,0.31,-1.23,0.62,1.85,3.38,2.46,5.23,4.15,3.23,5.69,6.00,,,,,,,,,,,,,,
1799999995904000000,2027-01-15T07:59:55.904000000Z,1.38,-1.38,-2.31,-0.92,0.77,1.23,3.23,3.23,0.92,3.54,3.85,4.77,6.92,5.08,,,,,,,,,,,,,,
1799999995920000000,2027-01-15T07:59:55.920000000Z,-0.15,-1.08,-0.46,-0.77,0.15,1.08,2.92,2.77,0.92,1.54,3.54,3.38,5.08,4.62,,,,,,,,,,,,,,
1799999995936000000,2027-01-15T07:59:55.936000000Z,-0.46,-2.15,-0.15,0.15,0.92,1.23,3.38,2.00,3.69,4.15,4.00,3.08,4.31,5.08,,,,,,,,,,,,,,
1799999995952000000,2027-01-15T07:59:55.952000000Z,0.92,-1.38,-0.31,1.38,-0.46,0.92,1.23,3.08,2.62,3.69,3.54,4.46,3.85,4.15,,,,,,,,,,,,,,
1799999995968000000,2027-01-15T07:59:55.968000000Z,-1.85,-0.92,0.15,0.00,-1.69,0.62,-0.31,4.31,3.38,2.62,3.08,5.85,5.54,4.46,,,,,,,,,,,,,,
1799999995984000000,2027-01-15T07:59:55.984000000Z,-1.08,-1.23,0.00,1.23,0.00,1.85,2.00,1.69,4.46,3.54,3.85,4.77,4.77,6.00,,,,,,,,,,,,,,
1799999996000000000,2027-01-15T07:59:56.000000000Z,0.31,-0.77,0.31,1.23,0.92,1.85,2.00,0.31,3.69,4.00,3.08,2.46,4.92,5.08,,,,,,,,,,,,,,
1799999996016000000,2027-01-15T07:59:56.016000000Z,0.92,-0.92,0.31,-0.62,2.00,0.15,1.85,1.54,2.46,2.62,2.77,4.31,4.77,3.69,,,,,,,,,,,,,,
1799999996032000000,2027-01-15T07:59:56.032000000Z,-1.54,-1.54,0.00,-0.46,0.00,1.08,2.00,2.31,1.69,3.85,3.69,3.69,4.00,5.23,,,,,,,,,,,,,,
1799999996048000000,2027-01-15T07:59:56.048000000Z,0.77,-0.46,-1.23,-0.31,0.00,2.00,2.77,1.54,2.77,4.31,4.62,3.54,3.08,4.15,,,,,,,,,,,,,,
1799999996064000000,2027-01-15T07:59:56.064000000Z,0.92,0.15,-1.23,1.54,0.31,1.23,2.77,2.15,3.38,4.77,4.46,4.00,3.69,4.62,,,,,,,,,,,,,,
1799999996080000000,2027-01-15T07:59:56.080000000Z,0.15,-1.08,-1.69,1.85,1.54,1.54,0.92,2.92,4.31,4.77,4.77,4.62,4.00,6.15,,,,,,,,,,,,,,
1799999996096000000,2027-01-15T07:59:56.096000000Z,-0.31,0.31,-1.23,-0.92,2.62,2.77,2.31,2.00,4.77,3.38,4.15,4.92,5.69,6.62,,,,,,,,,,,,,,
1799999996112000000,2027-01-15T07:59:56.112000000Z,-1.08,2.00,0.92,-1.54,0.77,2.92,2.46,2.31,3.38,3.08,3.85,3.85,5.85,4.77,,,,,,,,,,,,,,
1799999996128000000,2027-01-15T07:59:56.128000000Z,1.08,0.15,0.46,2.62,1.23,2.92,1.08,2.15,2.62,2.77,4.00,3.85,5.54,4.77,,,,,,,,,,,,,,
1799999996144000000,2027-01-15T07:59:56.144000000Z,-0.46,-0.46,0.31,3.08,1.54,1.23,1.38,1.38,2.77,3.38,3.85,5.54,5.85,6.15,,,,,,,,,,,,,,
1799999996160000000,2027-01-15T07:59:56.160000000Z,-0.31,-1.23,2.46,2.31,1.08,0.77,0.92,2.31,2.62,5.69,4.31,5.69,6.00,6.15,,,,,,,,,,,,,,
1799999996176000000,2027-01-15T07:59:56.176000000Z,-1.08,-0.46,1.85,0.77,1.54,0.77,1.54,2.92,1.38,5.69,3.85,5.69,6.00,5.23,,,,,,,,,,,,,,
1799999996192000000,2027-01-15T07:59:56.192000000Z,0.77,0.15,0.77,1.08,1.23,0.46,2.62,2.92,2.00,4.77,2.92,4.46,5.54,4.62,,,,,,,,,,,,,,
1799999996208000000,2027-01-15T07:59:56.208000000Z,-1.23,0.31,0.15,1.08,2.46,1.38,1.23,2.92,4.92,4.15,3.38,3.23,5.85,5.23,,,,,,,,,,,,,,
1799999996224000000,2027-01-15T07:59:56.224000000Z,1.08,0.77,-0.31,0.31,3.08,2.00,0.46,2.92,5.38,3.85,3.85,3.85,5.54,5.08,,,,,,,,,,,,,,
1799999996240000000,2027-01-15T07:59:56.240000000Z,-0.92,0.92,0.15,0.15,0.62,1.69,-1.08,2.00,2.62,2.15,2.77,4.31,4.46,5.08,,,,,,,,,,,,,,
1799999996256000000,2027-01-15T07:59:56.256000000Z,0.31,0.15,0.62,0.62,0.62,1.85,-0.77,2.31,3.23,2.31,3.23,3.69,4.46,4.92,,,,,,,,,,,,,,
1799999996272000000,2027-01-15T07:59:56.272000000Z,0.15,-0.46,1.08,1.23,0.46,0.77,3.69,2.77,3.69,2.77,3.38,3.38,4.62,6.00,,,,,,,,,,,,,,
1799999996288000001,2027-01-15T07:59:56.288000001Z,-1.38,-2.15,2.31,-0.31,0.46,0.92,4.62,2.77,2.31,3.54,4.46,4.00,4.00,6.62,,,,,,,,,,,,,,
1799999996304000001,2027-01-15T07:59:56.304000001Z,1.85,-1.85,2.31,-1.08,1.69,1.38,3.38,3.38,2.62,3.85,5.38,6.00,3.69,6.00,,,,,,,,,,,,,,
1799999996320000001,2027-01-15T07:59:56.320000001Z,1.85,-1.54,-0.31,-1.38,0.77,2.31,3.38,1.54,3.54,4.92,5.54,4.62,4.77,6.15,,,,,,,,,,,,,,
1799999996336000000,2027-01-15T07:59:56.336000000Z,-0.46,-1.85,-1.08,0.00,1.08,1.69,3.38,0.77,3.08,3.38,3.08,1.69,5.38,6.46,,,,,,,,,,,,,,
1799999996352000000,2027-01-15T07:59:56.352000000Z,-1.08,-1.38,-0.92,-0.62,0.62,1.69,3.23,1.08,3.08,2.92,2.77,2.77,6.77,6.15,,,,,,,,,,,,,,
1799999996368000000,2027-01-15T07:59:56.368000000Z,-0.77,-1.08,-0.77,-0.77,-1.54,1.85,2.92,2.46,2.77,3.08,2.15,3.23,5.38,6.92,,,,,,,,,,,,,,
1799999996384000001,2027-01-15T07:59:56.384000001Z,-2.77,-1.08,0.31,0.46,-1.85,1.08,1.54,4.46,2.31,2.46,2.46,2.62,4.92,6.77,,,,,,,,,,,,,,
1799999996400000001,2027-01-15T07:59:56.400000001Z,-2.62,-0.15,0.31,0.62,-0.62,1.69,0.00,3.38,2.31,3.38,3.69,3.38,4.00,6.77,,,,,,,,,,,,,,
1799999996416000000,2027-01-15T07:59:56.416000000Z,-0.46,-0.92,-0.31,0.00,-0.46,1.54,-0.46,1.23,1.85,3.85,3.85,4.46,2.92,6.00,,,,,,,,,,,,,,
1799999996432000000,2027-01-15T07:59:56.432000000Z,-0.92,-1.23,-0.46,-1.23,-1.08,0.77,1.23,0.46,2.31,5.54,2.62,5.23,4.00,4.77,,,,,,,,,,,,,,
1799999996448000000,2027-01-15T07:59:56.448000000Z,2.00,-1.85,-0.77,-0.31,0.31,0.46,1.54,1.38,2.46,5.54,3.69,4.92,5.54,4.62,,,,,,,,,,,,,,
1799999996464000000,2027-01-15T07:59:56.464000000Z,0.77,-1.38,-0.46,2.00,0.77,2.15,1.54,0.46,2.46,3.85,3.23,4.62,5.54,4.77,,,,,,,,,,,,,,
1799999996480000001,2027-01-15T07:59:56.480000001Z,-1.69,-0.31,0.31,1.08,1.38,2.31,2.62,1.38,2.15,1.85,2.77,5.23,4.00,4.92,,,,,,,,,,,,,,
1799999996496000000,2027-01-15T07:59:56.496000000Z,-0.77,-0.46,1.54,-0.62,1.69,1.85,3.23,2.46,2.15,2.46,2.77,6.00,3.54,3.85,,,,,,,,,,,,,,
1799999996512000000,2027-01-15T07:59:56.512000000Z,0.31,-0.46,-0.46,-0.77,1.08,1.23,2.62,3.23,2.31,3.08,1.54,5.38,4.00,5.69,,,,,,,,,,,,,,
1799999996528000000,2027-01-15T07:59:56.528000000Z,0.92,-0.62,-1.38,0.15,-0.62,0.46,3.23,2.46,3.23,2.77,2.46,5.54,4.15,4.92,,,,,,,,,,,,,,
1799999996544000000,2027-01-15T07:59:56.544000000Z,1.08,0.77,-0.62,0.31,0.92,2.92,2.92,3.23,3.54,4.62,4.92,5.85,3.69,3.08,,,,,,,,,,,,,,
1799999996560000001,2027-01-15T07:59:56.560000001Z,0.46,0.46,1.23,1.54,2.15,3.38,2.31,2.62,3.54,4.15,4.62,6.46,5.69,4.00,,,,,,,,,,,,,,
1799999996576000000,2027-01-15T07:59:56.576000000Z,-0.77,-0.77,0.62,1.38,1.23,2.46,3.08,1.85,2.62,3.08,4.15,4.77,6.00,4.77,,,,,,,,,,,,,,
1799999996592000000,2027-01-15T07:59:56.592000000Z,0.00,-1.23,-0.15,2.00,1.08,1.08,2.77,1.23,2.31,2.92,4.00,4.15,6.00,4.77,,,,,,,,,,,,,,
1799999996608000000,2027-01-15T07:59:56.608000000Z,-1.08,-1.23,-1.23,1.69,1.54,0.15,2.77,2.31,0.92,2.92,3.85,2.77,5.69,4.92,,,,,,,,,,,,,,
1799999996624000000,2027-01-15T07:59:56.624000000Z,-0.31,-1.08,-0.77,0.62,1.23,0.31,2.46,2.62,2.15,3.23,4.31,4.46,5.08,5.85,,,,,,,,,,,,,,
1799999996640000000,2027-01-15T07:59:56.640000000Z,-0.62,-1.23,0.46,0.62,0.62,0.46,2.15,3.23,2.92,3.54,3.85,4.15,5.69,5.38,,,,,,,,,,,,,,
1799999996656000000,2027-01-15T07:59:56.656000000Z,-0.46,-1.38,-0.15,0.15,-0.15,1.08,1.23,3.23,3.08,4.31,4.15,3.54,4.15,4.77,,,,,,,,,,,,,,
1799999996672000000,2027-01-15T07:59:56.672000000Z,-2.15,-0.46,-1.08,0.92,-0.15,2.31,0.77,3.38,3.38,3.54,4.15,3.69,3.69,5.38,,,,,,,,,,,,,,
1799999996688000000,2027-01-15T07:59:56.688000000Z,-0.77,0.00,-0.31,1.69,0.92,1.85,0.92,4.00,4.00,2.15,3.38,4.00,5.85,5.23,,,,,,,,,,,,,,
1799999996704000000,2027-01-15T07:59:56.704000000Z,-1.23,0.77,0.31,1.85,1.23,2.31,0.92,2.62,3.38,3.23,3.38,4.62,4.15,6.15,,,,,,,,,,,,,,
1799999996720000000,2027-01-15T07:59:56.720000000Z,0.31,1.08,-0.15,-1.38,2.00,1.85,1.85,2.00,2.92,3.23,4.77,4.15,5.23,5.85,,,,,,,,,,,,,,
1799999996736000000,2027-01-15T07:59:56.736000000Z,0.00,1.08,-0.62,-0.46,1.85,0.92,1.08,2.62,3.08,4.15,3.23,5.85,5.54,5.38,,,,,,,,,,,,,,
1799999996752000000,2027-01-15T07:59:56.752000000Z,-0.31,0.92,-1.08,0.92,0.00,1.69,1.85,2.77,4.31,5.23,3.08,4.92,4.31,5.23,,,,,,,,,,,,,,
1799999996768000000,2027-01-15T07:59:56.768000000Z,0.77,0.77,-0.15,1.08,-0.46,2.15,1.38,1.85,2.62,4.31,4.62,4.31,5.69,4.31,,,,,,,,,,,,,,
1799999996784000000,2027-01-15T07:59:56.784000000Z,0.31,0.31,-0.77,1.08,1.08,1.23,0.00,2.00,3.08,2.00,5.38,4.31,5.38,4.92,,,,,,,,,,,,,,
1799999996800000000,2027-01-15T07:59:56.800000000Z,-0.77,-0.15,-2.31,0.92,1.69,0.92,-0.31,2.31,4.46,3.38,4.31,3.69,4.92,4.92,,,,,,,,,,,,,,
1799999996816000000,2027-01-15T07:59:56.816000000Z,-0.15,-1.23,-0.62,0.77,1.08,1.69,0.92,1.54,3.38,3.08,4.00,3.54,5.69,5.38,,,,,,,,,,,,,,
1799999996832000000,2027-01-15T07:59:56.832000000Z,-2.46,-1.85,0.31,0.31,0.15,0.92,3.85,0.77,2.92,2.46,4.00,4.15,5.54,4.92,,,,,,,,,,,,,,
1799999996848000001,2027-01-15T07:59:56.848000001Z,-1.23,-0.62,0.00,0.00,0.77,0.77,3.69,2.31,3.08,1.38,4.15,4.92,4.15,4.77,,,,,,,,,,,,,,
1799999996864000000,2027-01-15T07:59:56.864000000Z,-1.08,-0.46,0.92,0.62,2.15,1.23,3.08,2.15,2.15,1.85,3.54,4.00,4.62,5.08,,,,,,,,,,,,,,
1799999996880000000,2027-01-15T07:59:56.880000000Z,1.08,0.31,0.62,1.23,3.08,1.69,1.69,1.85,2.15,2.00,4.00,2.62,5.38,5.08,,,,,,,,,,,,,,
1799999996896000000,2027-01-15T07:59:56.896000000Z,0.00,-1.54,0.92,0.00,2.00,2.00,2.31,2.46,2.92,3.23,4.31,3.54,5.69,5.08,,,,,,,,,,,,,,
1799999996912000000,2027-01-15T07:59:56.912000000Z,1.54,-2.46,2.31,1.38,0.15,0.92,2.00,3.23,2.62,3.23,4.15,5.23,5.23,5.85,,,,,,,,,,,,,,
1799999996928000001,2027-01-15T07:59:56.928000001Z,1.23,-1.69,1.85,0.31,0.00,0.77,1.54,2.46,3.08,3.38,3.85,5.08,2.77,4.77,,,,,,,,,,,,,,
1799999996944000000,2027-01-15T07:59:56.944000000Z,0.00,0.15,2.46,-0.46,0.62,1.23,2.00,1.85,3.38,3.85,3.23,4.77,3.08,5.85,,,,,,,,,,,,,,
1799999996960000000,2027-01-15T07:59:56.960000000Z,1.69,-0.46,1.08,0.00,1.85,0.62,2.92,2.31,2.77,3.85,4.00,3.69,4.92,6.92,,,,,,,,,,,,,,
1799999996976000000,2027-01-15T07:59:56.976000000Z,-1.38,-2.77,0.92,0.46,2.00,1.08,2.92,3.23,2.77,3.85,4.77,3.23,6.31,6.15,,,,,,,,,,,,,,
1799999996992000000,2027-01-15T07:59:56.992000000Z,-1.38,-1.38,-0.92,0.62,0.31,1.85,2.77,2.46,2.00,4.62,6.00,3.69,6.15,5.38,,,,,,,,,,,,,,
1799999997008000000,2027-01-15T07:59:57.008000000Z,-2.00,-2.00,-1.38,-0.15,0.00,2.31,4.92,1.08,2.77,3.69,5.54,5.69,6.00,4.31,,,,,,,,,,,,,,
1799999997024000000,2027-01-15T07:59:57.024000000Z,-0.31,-3.23,-0.77,0.00,-0.31,1.38,4.31,0.92,4.62,3.54,3.85,4.77,5.08,4.92,,,,,,,,,,,,,,
1799999997040000000,2027-01-15T07:59:57.040000000Z,-0.31,-2.77,-0.62,0.77,-0.31,1.08,3.54,2.46,2.92,4.46,3.23,4.15,5.38,7.08,,,,,,,,,,,,,,
1799999997056000000,2027-01-15T07:59:57.056000000Z,-0.15,-1.69,-1.08,0.62,1.23,0.31,2.31,2.62,3.08,6.00,3.08,4.77,3.08,5.08,,,,,,,,,,,,,,
1799999997072000000,2027-01-15T07:59:57.072000000Z,2.31,0.00,-0.31,0.00,2.15,0.77,2.77,2.46,3.54,5.38,2.92,4.46,3.38,5.23,,,,,,,,,,,,,,
1799999997088000000,2027-01-15T07:59:57.088000000Z,1.85,-0.92,-0.15,0.46,0.92,1.69,3.08,1.23,3.08,3.54,2.92,5.54,4.31,6.31,,,,,,,,,,,,,,
1799999997104000000,2027-01-15T07:59:57.104000000Z,-0.15,-0.77,0.00,0.46,1.38,2.31,1.38,1.85,3.38,4.00,3.54,4.92,3.54,4.31,,,,,,,,,,,,,,
1799999997120000000,2027-01-15T07:59:57.120000000Z,0.46,-1.08,0.62,0.15,2.31,2.62,0.00,2.92,3.08,4.00,4.00,3.85,4.00,4.46,,,,,,,,,,,,,,
1799999997136000000,2027-01-15T07:59:57.136000000Z,-0.77,-0.46,1.54,2.62,2.15,1.38,2.00,1.38,3.08,2.62,4.92,2.92,4.00,5.54,,,,,,,,,,,,,,
1799999997152000000,2027-01-15T07:59:57.152000000Z,-0.31,-1.23,0.92,2.77,0.77,0.31,1.69,1.23,3.38,2.00,5.23,4.15,4.46,5.69,,,,,,,,,,,,,,
1799999997168000000,2027-01-15T07:59:57.168000000Z,,-1.38,-0.15,2.15,1.54,-1.69,0.92,2.15,3.54,2.15,4.15,4.92,4.77,5.85,,,,,,,,,,,,,,
1799999997184000000,2027-01-15T07:59:57.184000000Z,0.62,0.00,-0.31,0.62,1.85,-0.62,1.08,2.31,2.31,2.46,3.69,5.08,5.08,6.15,,,,,,,,,,,,,,
1799999997200000000,2027-01-15T07:59:57.200000000Z,0.92,-1.69,0.46,0.77,0.46,0.62,1.08,2.31,2.46,3.85,4.31,5.08,6.31,6.00,,,,,,,,,,,,,,
1799999997216000000,2027-01-15T07:59:57.216000000Z,0.00,-2.46,0.77,1.23,0.15,1.08,0.15,2.31,3.54,4.77,3.54,4.46,5.54,4.31,,,,,,,,,,,,,,
1799999997232000000,2027-01-15T07:59:57.232000000Z,0.92,-1.54,0.62,-0.77,-0.46,0.77,1.69,3.08,2.77,4.62,2.92,4.00,3.54,4.62,,,,,,,,,,,,,,
1799999997248000000,2027-01-15T07:59:57.248000000Z,-0.15,0.62,-0.77,-1.23,0.62,2.00,2.15,3.08,1.54,4.46,3.08,3.85,4.92,4.46,,,,,,,,,,,,,,
1799999997264000000,2027-01-15T07:59:57.264000000Z,-0.31,0.62,-1.69,1.69,1.23,2.62,3.38,2.77,1.38,5.23,2.77,4.31,5.85,5.23,,,,,,,,,,,,,,
1799999997280000000,2027-01-15T07:59:57.280000000Z,1.23,-0.15,0.00,-0.31,0.62,3.38,3.85,2.62,0.77,5.69,3.54,4.77,5.08,5.85,,,,,,,,,,,,,,
1799999997296000001,2027-01-15T07:59:57.296000001Z,1.08,0.77,0.31,-2.00,0.31,2.62,4.15,0.46,3.23,5.54,3.08,4.00,6.00,5.69,,,,,,,,,,,,,,
1799999997312000001,2027-01-15T07:59:57.312000001Z,0.92,0.92,0.62,-0.92,0.15,1.23,3.23,2.00,4.15,5.69,2.92,3.54,7.54,5.85,,,,,,,,,,,,,,
1799999997328000001,2027-01-15T07:59:57.328000001Z,-1.85,-0.15,0.15,1.38,2.00,0.77,1.23,2.77,4.62,6.15,2.92,5.08,7.23,6.00,,,,,,,,,,,,,,
1799999997344000000,2027-01-15T07:59:57.344000000Z,-0.15,0.00,-0.77,-0.15,2.62,1.23,1.54,2.62,3.23,5.85,2.31,6.31,6.31,5.69,,,,,,,,,,,,,,
1799999997360000000,2027-01-15T07:59:57.360000000Z,0.00,1.54,-0.46,-0.15,1.38,3.23,1.54,2.15,2.77,4.77,2.62,5.08,4.31,4.62,,,,,,,,,,,,,,
1799999997376000000,2027-01-15T07:59:57.376000000Z,0.15,0.15,0.31,0.46,0.46,2.92,0.46,2.15,2.00,4.00,3.38,3.38,3.69,4.92,,,,,,,,,,,,,,
1799999997392000001,2027-01-15T07:59:57.392000001Z,1.23,-0.46,0.77,0.31,0.46,1.54,2.62,3.08,3.38,2.31,2.92,3.38,3.85,4.62,,,,,,,,,,,,,,
1799999997408000001,2027-01-15T07:59:57.408000001Z,,0.31,-0.15,0.46,1.23,2.46,3.38,2.92,5.08,1.54,3.69,3.85,5.08,4.15,,,,,,,,,,,,,,
1799999997424000000,2027-01-15T07:59:57.424000000Z,,-1.08,-1.85,1.23,1.38,1.85,4.00,1.23,3.38,1.23,4.92,4.77,5.69,4.77,,,,,,,,,,,,,,
1799999997440000000,2027-01-15T07:59:57.440000000Z,,-2.46,-1.23,0.92,1.38,0.92,3.85,1.23,3.38,1.69,4.31,5.23,5.69,4.77,,,,,,,,,,,,,,
1799999997456000000,2027-01-15T07:59:57.456000000Z,,-1.08,0.15,-0.77,0.77,0.62,2.31,2.92,2.77,3.08,3.85,5.69,4.46,5.23,,,,,,,,,,,,,,
1799999997472000000,2027-01-15T07:59:57.472000000Z,-4.46,0.31,-1.08,-1.08,1.08,1.38,1.54,2.31,2.77,3.69,2.46,5.85,5.23,4.92,,,,,,,,,,,,,,
1799999997488000001,2027-01-15T07:59:57.488000001Z,-4.62,0.62,-1.08,-0.15,1.38,2.62,1.85,1.38,1.38,2.31,3.38,5.54,4.46,5.08,,,,,,,,,,,,,,
1799999997504000000,2027-01-15T07:59:57.504000000Z,,-1.69,-0.15,0.77,2.62,1.38,2.15,2.46,2.31,1.23,3.54,4.46,3.23,6.00,,,,,,,,,,,,,,
1799999997520000000,2027-01-15T07:59:57.520000000Z,,-3.23,-1.08,0.92,1.69,-0.15,2.15,2.77,2.31,2.46,3.85,3.23,3.54,6.00,,,,,,,,,,,,,,
1799999997536000000,2027-01-15T07:59:57.536000000Z,,-2.92,-1.54,0.77,0.00,-0.77,3.08,2.62,1.54,3.38,4.62,4.46,4.46,4.77,,,,,,,,,,,,,,
1799999997552000000,2027-01-15T07:59:57.552000000Z,,-1.54,-1.54,0.77,1.23,0.77,1.08,2.77,2.00,3.38,4.31,5.23,4.46,4.62,,,,,,,,,,,,,,
1799999997568000000,2027-01-15T07:59:57.568000000Z,,-2.15,-1.23,0.31,2.00,1.23,-0.15,3.54,2.00,1.54,3.54,6.00,4.92,4.92,,,,,,,,,,,,,,
1799999997584000000,2027-01-15T07:59:57.584000000Z,-4.31,-2.77,0.46,-0.31,1.85,2.31,0.31,3.08,2.00,1.85,4.15,4.31,4.92,4.15,,,,,,,,,,,,,,
1799999997600000000,2027-01-15T07:59:57.600000000Z,-4.31,-2.15,-0.77,-0.15,0.92,2.31,0.15,0.92,2.15,2.00,4.62,2.62,4.62,4.92,,,,,,,,,,,,,,
1799999997616000000,2027-01-15T07:59:57.616000000Z,-4.92,-0.31,-0.46,0.15,1.54,2.62,0.00,1.69,2.46,3.54,4.62,4.00,4.31,5.85,,,,,,,,,,,,,,
1799999997632000000,2027-01-15T07:59:57.632000000Z,-4.62,-0.62,1.08,0.62,0.31,2.62,2.00,3.23,3.08,4.00,3.08,3.54,4.92,6.46,,,,,,,,,,,,,,
1799999997648000000,2027-01-15T07:59:57.648000000Z,,-1.23,1.08,1.38,-1.38,0.62,1.23,2.77,3.08,3.54,2.31,2.62,4.31,5.23,,,,,,,,,,,,,,
1799999997664000000,2027-01-15T07:59:57.664000000Z,-4.77,-0.62,1.08,2.15,-0.31,-0.31,1.85,2.31,2.62,2.00,3.85,1.69,4.31,4.77,,,,,,,,,,,,,,
1799999997680000000,2027-01-15T07:59:57.680000000Z,-4.77,-0.31,1.38,2.77,0.31,0.31,1.54,3.85,2.77,3.54,3.54,3.23,4.77,4.46,,,,,,,,,,,,,,
1799999997696000000,2027-01-15T07:59:57.696000000Z,,0.00,1.08,1.08,1.08,2.77,0.62,3.23,2.77,2.77,3.08,5.08,5.69,5.85,,,,,,,,,,,,,,
1799999997712000000,2027-01-15T07:59:57.712000000Z,,1.38,0.46,0.92,1.08,2.31,1.38,2.92,1.38,2.46,3.85,6.31,6.46,6.15,,,,,,,,,,,,,,
1799999997728000000,2027-01-15T07:59:57.728000000Z,,1.69,-0.46,0.92,0.31,0.62,1.23,3.38,3.08,5.08,3.69,6.77,4.62,5.38,,,,,,,,,,,,,,
1799999997744000000,2027-01-15T07:59:57.744000000Z,,-0.31,0.62,-0.46,0.31,1.69,1.23,3.08,4.31,5.38,4.15,4.77,4.31,5.54,,,,,,,,,,,,,,
1799999997760000000,2027-01-15T07:59:57.760000000Z,,0.31,0.46,-1.85,0.46,1.23,1.23,2.92,3.54,4.46,3.69,3.23,4.77,5.23,,,,,,,,,,,,,,
1799999997776000001,2027-01-15T07:59:57.776000001Z,,1.69,-0.92,-0.15,0.46,-0.31,2.92,1.69,2.46,2.62,3.23,2.77,6.00,5.23,,,,,,,,,,,,,,
1799999997792000000,2027-01-15T07:59:57.792000000Z,,1.23,-0.31,1.38,0.46,-0.15,2.77,1.54,2.15,2.62,3.85,2.92,7.08,4.92,,,,,,,,,,,,,,
1799999997808000000,2027-01-15T07:59:57.808000000Z,,0.62,0.62,0.77,0.92,1.54,1.85,2.77,2.62,2.77,4.92,3.38,6.31,6.15,,,,,,,,,,,,,,
1799999997824000001,2027-01-15T07:59:57.824000001Z,,0.31,1.54,-0.46,0.00,2.62,1.08,2.77,2.92,2.92,3.69,3.85,4.77,5.38,,,,,,,,,,,,,,
1799999997840000000,2027-01-15T07:59:57.840000000Z,-4.46,1.08,0.00,0.92,0.00,2.00,1.54,2.15,3.08,4.92,2.77,3.38,5.54,4.31,,,,,,,,,,,,,,
1799999997856000000,2027-01-15T07:59:57.856000000Z,,0.15,0.77,1.69,-1.38,0.31,3.23,1.23,3.85,5.23,4.15,3.38,4.62,4.46,,,,,,,,,,,,,,
1799999997872000000,2027-01-15T07:59:57.872000000Z,-4.46,0.31,-0.15,1.08,-0.92,1.38,3.69,0.92,3.85,4.15,5.38,3.69,5.08,3.54,,,,,,,,,,,,,,
1799999997888000000,2027-01-15T07:59:57.888000000Z,,0.31,-0.62,0.31,0.77,1.69,3.08,0.62,2.77,4.92,4.92,5.08,6.62,4.31,,,,,,,,,,,,,,
1799999997904000000,2027-01-15T07:59:57.904000000Z,-4.77,-0.62,-0.62,0.00,1.23,0.92,2.15,2.77,1.69,4.15,4.46,5.54,6.77,4.15,,,,,,,,,,,,,,
1799999997920000000,2027-01-15T07:59:57.920000000Z,-4.77,-1.85,-1.23,0.77,1.23,1.23,3.38,1.69,1.54,2.92,4.77,4.46,5.38,4.77,,,,,,,,,,,,,,
1799999997936000000,2027-01-15T07:59:57.936000000Z,,-1.54,-1.85,1.69,0.00,1.69,2.15,0.77,2.62,2.00,4.46,4.31,4.31,4.62,,,,,,,,,,,,,,
1799999997952000000,2027-01-15T07:59:57.952000000Z,,-2.62,-0.31,-0.62,-1.38,1.08,1.38,2.46,3.85,2.00,2.00,4.62,3.38,5.38,,,,,,,,,,,,,,
1799999997968000000,2027-01-15T07:59:57.968000000Z,,-2.46,1.54,-0.77,0.00,0.77,0.46,2.46,3.38,2.77,2.62,5.38,6.15,6.62,,,,,,,,,,,,,,
1799999997984000000,2027-01-15T07:59:57.984000000Z,,-2.31,0.46,0.15,0.00,2.15,2.15,2.15,3.69,3.38,4.46,5.54,6.00,6.31,,,,,,,,,,,,,,
1799999998000000000,2027-01-15T07:59:58.000000000Z,,-2.15,0.46,1.08,0.31,2.62,2.62,2.00,4.77,4.46,5.69,4.46,5.08,6.31,,,,,,,,,,,,,,
1799999998016000000,2027-01-15T07:59:58.016000000Z,,-2.15,-0.15,0.92,0.92,3.23,3.08,2.15,4.15,2.77,3.85,4.15,5.54,5.85,,,,,,,,,,,,,,
1799999998032000000,2027-01-15T07:59:58.032000000Z,,-2.15,0.00,0.46,1.38,2.31,4.15,3.54,4.00,4.77,3.69,5.08,4.46,6.00,,,,,,,,,,,,,,
1799999998048000000,2027-01-15T07:59:58.048000000Z,,-0.62,0.00,-0.31,1.08,1.85,2.15,1.85,4.31,5.23,2.62,5.08,4.77,5.85,,,,,,,,,,,,,,
1799999998064000000,2027-01-15T07:59:58.064000000Z,,-0.77,-1.85,0.31,1.08,2.15,1.85,0.62,3.08,4.31,3.69,5.08,4.31,3.08,,,,,,,,,,,,,,
1799999998080000000,2027-01-15T07:59:58.080000000Z,,-1.23,-1.38,0.62,1.08,1.08,2.92,3.23,3.08,4.00,3.38,5.85,4.15,3.85,,,,,,,,,,,,,,
1799999998096000000,2027-01-15T07:59:58.096000000Z,-4.92,-0.15,0.00,0.92,0.31,1.85,1.08,3.38,2.46,4.77,3.38,5.54,3.85,5.23,,,,,,,,,,,,,,
1799999998112000000,2027-01-15T07:59:58.112000000Z,-4.62,-0.92,-0.77,0.00,0.77,2.31,1.23,2.77,2.31,5.38,4.00,5.23,4.15,5.23,,,,,,,,,,,,,,
1799999998128000000,2027-01-15T07:59:58.128000000Z,,-0.31,-1.23,-0.46,0.62,1.69,1.69,3.38,3.08,3.54,4.46,4.15,4.31,5.69,,,,,,,,,,,,,,
1799999998144000001,2027-01-15T07:59:58.144000001Z,-4.31,-0.92,-0.77,0.31,0.62,1.54,2.31,3.54,2.31,3.54,4.31,4.46,6.15,5.69,,,,,,,,,,,,,,
1799999998160000001,2027-01-15T07:59:58.160000001Z,-4.31,-2.15,-0.92,1.08,0.92,2.00,0.92,2.15,2.77,4.62,3.69,5.23,5.85,5.54,,,,,,,,,,,,,,
1799999998176000000,2027-01-15T07:59:58.176000000Z,-5.69,-0.92,-0.31,0.15,0.92,1.38,2.77,0.15,2.46,5.08,3.54,4.15,3.85,5.23,,,,,,,,,,,,,,
1799999998192000001,2027-01-15T07:59:58.192000001Z,-4.62,-0.46,1.23,0.46,0.46,1.23,3.38,1.54,1.69,4.77,3.69,4.46,4.77,5.54,,,,,,,,,,,,,,
1799999998208000000,2027-01-15T07:59:58.208000000Z,-4.62,0.31,0.92,1.69,2.31,0.77,1.69,1.23,1.38,3.85,4.62,3.38,4.46,5.23,,,,,,,,,,,,,,
1799999998224000000,2027-01-15T07:59:58.224000000Z,,-0.46,1.23,1.85,3.23,1.23,1.54,0.46,2.31,3.23,4.46,1.69,4.15,5.08,,,,,,,,,,,,,,
1799999998240000001,2027-01-15T07:59:58.240000001Z,,-0.15,-0.15,1.38,1.69,1.54,1.54,1.69,2.46,2.31,3.38,2.15,4.77,5.85,,,,,,,,,,,,,,
1799999998256000000,2027-01-15T07:59:58.256000000Z,,-0.77,0.00,0.46,2.15,2.15,1.23,2.15,2.31,2.31,3.85,4.77,3.85,6.31,,,,,,,,,,,,,,
1799999998272000000,2027-01-15T07:59:58.272000000Z,,-1.23,-0.31,-0.77,1.08,2.77,-0.46,3.54,2.92,3.85,3.85,4.31,2.92,5.23,,,,,,,,,,,,,,
1799999998288000000,2027-01-15T07:59:58.288000000Z,,-1.23,-0.92,0.31,0.15,2.46,0.46,3.08,3.08,3.69,4.00,3.85,3.08,5.69,,,,,,,,,,,,,,
1799999998304000000,2027-01-15T07:59:58.304000000Z,,-0.62,-0.46,1.23,1.69,1.54,2.00,1.54,3.08,4.62,4.46,3.85,3.85,6.00,,,,,,,,,,,,,,
1799999998320000000,2027-01-15T07:59:58.320000000Z,,-0.31,-0.77,1.54,2.15,1.54,2.46,1.54,2.62,4.46,3.85,4.92,4.62,7.54,,,,,,,,,,,,,,
1799999998336000000,2027-01-15T07:59:58.336000000Z,,-0.77,-1.38,0.15,2.46,0.92,4.46,4.46,2.15,2.62,2.62,4.46,3.85,6.46,,,,,,,,,,,,,,
1799999998352000000,2027-01-15T07:59:58.352000000Z,,0.62,-0.77,-0.15,1.69,0.92,3.23,2.92,2.62,4.92,2.62,5.38,4.31,4.92,,,,,,,,,,,,,,
1799999998368000000,2027-01-15T07:59:58.368000000Z,,1.38,-0.77,0.31,1.08,1.08,2.00,3.23,3.38,4.31,3.38,2.31,5.38,5.08,,,,,,,,,,,,,,
1799999998384000000,2027-01-15T07:59:58.384000000Z,,0.46,-1.08,1.08,0.77,-0.31,0.92,4.31,3.54,2.46,3.85,2.77,4.92,6.00,,,,,,,,,,,,,,
1799999998400000000,2027-01-15T07:59:58.400000000Z,-4.31,0.31,1.69,0.46,0.62,0.00,1.38,3.54,2.31,2.92,4.31,4.92,5.08,4.62,,,,,,,,,,,,,,
1799999998416000000,2027-01-15T07:59:58.416000000Z,-4.31,0.00,1.54,0.77,1.85,0.92,2.15,1.38,2.00,-0.15,4.15,4.46,4.92,4.15,,,,,,,,,,,,,,
1799999998432000000,2027-01-15T07:59:58.432000000Z,,-0.46,0.92,1.38,0.00,1.23,3.23,1.85,3.69,1.85,3.69,5.08,5.38,4.31,,,,,,,,,,,,,,
1799999998448000000,2027-01-15T07:59:58.448000000Z,,-1.23,0.62,1.85,-0.92,1.85,1.54,1.85,3.38,2.31,2.62,5.23,6.15,4.92,,,,,,,,,,,,,,
1799999998464000001,2027-01-15T07:59:58.464000001Z,,-0.77,-1.38,-1.38,1.23,0.92,2.15,2.77,2.77,4.00,2.77,4.00,6.31,5.69,,,,,,,,,,,,,,
1799999998480000000,2027-01-15T07:59:58.480000000Z,,1.23,-0.77,-0.92,0.62,0.92,1.69,2.31,3.54,5.08,3.08,2.92,6.62,5.69,,,,,,,,,,,,,,
1799999998496000000,2027-01-15T07:59:58.496000000Z,,-0.46,0.62,1.85,0.77,1.69,0.46,1.69,2.62,4.77,2.15,2.92,6.46,5.69,,,,,,,,,,,,,,
1799999998512000000,2027-01-15T07:59:58.512000000Z,,-1.69,0.62,2.77,-0.15,1.08,1.85,2.62,3.23,3.54,2.77,2.62,7.08,4.46,,,,,,,,,,,,,,
1799999998528000000,2027-01-15T07:59:58.528000000Z,,-0.46,1.23,1.69,0.31,1.38,1.38,2.00,4.46,3.23,3.23,3.85,6.92,3.23,,,,,,,,,,,,,,
1799999998544000000,2027-01-15T07:59:58.544000000Z,,-1.54,1.08,-1.23,0.92,1.23,1.69,3.08,4.46,2.46,4.15,4.15,6.31,4.46,,,,,,,,,,,,,,
1799999998560000000,2027-01-15T07:59:58.560000000Z,,-1.23,0.15,-0.92,1.38,1.23,1.54,4.15,3.54,3.38,4.62,5.08,5.85,4.62,,,,,,,,,,,,,,
1799999998576000000,2027-01-15T07:59:58.576000000Z,,-1.85,0.46,-0.62,2.00,1.23,2.46,4.62,2.46,3.38,4.62,4.77,5.85,4.92,,,,,,,,,,,,,,
1799999998592000000,2027-01-15T07:59:58.592000000Z,,-0.31,1.69,-1.54,2.00,0.46,2.46,4.31,3.69,4.15,4.46,4.62,6.31,5.08,,,,,,,,,,,,,,
1799999998608000000,2027-01-15T07:59:58.608000000Z,,1.08,1.23,-0.77,1.85,1.08,2.46,2.46,4.46,5.54,2.62,4.31,6.00,5.08,,,,,,,,,,,,,,
1799999998624000000,2027-01-15T07:59:58.624000000Z,,-0.46,1.08,0.31,0.92,2.00,2.62,2.77,4.46,4.92,3.08,3.85,4.46,5.54,,,,,,,,,,,,,,
1799999998640000000,2027-01-15T07:59:58.640000000Z,,-0.77,-0.31,0.92,1.38,1.38,2.31,2.00,2.46,4.62,4.15,6.00,4.92,5.23,,,,,,,,,,,,,,
1799999998656000001,2027-01-15T07:59:58.656000001Z,-4.62,0.00,-1.23,0.92,0.31,0.31,2.00,3.38,1.69,2.92,4.62,5.69,4.00,5.08,,,,,,,,,,,,,,
1799999998672000000,2027-01-15T07:59:58.672000000Z,-4.46,-0.15,-0.15,1.08,-0.77,0.77,1.54,3.38,2.31,1.69,4.92,4.46,3.54,5.38,,,,,,,,,,,,,,
1799999998688000000,2027-01-15T07:59:58.688000000Z,,-2.00,-0.62,1.23,0.77,1.38,0.31,2.15,2.77,2.77,4.15,4.15,4.62,5.23,,,,,,,,,,,,,,
1799999998704000001,2027-01-15T07:59:58.704000001Z,,-1.85,-0.15,0.00,0.00,1.69,1.23,0.46,2.15,2.46,3.54,4.92,4.77,5.23,,,,,,,,,,,,,,
1799999998720000000,2027-01-15T07:59:58.720000000Z,-4.31,-2.31,0.31,0.00,-0.15,2.00,1.85,0.00,1.38,2.31,3.85,5.23,5.08,5.54,,,,,,,,,,,,,,
1799999998736000000,2027-01-15T07:59:58.736000000Z,-4.62,-2.77,0.46,-0.46,-0.77,0.77,1.85,2.31,1.54,2.77,3.69,4.00,5.23,4.62,,,,,,,,,,,,,,
1799999998752000000,2027-01-15T07:59:58.752000000Z,-4.46,0.46,-0.31,-0.62,-0.31,0.77,0.92,3.38,1.85,3.08,2.77,2.77,4.92,4.62,,,,,,,,,,,,,,
1799999998768000000,2027-01-15T07:59:58.768000000Z,,-0.46,-1.08,0.92,0.46,2.62,0.46,3.54,3.23,2.92,4.46,3.85,3.54,5.69,,,,,,,,,,,,,,
1799999998784000000,2027-01-15T07:59:58.784000000Z,,-0.15,-1.54,0.62,0.92,3.38,-1.08,1.69,2.62,2.77,5.08,4.31,3.38,5.54,,,,,,,,,,,,,,
1799999998800000000,2027-01-15T07:59:58.800000000Z,,-2.00,-1.38,0.00,1.23,2.15,-0.15,0.77,1.69,2.31,4.31,4.62,4.92,5.54,,,,,,,,,,,,,,
1799999998816000000,2027-01-15T07:59:58.816000000Z,,-3.08,-1.08,0.00,0.46,1.69,2.62,2.15,1.08,2.31,3.85,3.69,5.54,3.54,,,,,,,,,,,,,,
1799999998832000000,2027-01-15T07:59:58.832000000Z,,-1.23,0.15,0.46,0.62,0.46,1.54,2.62,2.00,2.00,3.38,4.77,5.54,5.69,,,,,,,,,,,,,,
1799999998848000000,2027-01-15T07:59:58.848000000Z,,0.15,0.46,0.92,0.62,-0.15,2.15,2.62,2.62,4.77,3.23,5.23,4.77,6.77,,,,,,,,,,,,,,
1799999998864000000,2027-01-15T07:59:58.864000000Z,,-1.38,-0.62,-0.46,0.77,0.15,3.38,1.38,3.23,4.31,3.54,4.92,4.31,6.00,,,,,,,,,,,,,,
1799999998880000000,2027-01-15T07:59:58.880000000Z,,-1.85,-0.62,0.92,2.00,0.62,1.54,0.31,3.23,4.15,4.46,3.38,6.15,4.92,,,,,,,,,,,,,,
1799999998896000000,2027-01-15T07:59:58.896000000Z,,-1.08,0.15,2.00,1.38,0.15,-0.31,0.46,3.08,5.54,4.77,3.69,6.77,5.54,,,,,,,,,,,,,,
1799999998912000001,2027-01-15T07:59:58.912000001Z,,1.38,0.92,3.08,-0.15,0.62,1.38,0.15,2.46,5.85,3.23,4.77,6.62,6.15,,,,,,,,,,,,,,
1799999998928000000,2027-01-15T07:59:58.928000000Z,,0.92,1.54,2.15,-0.15,1.08,3.54,1.38,2.00,3.23,4.31,4.77,4.15,5.23,,,,,,,,,,,,,,
1799999998944000000,2027-01-15T07:59:58.944000000Z,,-0.77,0.92,-0.31,0.77,0.31,1.85,2.00,2.15,2.92,4.62,3.85,4.62,5.23,,,,,,,,,,,,,,
1799999998960000000,2027-01-15T07:59:58.960000000Z,,-0.31,0.00,0.46,1.08,-0.46,1.23,2.46,2.15,4.31,4.62,2.62,4.92,5.08,,,,,,,,,,,,,,
1799999998976000000,2027-01-15T07:59:58.976000000Z,,-0.15,1.54,1.08,0.46,0.46,1.85,2.15,3.08,3.85,4.31,4.92,4.62,5.38,,,,,,,,,,,,,,
1799999998992000000,2027-01-15T07:59:58.992000000Z,,0.31,2.62,1.08,2.00,1.08,3.08,2.46,3.23,1.85,3.69,4.92,4.31,5.08,,,,,,,,,,,,,,
1799999999008000000,2027-01-15T07:59:59.008000000Z,,-1.23,1.23,-0.15,3.08,1.23,3.23,2.77,2.62,3.23,4.62,4.62,4.15,4.92,,,,,,,,,,,,,,
1799999999024000000,2027-01-15T07:59:59.024000000Z,,-0.62,0.46,1.38,2.15,2.31,2.31,1.69,3.38,3.08,4.46,4.31,4.31,4.77,,,,,,,,,,,,,,
1799999999040000000,2027-01-15T07:59:59.040000000Z,-4.62,0.31,-0.31,0.77,2.00,1.85,2.62,0.77,2.62,2.15,4.31,6.77,4.00,4.46,,,,,,,,,,,,,,
1799999999056000000,2027-01-15T07:59:59.056000000Z,-4.62,-0.92,-0.15,0.31,1.54,1.38,1.38,1.85,2.92,2.15,4.62,4.46,4.15,4.92,,,,,,,,,,,,,,
1799999999072000001,2027-01-15T07:59:59.072000001Z,,-1.38,0.31,0.46,1.69,2.00,0.46,3.23,3.38,3.23,3.69,3.08,4.46,5.85,,,,,,,,,,,,,,
1799999999088000000,2027-01-15T07:59:59.088000000Z,,-2.00,-0.46,0.77,1.54,1.85,2.15,1.69,3.85,4.92,3.08,3.69,5.08,6.15,,,,,,,,,,,,,,
1799999999104000000,2027-01-15T07:59:59.104000000Z,,-2.00,-1.54,0.92,-0.77,3.08,2.62,1.85,3.69,5.08,2.46,4.31,4.15,6.15,,,,,,,,,,,,,,
1799999999120000001,2027-01-15T07:59:59.120000001Z,,0.15,-1.69,-0.31,0.31,2.92,2.77,2.31,4.00,3.23,2.15,4.92,4.77,5.38,,,,,,,,,,,,,,
1799999999136000000,2027-01-15T07:59:59.136000000Z,,1.23,-0.15,1.08,0.77,1.38,2.46,1.38,3.54,3.54,3.69,4.92,4.00,5.23,,,,,,,,,,,,,,
1799999999152000000,2027-01-15T07:59:59.152000000Z,,0.46,0.31,1.08,0.46,2.46,0.92,1.38,3.69,4.46,4.15,4.92,5.08,5.54,,,,,,,,,,,,,,
1799999999168000000,2027-01-15T07:59:59.168000000Z,,-1.54,-0.31,-0.15,0.77,2.46,1.85,2.15,4.46,3.38,3.85,4.31,8.31,4.92,,,,,,,,,,,,,,
1799999999184000000,2027-01-15T07:59:59.184000000Z,,-1.08,-0.92,0.92,0.15,1.23,2.31,2.77,4.62,4.46,3.08,3.23,5.54,5.54,,,,,,,,,,,,,,
1799999999200000000,2027-01-15T07:59:59.200000000Z,,-0.92,-1.38,1.38,-0.46,2.00,3.08,2.15,3.69,4.31,2.62,4.15,4.31,5.54,,,,,,,,,,,,,,
1799999999216000000,2027-01-15T07:59:59.216000000Z,,0.77,-1.23,0.92,-0.15,2.77,3.69,1.85,3.23,3.69,1.85,2.92,5.38,5.54,,,,,,,,,,,,,,
1799999999232000001,2027-01-15T07:59:59.232000001Z,,0.15,-0.31,1.23,0.77,3.54,3.85,0.00,3.08,2.92,3.08,2.15,5.23,5.38,,,,,,,,,,,,,,
1799999999248000000,2027-01-15T07:59:59.248000000Z,,-0.46,-0.15,0.92,1.85,2.31,4.15,1.38,2.77,4.15,4.15,2.62,4.31,4.92,,,,,,,,,,,,,,
1799999999264000000,2027-01-15T07:59:59.264000000Z,,-0.46,-0.15,1.85,2.15,1.38,2.92,4.15,2.15,5.08,3.69,4.31,4.00,5.54,,,,,,,,,,,,,,
1799999999280000000,2027-01-15T07:59:59.280000000Z,,-2.00,0.92,2.46,0.77,1.23,1.38,3.23,1.23,5.23,3.54,4.62,4.62,4.62,,,,,,,,,,,,,,
1799999999296000000,2027-01-15T07:59:59.296000000Z,,-1.23,-0.15,-0.31,0.00,1.54,1.69,2.92,1.69,3.85,4.00,4.00,5.38,3.23,,,,,,,,,,,,,,
1799999999312000000,2027-01-15T07:59:59.312000000Z,-4.46,-0.77,0.00,-0.15,0.77,1.23,2.46,3.38,1.69,1.85,4.15,3.69,6.77,4.15,,,,,,,,,,,,,,
1799999999328000001,2027-01-15T07:59:59.328000001Z,,-0.92,0.00,0.62,-0.46,0.31,2.15,4.31,1.85,2.46,4.31,4.77,6.31,4.15,,,,,,,,,,,,,,
1799999999344000000,2027-01-15T07:59:59.344000000Z,-4.62,-1.85,0.77,-0.15,0.31,0.62,3.08,4.31,2.46,1.38,4.00,4.15,6.62,4.00,,,,,,,,,,,,,,
1799999999360000000,2027-01-15T07:59:59.360000000Z,-4.31,-2.46,-0.15,-0.62,0.46,1.08,3.54,3.38,2.31,1.23,2.62,3.38,6.46,4.00,,,,,,,,,,,,,,
1799999999376000000,2027-01-15T07:59:59.376000000Z,-4.31,-2.62,-0.62,-1.38,0.15,1.85,2.77,2.92,1.85,3.08,3.23,3.54,5.54,5.08,,,,,,,,,,,,,,
1799999999392000000,2027-01-15T07:59:59.392000000Z,-4.77,-1.69,1.08,-0.15,0.46,2.00,2.31,2.62,1.38,3.54,4.31,6.00,4.31,5.23,,,,,,,,,,,,,,
1799999999408000000,2027-01-15T07:59:59.408000000Z,,-0.62,-0.62,-0.31,1.85,1.69,1.85,1.38,2.00,5.23,4.00,5.69,3.54,5.38,,,,,,,,,,,,,,
1799999999424000000,2027-01-15T07:59:59.424000000Z,-4.92,-0.77,-0.77,0.46,2.00,2.15,1.38,2.15,3.38,5.23,4.31,5.54,3.69,5.23,,,,,,,,,,,,,,
1799999999440000000,2027-01-15T07:59:59.440000000Z,-4.31,-0.31,-0.31,0.92,2.31,3.08,1.54,3.23,3.54,5.38,4.15,4.92,3.69,4.77,,,,,,,,,,,,,,
1799999999456000001,2027-01-15T07:59:59.456000001Z,,-0.15,-0.77,0.31,1.23,2.00,1.23,2.31,4.00,5.85,4.00,4.92,4.77,6.77,,,,,,,,,,,,,,
1799999999472000000,2027-01-15T07:59:59.472000000Z,,-0.92,-1.08,0.00,0.77,2.00,1.54,1.69,3.54,4.00,3.54,4.92,4.77,6.46,,,,,,,,,,,,,,
1799999999488000000,2027-01-15T07:59:59.488000000Z,,0.31,-0.62,0.62,0.62,2.15,2.00,0.92,3.08,3.54,2.62,4.15,5.08,5.38,,,,,,,,,,,,,,
1799999999504000000,2027-01-15T07:59:59.504000000Z,,0.46,-1.08,0.92,-0.77,2.00,1.38,0.92,2.77,5.54,2.62,5.23,5.85,5.69,,,,,,,,,,,,,,
1799999999520000000,2027-01-15T07:59:59.520000000Z,,-0.15,-0.77,-0.62,0.00,2.00,0.77,3.08,2.62,4.00,3.69,6.77,5.38,5.69,,,,,,,,,,,,,,
1799999999536000001,2027-01-15T07:59:59.536000001Z,,-2.00,-0.62,-0.31,0.46,1.23,1.85,3.38,2.46,3.54,3.54,6.00,6.31,6.00,,,,,,,,,,,,,,
1799999999552000000,2027-01-15T07:59:59.552000000Z,,-0.31,0.62,1.69,0.92,1.85,2.77,3.54,2.46,4.15,4.00,6.46,6.15,5.23,,,,,,,,,,,,,,
1799999999568000000,2027-01-15T07:59:59.568000000Z,,-0.46,-0.62,1.54,0.77,2.31,4.15,3.08,2.77,2.46,4.46,6.00,3.85,5.69,,,,,,,,,,,,,,
1799999999584000000,2027-01-15T07:59:59.584000000Z,,-1.85,-0.46,1.23,0.92,2.15,2.46,1.85,3.54,4.00,4.31,5.08,3.23,6.62,,,,,,,,,,,,,,
1799999999600000000,2027-01-15T07:59:59.600000000Z,,-0.92,0.62,0.77,0.77,0.92,0.62,1.23,3.85,4.62,4.46,4.31,3.69,5.54,,,,,,,,,,,,,,
1799999999616000001,2027-01-15T07:59:59.616000001Z,,-0.46,1.54,1.54,0.15,0.46,1.69,2.92,5.54,3.38,4.62,4.62,4.46,5.38,,,,,,,,,,,,,,
1799999999632000000,2027-01-15T07:59:59.632000000Z,,0.77,0.92,2.00,1.23,0.46,1.85,3.23,4.15,1.38,4.00,5.38,7.08,4.62,,,,,,,,,,,,,,
1799999999648000000,2027-01-15T07:59:59.648000000Z,,1.54,0.77,0.92,3.08,0.92,2.31,2.15,1.85,2.62,3.85,4.92,6.92,5.38,,,,,,,,,,,,,,
1799999999664000001,2027-01-15T07:59:59.664000001Z,,0.62,1.69,0.00,2.77,1.23,2.31,0.92,3.08,2.00,4.15,4.00,6.00,6.15,,,,,,,,,,,,,,
1799999999680000000,2027-01-15T07:59:59.680000000Z,,-0.77,0.62,1.69,0.62,1.85,3.85,1.38,4.31,2.15,3.38,4.00,4.46,4.15,,,,,,,,,,,,,,
1799999999696000000,2027-01-15T07:59:59.696000000Z,,0.77,0.62,1.69,2.00,1.69,3.69,1.54,4.92,4.00,4.92,4.00,4.46,4.00,,,,,,,,,,,,,,
1799999999712000000,2027-01-15T07:59:59.712000000Z,,0.46,0.92,1.54,0.15,1.69,2.77,1.54,4.15,3.69,6.46,2.62,4.62,5.38,,,,,,,,,,,,,,
1799999999728000001,2027-01-15T07:59:59.728000001Z,,-0.92,-0.31,1.08,-2.00,0.15,1.69,2.31,3.38,1.85,4.77,3.54,4.77,5.23,,,,,,,,,,,,,,
1799999999744000000,2027-01-15T07:59:59.744000000Z,,0.46,-0.31,0.31,-0.92,-0.46,2.46,2.92,3.23,1.69,4.15,4.46,4.31,4.62,,,,,,,,,,,,,,
1799999999760000000,2027-01-15T07:59:59.760000000Z,,0.77,0.00,0.77,-0.15,0.46,1.69,2.15,4.00,1.85,4.62,4.15,4.15,3.23,,,,,,,,,,,,,,
1799999999776000000,2027-01-15T07:59:59.776000000Z,,-0.77,0.00,0.92,0.62,-0.15,0.00,2.00,4.15,2.15,4.62,4.62,4.92,5.08,,,,,,,,,,,,,,
1799999999792000000,2027-01-15T07:59:59.792000000Z,,-2.77,-0.77,1.38,0.31,0.15,2.00,4.31,3.23,3.23,2.00,5.08,5.54,6.46,,,,,,,,,,,,,,
1799999999808000001,2027-01-15T07:59:59.808000001Z,-5.23,-1.54,-0.46,0.46,0.31,1.85,2.00,4.00,2.00,2.46,1.85,5.23,4.31,6.15,,,,,,,,,,,,,,
1799999999824000000,2027-01-15T07:59:59.824000000Z,-4.92,-0.62,0.15,0.62,-0.15,1.54,1.38,3.23,1.85,1.85,2.77,4.62,4.77,5.54,,,,,,,,,,,,,,
1799999999840000000,2027-01-15T07:59:59.840000000Z,,-1.08,0.77,-0.46,-1.23,0.00,1.69,2.92,3.08,1.08,4.46,4.00,5.23,4.62,,,,,,,,,,,,,,
1799999999856000000,2027-01-15T07:59:59.856000000Z,,-1.08,-1.54,-0.15,0.31,0.62,2.15,4.62,2.92,1.85,5.08,4.31,4.77,4.77,,,,,,,,,,,,,,
1799999999872000000,2027-01-15T07:59:59.872000000Z,,0.00,-1.08,1.38,2.00,1.69,2.31,4.15,2.00,3.85,4.15,5.54,4.92,4.31,,,,,,,,,,,,,,
1799999999888000000,2027-01-15T07:59:59.888000000Z,,-1.08,-0.15,1.38,1.85,1.85,0.77,2.77,1.54,4.77,4.15,5.08,4.62,4.46,,,,,,,,,,,,,,
1799999999904000001,2027-01-15T07:59:59.904000001Z,,-0.62,1.23,1.85,1.08,2.46,0.77,1.08,2.46,4.15,2.77,4.15,5.08,5.54,,,,,,,,,,,,,,
1799999999920000000,2027-01-15T07:59:59.920000000Z,,-0.46,2.00,0.31,0.77,2.15,1.54,1.54,2.77,3.38,1.85,2.77,4.62,6.62,,,,,,,,,,,,,,
1799999999936000000,2027-01-15T07:59:59.936000000Z,,-3.38,1.69,0.46,0.15,1.08,1.54,2.31,3.08,3.38,2.92,2.77,4.92,6.62,,,,,,,,,,,,,,
1799999999952000001,2027-01-15T07:59:59.952000001Z,,-1.23,2.46,0.31,0.77,0.31,1.85,2.92,2.62,5.08,3.69,2.92,4.31,5.54,,,,,,,,,,,,,,
1799999999968000000,2027-01-15T07:59:59.968000000Z,,-0.62,1.85,-0.15,-0.15,0.77,1.54,2.46,2.15,4.46,3.23,4.46,5.23,4.62,,,,,,,,,,,,,,
1799999999984000000,2027-01-15T07:59:59.984000000Z,,-1.38,0.62,0.31,0.46,1.23,1.69,2.46,2.77,2.31,3.38,3.69,5.69,6.77,,,,,,,,,,,,,,
