# spacing_uv=20.0
timestamp_ns,timestamp_iso,AF3,F7,F3,FC5,T7,P7,O1,O2,P8,T8,FC6,F4,F8,AF4,AF3_q,F7_q,F3_q,FC5_q,T7_q,P7_q,O1_q,O2_q,P8_q,T8_q,FC6_q,F4_q,F8_q,AF4_q
1799999990000000000,2027-01-15T07:59:50.000000000Z,,,,,,,,,,,,,,,,,,,,,,,,,,,,
1799999990006770481,2027-01-15T07:59:50.006770481Z,,2.40,,,,,0.40,,7.20,2.00,1.40,,,6.80,,,,,,,,,,,,,,
1799999990013540962,2027-01-15T07:59:50.013540962Z,-3.20,1.20,-1.20,-0.60,0.60,1.40,1.20,5.20,5.80,2.80,3.60,8.00,5.40,5.60,,,,,,,,,,,,,,
1799999990020311443,2027-01-15T07:59:50.020311443Z,-2.80,-0.40,-1.20,-0.20,1.80,2.40,2.60,4.20,4.20,3.80,6.20,7.00,6.00,4.80,,,,,,,,,,,,,,
1799999990027081923,2027-01-15T07:59:50.027081923Z,-2.00,-1.40,-0.60,0.80,3.00,3.20,3.80,3.00,3.60,4.60,5.80,6.00,6.80,5.40,,,,,,,,,,,,,,
1799999990033852404,2027-01-15T07:59:50.033852404Z,-1.20,-1.40,-0.40,0.40,3.00,2.80,3.80,3.00,4.80,4.80,4.20,6.00,7.20,5.60,,,,,,,,,,,,,,
1799999990040622885,2027-01-15T07:59:50.040622885Z,-1.20,-0.80,-0.20,0.00,2.20,2.00,5.40,2.20,6.00,4.80,3.80,6.20,6.00,6.20,,,,,,,,,,,,,,
1799999990047393365,2027-01-15T07:59:50.047393365Z,-2.40,-0.20,0.60,0.60,1.80,2.40,7.00,1.00,5.40,4.60,5.60,4.80,4.80,7.20,,,,,,,,,,,,,,
1799999990054163846,2027-01-15T07:59:50.054163846Z,-5.00,-1.60,1.40,0.80,0.80,3.80,5.40,1.20,4.20,5.20,6.80,4.00,6.40,7.00,,,,,,,,,,,,,,
1799999990060934327,2027-01-15T07:59:50.060934327Z,-4.60,-3.00,1.00,1.40,-1.00,3.80,3.00,2.40,4.20,5.20,6.60,6.60,7.60,5.40,,,,,,,,,,,,,,
1799999990067704808,2027-01-15T07:59:50.067704808Z,-2.60,-2.20,0.40,3.00,-0.80,2.60,3.00,2.00,4.20,4.20,5.80,8.60,6.40,5.60,,,,,,,,,,,,,,
1799999990074475288,2027-01-15T07:59:50.074475288Z,,-1.40,0.00,3.20,0.60,2.80,3.80,1.40,3.40,3.40,5.00,7.20,5.80,7.20,,,,,,,,,,,,,,
1799999990081245769,2027-01-15T07:59:50.081245769Z,,-1.00,-0.40,1.60,1.20,4.00,2.80,2.00,3.00,3.40,4.40,4.40,6.60,8.00,,,,,,,,,,,,,,
1799999990088016250,2027-01-15T07:59:50.088016250Z,-1.60,-0.60,-1.00,0.60,0.80,4.80,1.20,3.40,2.40,4.40,5.00,2.60,7.40,7.20,,,,,,,,,,,,,,
1799999990094786730,2027-01-15T07:59:50.094786730Z,-1.80,-0.80,-1.20,0.60,1.00,4.80,0.80,4.60,1.60,5.40,6.20,4.20,7.20,7.40,,,,,,,,,,,,,,
1799999990101557211,2027-01-15T07:59:50.101557211Z,-2.80,-1.80,-0.40,-0.20,1.80,4.40,1.80,4.00,0.80,5.20,6.60,6.40,6.40,11.20,,,,,,,,,,,,,,
1799999990108327692,2027-01-15T07:59:50.108327692Z,-1.40,-1.80,-0.80,-1.40,2.20,3.40,1.20,3.40,2.00,5.20,6.40,5.60,6.20,12.00,,,,,,,,,,,,,,
1799999990115098172,2027-01-15T07:59:50.115098172Z,-1.40,-0.80,-2.00,-0.60,3.20,1.60,2.00,3.80,4.80,5.40,6.20,4.80,6.80,7.60,,,,,,,,,,,,,,
1799999990121868653,2027-01-15T07:59:50.121868653Z,-0.80,-0.40,-0.80,0.20,3.00,0.00,2.40,4.60,6.40,4.20,4.80,5.80,7.60,5.80,,,,,,,,,,,,,,
1799999990128639134,2027-01-15T07:59:50.128639134Z,-0.80,-1.20,1.60,0.00,1.40,-0.20,0.80,4.60,5.60,3.20,3.40,6.20,7.40,8.00,,,,,,,,,,,,,,
1799999990135409615,2027-01-15T07:59:50.135409615Z,0.40,-2.00,2.80,-0.40,-0.40,1.20,-1.00,3.40,4.40,3.80,3.40,5.80,6.40,9.40,,,,,,,,,,,,,,
1799999990142180095,2027-01-15T07:59:50.142180095Z,0.40,-2.20,1.20,0.00,-0.80,2.80,-0.60,1.40,3.20,5.40,4.20,4.80,5.40,8.00,,,,,,,,,,,,,,
1799999990148950576,2027-01-15T07:59:50.148950576Z,0.80,-2.40,-1.80,1.00,0.40,2.80,2.20,-0.20,3.40,6.20,5.00,4.60,5.60,6.60,,,,,,,,,,,,,,
1799999990155721057,2027-01-15T07:59:50.155721057Z,-2.20,-4.20,-3.60,1.00,0.20,1.40,3.40,1.40,3.60,4.00,5.20,4.60,7.40,8.20,,,,,,,,,,,,,,
1799999990162491537,2027-01-15T07:59:50.162491537Z,0.00,-3.60,-2.80,0.80,0.00,2.60,2.60,3.20,2.60,3.20,5.40,4.20,8.00,8.60,,,,,,,,,,,,,,
1799999990169262018,2027-01-15T07:59:50.169262018Z,0.20,0.60,-1.00,1.40,1.20,4.40,4.20,2.60,2.40,5.00,4.20,4.80,6.00,7.20,,,,,,,,,,,,,,
1799999990176032499,2027-01-15T07:59:50.176032499Z,-3.40,3.00,-0.60,1.20,1.80,4.00,5.80,2.20,3.00,6.20,3.20,5.00,4.00,6.20,,,,,,,,,,,,,,
1799999990182802980,2027-01-15T07:59:50.182802980Z,-5.60,1.80,-1.60,0.20,2.00,2.80,5.20,2.60,3.20,5.80,3.40,4.60,3.40,6.20,,,,,,,,,,,,,,
1799999990189573460,2027-01-15T07:59:50.189573460Z,-2.60,0.20,-2.80,-1.20,2.20,1.80,3.40,3.40,3.40,5.00,4.20,4.20,3.60,5.80,,,,,,,,,,,,,,
1799999990196343941,2027-01-15T07:59:50.196343941Z,-0.80,-1.00,-3.40,-1.20,1.80,2.60,2.60,3.60,3.60,5.20,5.00,4.60,4.60,5.40,,,,,,,,,,,,,,
1799999990203114422,2027-01-15T07:59:50.203114422Z,,-0.40,-2.20,0.00,0.60,2.60,3.80,3.20,3.20,5.60,5.20,5.40,5.00,6.20,,,,,,,,,,,,,,
1799999990209884902,2027-01-15T07:59:50.209884902Z,,0.00,-1.00,-0.80,-1.40,1.40,2.60,4.20,2.60,5.20,5.40,6.00,4.80,6.60,,,,,,,,,,,,,,
1799999990216655383,2027-01-15T07:59:50.216655383Z,-0.20,-0.20,-0.20,-1.40,-2.60,0.60,0.60,4.40,3.60,6.00,4.80,6.20,4.60,5.80,,,,,,,,,,,,,,
1799999990223425864,2027-01-15T07:59:50.223425864Z,0.20,0.80,0.60,0.00,-1.40,0.20,1.40,2.20,5.00,5.20,4.20,6.20,5.00,5.60,,,,,,,,,,,,,,
1799999990230196344,2027-01-15T07:59:50.230196344Z,0.00,1.60,0.80,1.00,-0.20,0.60,2.20,1.20,5.40,3.00,4.20,6.00,5.40,6.00,,,,,,,,,,,,,,
1799999990236966825,2027-01-15T07:59:50.236966825Z,-1.40,1.40,0.80,1.60,0.00,1.20,1.20,3.00,4.40,1.20,4.20,5.60,5.60,6.00,,,,,,,,,,,,,,
1799999990243737306,2027-01-15T07:59:50.243737306Z,-0.60,0.20,1.80,2.20,-0.20,2.40,0.60,5.40,3.40,2.00,4.40,5.40,5.80,6.00,,,,,,,,,,,,,,
1799999990250507787,2027-01-15T07:59:50.250507787Z,-0.20,-2.00,2.80,1.20,0.40,2.20,2.80,5.20,2.40,4.60,5.00,6.80,7.00,5.60,,,,,,,,,,,,,,
1799999990257278267,2027-01-15T07:59:50.257278267Z,2.20,-2.20,1.00,0.40,1.60,0.20,4.20,2.80,2.60,5.00,5.20,8.00,8.00,5.40,,,,,,,,,,,,,,
1799999990264048748,2027-01-15T07:59:50.264048748Z,2.40,0.40,-0.40,1.60,2.00,-0.20,2.20,2.60,4.60,3.60,4.40,6.60,7.00,6.00,,,,,,,,,,,,,,
1799999990270819229,2027-01-15T07:59:50.270819229Z,1.80,-0.20,0.40,1.40,1.00,1.20,3.20,3.40,4.60,3.80,4.00,4.60,6.60,7.20,,,,,,,,,,,,,,
1799999990277589709,2027-01-15T07:59:50.277589709Z,-1.80,-2.40,1.00,0.80,0.80,1.80,5.60,2.80,1.80,4.80,4.40,4.60,7.60,7.60,,,,,,,,,,,,,,
1799999990284360190,2027-01-15T07:59:50.284360190Z,1.20,-1.20,0.60,1.80,1.20,1.00,5.80,2.00,-0.80,5.60,4.60,5.80,8.40,7.00,,,,,,,,,,,,,,
1799999990291130671,2027-01-15T07:59:50.291130671Z,2.00,2.00,-0.20,3.40,2.00,0.60,4.00,2.80,-1.00,6.60,5.00,6.40,6.80,5.80,,,,,,,,,,,,,,
1799999990297901151,2027-01-15T07:59:50.297901151Z,1.00,2.20,-0.40,3.80,1.60,1.40,2.20,4.60,2.80,6.60,6.00,6.00,4.40,4.40,,,,,,,,,,,,,,
1799999990304671632,2027-01-15T07:59:50.304671632Z,0.40,-1.80,-0.40,2.40,0.40,1.60,1.80,4.80,5.40,5.20,6.20,6.80,5.00,5.40,,,,,,,,,,,,,,
1799999990311442113,2027-01-15T07:59:50.311442113Z,0.60,-3.60,-0.80,1.00,0.80,0.60,0.00,3.80,4.00,4.20,5.00,7.60,6.80,7.60,,,,,,,,,,,,,,
1799999990318212594,2027-01-15T07:59:50.318212594Z,1.20,-2.60,-1.20,1.20,1.80,1.00,-1.60,3.20,3.20,4.40,4.20,6.20,6.20,7.20,,,,,,,,,,,,,,
1799999990324983074,2027-01-15T07:59:50.324983074Z,1.80,-2.60,-0.40,2.40,1.20,1.40,-0.80,2.80,3.60,5.60,5.20,4.40,5.60,4.80,,,,,,,,,,,,,,
1799999990331753555,2027-01-15T07:59:50.331753555Z,1.40,-3.00,1.00,2.60,0.60,0.80,0.60,2.80,3.20,6.00,5.60,4.00,6.20,4.20,,,,,,,,,,,,,,
1799999990338524036,2027-01-15T07:59:50.338524036Z,1.00,-2.40,2.80,1.40,0.60,0.00,1.20,3.20,3.20,5.60,4.80,5.20,6.20,5.60,,,,,,,,,,,,,,
1799999990345294516,2027-01-15T07:59:50.345294516Z,0.00,-0.80,3.60,0.40,1.20,-0.80,0.20,3.20,4.40,5.60,4.20,5.80,5.00,7.20,,,,,,,,,,,,,,
1799999990352064997,2027-01-15T07:59:50.352064997Z,-0.20,0.60,1.80,0.40,1.80,-0.60,0.80,2.80,6.00,5.00,4.60,5.00,4.20,7.20,,,,,,,,,,,,,,
1799999990358835478,2027-01-15T07:59:50.358835478Z,-1.60,0.40,0.40,0.20,1.40,0.00,3.80,3.00,5.80,3.60,3.60,4.40,5.60,5.60,,,,,,,,,,,,,,
1799999990365605959,2027-01-15T07:59:50.365605959Z,-2.20,0.40,0.60,-0.80,0.40,0.20,4.40,3.20,4.20,3.80,2.00,5.80,6.60,6.00,,,,,,,,,,,,,,
1799999990372376439,2027-01-15T07:59:50.372376439Z,-2.00,0.60,-1.00,-0.60,-0.20,0.00,1.40,2.40,3.80,5.80,4.40,6.60,6.00,7.40,,,,,,,,,,,,,,
1799999990379146920,2027-01-15T07:59:50.379146920Z,1.40,0.60,-2.20,0.60,0.60,-0.40,0.00,1.40,3.60,6.00,7.40,6.00,6.60,7.00,,,,,,,,,,,,,,
1799999990385917401,2027-01-15T07:59:50.385917401Z,1.00,0.40,-1.80,0.80,2.00,0.00,1.60,1.60,3.40,4.20,6.40,5.40,7.40,6.40,,,,,,,,,,,,,,
1799999990392687881,2027-01-15T07:59:50.392687881Z,0.60,0.00,-1.60,0.00,3.00,0.80,3.80,2.60,4.40,2.40,3.60,5.20,7.40,6.40,,,,,,,,,,,,,,
1799999990399458362,2027-01-15T07:59:50.399458362Z,-0.60,-0.40,-1.80,-1.00,2.80,1.80,4.60,4.20,5.40,2.00,3.00,5.00,6.20,6.80,,,,,,,,,,,,,,
1799999990406228843,2027-01-15T07:59:50.406228843Z,-1.00,-1.00,-1.60,0.80,2.20,1.20,3.00,5.20,5.00,2.60,5.60,4.80,5.20,7.60,,,,,,,,,,,,,,
1799999990412999323,2027-01-15T07:59:50.412999323Z,1.40,-2.40,-1.60,3.00,2.80,0.60,1.80,3.80,3.60,2.20,6.60,5.00,6.40,8.60,,,,,,,,,,,,,,
1799999990419769804,2027-01-15T07:59:50.419769804Z,-1.20,-3.20,-2.60,1.60,2.80,1.40,2.40,2.00,2.80,3.20,4.00,6.20,7.40,7.80,,,,,,,,,,,,,,
1799999990426540285,2027-01-15T07:59:50.426540285Z,0.80,-2.20,-2.00,0.60,1.20,1.60,2.60,1.60,3.00,5.60,3.40,7.00,6.40,6.40,,,,,,,,,,,,,,
1799999990433310766,2027-01-15T07:59:50.433310766Z,0.20,-2.40,-1.00,1.80,-0.20,0.80,2.80,2.00,3.80,6.60,5.00,6.40,5.80,6.60,,,,,,,,,,,,,,
1799999990440081246,2027-01-15T07:59:50.440081246Z,-0.20,-3.60,-0.40,2.80,-0.20,0.40,3.80,1.60,4.20,5.40,6.00,5.20,6.60,8.40,,,,,,,,,,,,,,
1799999990446851727,2027-01-15T07:59:50.446851727Z,-1.40,-3.20,-1.20,2.20,0.40,1.00,5.00,2.00,5.00,3.80,5.60,5.40,7.40,10.00,,,,,,,,,,,,,,
1799999990453622208,2027-01-15T07:59:50.453622208Z,-1.80,-1.40,-2.40,0.60,0.60,2.20,4.20,3.80,5.20,3.20,4.80,6.40,7.20,8.60,,,,,,,,,,,,,,
1799999990460392688,2027-01-15T07:59:50.460392688Z,0.20,0.40,-1.60,0.20,0.40,1.80,2.40,4.40,5.40,4.20,5.80,6.60,7.40,6.00,,,,,,,,,,,,,,
1799999990467163169,2027-01-15T07:59:50.467163169Z,-0.40,0.20,0.40,-0.20,0.60,0.20,2.40,2.60,5.40,4.20,6.20,6.60,8.20,6.20,,,,,,,,,,,,,,
1799999990473933650,2027-01-15T07:59:50.473933650Z,-1.40,-0.60,0.20,-1.40,2.00,0.20,2.80,3.00,4.00,3.40,4.20,6.00,7.40,7.60,,,,,,,,,,,,,,
1799999990480704130,2027-01-15T07:59:50.480704130Z,-5.40,0.00,-0.40,-0.60,3.80,1.40,1.80,4.80,3.00,3.40,3.20,4.60,5.80,7.60,,,,,,,,,,,,,,
1799999990487474611,2027-01-15T07:59:50.487474611Z,-4.20,0.00,0.20,1.40,3.80,2.00,1.60,4.80,3.60,4.20,4.20,3.60,6.20,7.20,,,,,,,,,,,,,,
1799999990494245092,2027-01-15T07:59:50.494245092Z,-2.40,-0.80,0.40,2.80,2.00,2.00,2.40,4.00,4.40,4.60,5.40,4.20,8.00,7.20,,,,,,,,,,,,,,
1799999990501015573,2027-01-15T07:59:50.501015573Z,-1.20,-0.60,-0.20,2.00,0.00,1.60,2.40,2.80,4.60,4.40,6.00,5.20,10.00,6.80,,,,,,,,,,,,,,
1799999990507786053,2027-01-15T07:59:50.507786053Z,-1.40,0.20,0.00,0.20,0.60,2.00,0.40,2.60,4.20,3.40,5.60,6.60,8.80,6.20,,,,,,,,,,,,,,
1799999990514556534,2027-01-15T07:59:50.514556534Z,-3.00,-0.60,1.20,-0.40,2.40,2.20,-0.80,3.00,5.60,3.20,5.20,8.00,5.60,7.00,,,,,,,,,,,,,,
1799999990521327015,2027-01-15T07:59:50.521327015Z,-1.00,-0.60,1.20,0.60,1.40,1.20,0.60,1.80,6.20,3.20,5.00,7.60,5.40,6.80,,,,,,,,,,,,,,
1799999990528097495,2027-01-15T07:59:50.528097495Z,-0.60,0.80,-0.20,0.40,0.60,0.00,1.80,0.20,4.40,3.00,5.00,5.20,6.40,5.00,,,,,,,,,,,,,,
1799999990534867976,2027-01-15T07:59:50.534867976Z,-2.80,0.80,-1.00,-0.60,1.60,0.00,2.00,1.00,3.40,3.60,5.20,3.40,5.40,5.40,,,,,,,,,,,,,,
1799999990541638457,2027-01-15T07:59:50.541638457Z,-4.60,-0.40,-1.40,-0.80,2.20,1.00,1.60,2.80,3.80,4.40,5.20,3.40,4.20,7.00,,,,,,,,,,,,,,
1799999990548408938,2027-01-15T07:59:50.548408938Z,-2.80,-1.00,-1.80,0.60,1.80,2.60,1.00,4.60,4.20,4.60,5.20,4.00,4.80,7.00,,,,,,,,,,,,,,
1799999990555179418,2027-01-15T07:59:50.555179418Z,-2.40,-0.40,-0.80,1.80,1.00,3.00,0.40,4.20,4.20,3.80,4.40,4.60,6.40,4.80,,,,,,,,,,,,,,
1799999990561949899,2027-01-15T07:59:50.561949899Z,-2.80,-1.20,1.00,1.20,1.00,1.00,0.00,2.20,4.40,4.20,3.80,5.00,6.20,4.60,,,,,,,,,,,,,,
1799999990568720380,2027-01-15T07:59:50.568720380Z,-1.80,-3.20,0.20,0.20,1.80,0.00,0.60,2.20,4.60,5.40,4.40,5.80,5.20,6.80,,,,,,,,,,,,,,
1799999990575490860,2027-01-15T07:59:50.575490860Z,-1.60,-3.40,-1.80,-0.40,1.80,2.00,1.20,4.40,5.00,4.80,5.40,5.80,6.60,6.20,,,,,,,,,,,,,,
1799999990582261341,2027-01-15T07:59:50.582261341Z,-1.40,-1.40,-1.40,-0.40,1.00,3.60,0.60,5.20,5.00,3.80,5.40,5.80,7.80,6.00,,,,,,,,,,,,,,
1799999990589031822,2027-01-15T07:59:50.589031822Z,-3.40,-0.40,-0.20,-0.40,0.80,3.20,1.20,4.00,4.60,3.80,5.00,6.20,7.00,7.60,,,,,,,,,,,,,,
1799999990595802302,2027-01-15T07:59:50.595802302Z,-5.00,-1.20,0.40,-1.00,1.40,3.20,2.40,2.60,4.40,4.60,5.00,6.40,5.80,8.20,,,,,,,,,,,,,,
1799999990602572783,2027-01-15T07:59:50.602572783Z,-3.80,-0.80,-0.60,-1.80,2.20,3.00,2.80,1.60,4.40,4.20,5.60,5.80,5.40,7.40,,,,,,,,,,,,,,
1799999990609343264,2027-01-15T07:59:50.609343264Z,-2.40,0.80,-2.00,-2.20,3.00,2.00,0.80,2.20,4.80,2.60,6.00,5.40,6.60,6.40,,,,,,,,,,,,,,
1799999990616113745,2027-01-15T07:59:50.616113745Z,-2.80,0.40,-2.60,-1.20,2.40,0.60,0.40,3.60,4.60,3.60,5.20,6.20,7.20,6.80,,,,,,,,,,,,,,
1799999990622884225,2027-01-15T07:59:50.622884225Z,0.00,-1.80,-1.40,-1.00,1.20,-0.20,3.00,3.00,3.60,7.00,5.20,6.40,6.20,6.40,,,,,,,,,,,,,,
1799999990629654706,2027-01-15T07:59:50.629654706Z,0.20,-2.60,0.20,-0.60,0.20,-0.60,2.20,2.20,2.60,7.40,5.80,5.80,5.60,5.60,,,,,,,,,,,,,,
1799999990636425187,2027-01-15T07:59:50.636425187Z,-1.20,-1.80,1.00,0.60,0.00,-0.80,0.20,3.00,2.60,5.00,5.00,6.20,6.00,6.00,,,,,,,,,,,,,,
1799999990643195667,2027-01-15T07:59:50.643195667Z,,-1.20,1.20,1.80,0.20,-0.20,1.00,3.40,3.60,3.20,3.80,6.60,6.00,6.80,,,,,,,,,,,,,,
1799999990649966148,2027-01-15T07:59:50.649966148Z,-0.20,-0.20,0.60,1.00,0.80,1.20,4.00,3.40,5.20,2.60,3.00,6.20,6.00,7.40,,,,,,,,,,,,,,
1799999990656736629,2027-01-15T07:59:50.656736629Z,0.00,0.20,-0.60,0.00,1.80,2.00,4.60,3.00,5.80,3.20,3.60,5.40,5.20,6.40,,,,,,,,,,,,,,
1799999990663507110,2027-01-15T07:59:50.663507110Z,-0.40,-0.20,0.00,1.00,2.60,1.00,1.40,1.40,3.60,2.80,3.80,6.00,4.60,5.40,,,,,,,,,,,,,,
1799999990670277590,2027-01-15T07:59:50.670277590Z,0.60,0.00,1.20,0.80,2.40,1.40,1.00,0.00,2.60,3.20,3.40,6.20,5.00,6.40,,,,,,,,,,,,,,
1799999990677048071,2027-01-15T07:59:50.677048071Z,-1.20,0.60,0.40,-0.20,3.00,2.40,1.80,1.00,4.00,4.60,5.20,5.60,4.60,7.00,,,,,,,,,,,,,,
1799999990683818552,2027-01-15T07:59:50.683818552Z,-0.40,1.00,-0.80,0.80,3.80,1.40,-0.80,2.60,5.40,5.20,7.80,6.00,4.80,6.40,,,,,,,,,,,,,,
1799999990690589032,2027-01-15T07:59:50.690589032Z,-0.40,0.80,-1.20,1.40,3.60,-0.60,-2.40,2.60,5.20,4.80,7.80,6.40,6.00,7.00,,,,,,,,,,,,,,
1799999990697359513,2027-01-15T07:59:50.697359513Z,-0.80,0.80,-1.00,0.60,2.40,-1.60,-0.40,1.80,4.00,4.80,5.20,6.40,7.40,8.20,,,,,,,,,,,,,,
1799999990704129994,2027-01-15T07:59:50.704129994Z,-0.80,1.80,0.40,-0.20,1.40,-1.40,2.00,1.00,3.40,4.40,2.60,6.80,7.20,9.40,,,,,,,,,,,,,,
1799999990710900474,2027-01-15T07:59:50.710900474Z,-2.00,1.20,0.80,-0.60,1.60,-0.20,3.20,1.20,4.00,5.00,2.80,7.00,6.00,8.80,,,,,,,,,,,,,,
1799999990717670955,2027-01-15T07:59:50.717670955Z,-2.20,-1.60,-0.40,-0.80,1.40,1.00,2.40,2.60,5.20,6.20,4.80,5.80,6.20,6.80,,,,,,,,,,,,,,
1799999990724441436,2027-01-15T07:59:50.724441436Z,1.00,-2.20,-0.60,-0.20,0.20,1.60,4.00,4.00,5.60,5.80,4.20,5.00,6.20,6.60,,,,,,,,,,,,,,
1799999990731211917,2027-01-15T07:59:50.731211917Z,1.00,-1.60,-1.00,0.60,0.00,1.20,5.60,4.40,5.60,4.40,3.60,5.60,5.40,8.40,,,,,,,,,,,,,,
1799999990737982397,2027-01-15T07:59:50.737982397Z,-1.80,-2.20,-2.60,0.60,1.00,0.60,5.00,3.20,6.00,3.80,4.60,5.40,6.40,9.20,,,,,,,,,,,,,,
1799999990744752878,2027-01-15T07:59:50.744752878Z,,-2.20,-3.60,0.20,1.40,0.40,3.80,2.40,6.40,4.20,5.00,5.00,7.60,8.00,,,,,,,,,,,,,,
1799999990751523359,2027-01-15T07:59:50.751523359Z,-2.40,-1.60,-1.40,0.20,1.40,1.40,3.00,2.20,5.60,4.60,5.00,5.00,7.80,6.80,,,,,,,,,,,,,,
1799999990758293839,2027-01-15T07:59:50.758293839Z,-1.00,-1.20,1.40,1.40,0.60,2.60,3.60,3.20,3.00,4.00,5.40,6.00,5.80,7.40,,,,,,,,,,,,,,
1799999990765064320,2027-01-15T07:59:50.765064320Z,0.60,-0.40,1.40,2.00,0.40,1.80,3.80,3.20,0.40,3.80,6.20,6.60,4.80,8.00,,,,,,,,,,,,,,
1799999990771834801,2027-01-15T07:59:50.771834801Z,0.60,0.60,0.80,0.40,1.20,2.00,3.40,2.40,1.80,4.60,5.20,5.80,5.40,7.20,,,,,,,,,,,,,,
1799999990778605281,2027-01-15T07:59:50.778605281Z,-1.20,0.20,1.80,-0.20,2.00,3.20,3.00,3.00,3.80,5.20,4.20,6.40,5.00,8.00,,,,,,,,,,,,,,
1799999990785375762,2027-01-15T07:59:50.785375762Z,-0.80,-1.00,1.60,1.40,2.20,3.20,2.60,4.20,2.40,5.40,5.00,7.40,4.80,7.80,,,,,,,,,,,,,,
1799999990792146243,2027-01-15T07:59:50.792146243Z,-0.60,-1.60,0.40,1.60,1.80,2.00,3.20,5.00,0.60,5.40,5.60,7.00,6.00,5.80,,,,,,,,,,,,,,
1799999990798916724,2027-01-15T07:59:50.798916724Z,-0.40,-1.00,-0.20,0.80,1.00,1.40,4.00,5.20,1.20,5.40,5.20,6.20,6.80,4.40,,,,,,,,,,,,,,
1799999990805687204,2027-01-15T07:59:50.805687204Z,0.00,0.00,0.60,2.40,0.00,2.00,4.20,4.40,3.20,5.20,4.80,5.60,7.00,5.00,,,,,,,,,,,,,,
1799999990812457685,2027-01-15T07:59:50.812457685Z,-0.60,0.40,2.20,3.40,0.60,2.60,3.20,3.40,5.20,5.00,4.20,5.00,7.00,7.00,,,,,,,,,,,,,,
1799999990819228166,2027-01-15T07:59:50.819228166Z,-0.80,0.00,1.60,0.20,2.60,1.40,3.40,3.00,4.60,4.80,3.20,4.40,8.00,7.80,,,,,,,,,,,,,,
1799999990825998646,2027-01-15T07:59:50.825998646Z,-1.00,0.40,-0.40,-0.80,3.60,1.00,4.60,3.00,4.80,5.00,2.80,4.60,7.40,6.40,,,,,,,,,,,,,,
1799999990832769127,2027-01-15T07:59:50.832769127Z,-1.00,-0.60,-1.20,2.40,2.60,2.20,4.60,3.40,5.60,5.60,3.20,5.00,6.60,4.80,,,,,,,,,,,,,,
1799999990839539608,2027-01-15T07:59:50.839539608Z,-2.40,-1.60,-0.20,3.40,2.00,2.60,3.80,3.60,5.20,5.20,3.80,5.40,7.00,4.40,,,,,,,,,,,,,,
1799999990846310089,2027-01-15T07:59:50.846310089Z,-2.00,-1.00,0.40,1.60,2.00,2.20,3.20,3.20,4.80,4.00,4.20,5.80,7.40,5.40,,,,,,,,,,,,,,
1799999990853080569,2027-01-15T07:59:50.853080569Z,0.20,0.40,-0.60,0.00,1.80,2.20,4.80,2.40,5.00,1.80,5.20,6.60,7.80,6.60,,,,,,,,,,,,,,
1799999990859851050,2027-01-15T07:59:50.859851050Z,,1.80,-2.00,0.40,0.60,3.40,5.80,2.20,3.80,0.60,5.80,5.60,7.40,7.20,,,,,,,,,,,,,,
1799999990866621531,2027-01-15T07:59:50.866621531Z,0.40,1.20,-0.60,2.40,-1.00,3.40,4.00,3.60,1.20,2.20,5.40,4.80,6.80,7.00,,,,,,,,,,,,,,
1799999990873392011,2027-01-15T07:59:50.873392011Z,1.00,0.40,0.20,3.40,-0.40,2.00,2.00,4.80,1.60,4.40,5.20,5.80,6.60,7.00,,,,,,,,,,,,,,
1799999990880162492,2027-01-15T07:59:50.880162492Z,0.80,1.20,-0.80,3.00,1.60,1.40,2.00,3.20,3.80,4.00,5.60,6.20,6.40,7.40,,,,,,,,,,,,,,
1799999990886932973,2027-01-15T07:59:50.886932973Z,1.60,2.80,-0.80,3.60,2.80,2.00,2.40,1.20,2.80,3.20,5.60,5.20,5.60,8.40,,,,,,,,,,,,,,
1799999990893703453,2027-01-15T07:59:50.893703453Z,2.40,2.80,0.00,4.80,1.80,2.60,2.40,1.00,0.80,4.00,4.80,5.00,5.20,8.40,,,,,,,,,,,,,,
1799999990900473934,2027-01-15T07:59:50.900473934Z,2.60,1.00,0.40,5.40,-0.20,2.80,2.00,1.40,0.60,4.80,4.00,5.80,5.40,7.40,,,,,,,,,,,,,,
1799999990907244415,2027-01-15T07:59:50.907244415Z,3.00,-0.40,-0.60,4.00,-0.80,2.40,1.80,1.40,2.00,5.20,3.00,6.80,6.20,6.00,,,,,,,,,,,,,,
1799999990914014896,2027-01-15T07:59:50.914014896Z,3.40,-0.60,-1.60,1.60,0.80,0.80,2.40,1.00,2.80,4.40,3.00,8.00,7.40,6.00,,,,,,,,,,,,,,
1799999990920785376,2027-01-15T07:59:50.920785376Z,3.40,0.80,0.20,1.80,1.40,-0.20,3.20,2.40,2.00,4.20,3.40,8.20,8.20,7.20,,,,,,,,,,,,,,
1799999990927555857,2027-01-15T07:59:50.927555857Z,2.40,1.40,1.80,2.60,-0.60,0.60,3.60,4.40,2.60,5.20,4.00,6.20,8.20,7.80,,,,,,,,,,,,,,
1799999990934326338,2027-01-15T07:59:50.934326338Z,-0.40,0.80,0.60,-0.20,-0.60,0.80,3.00,5.20,4.20,5.80,5.60,5.00,8.40,7.00,,,,,,,,,,,,,,
1799999990941096818,2027-01-15T07:59:50.941096818Z,-0.60,1.00,-1.00,-2.80,1.20,0.60,1.60,3.80,4.40,5.20,6.40,5.40,8.40,6.40,,,,,,,,,,,,,,
1799999990947867299,2027-01-15T07:59:50.947867299Z,1.40,1.80,-1.00,-2.80,2.20,1.20,0.40,2.20,3.20,4.40,5.60,6.20,7.80,6.60,,,,,,,,,,,,,,
1799999990954637780,2027-01-15T07:59:50.954637780Z,0.80,1.60,-0.20,-0.80,1.40,3.00,0.20,1.80,3.40,4.20,4.20,5.80,7.00,7.20,,,,,,,,,,,,,,
1799999990961408260,2027-01-15T07:59:50.961408260Z,0.20,0.60,0.60,1.20,0.00,3.20,2.00,3.00,3.80,5.20,4.20,5.60,6.40,7.20,,,,,,,,,,,,,,
1799999990968178741,2027-01-15T07:59:50.968178741Z,-2.80,-0.40,1.60,0.60,-0.80,1.20,2.20,3.00,2.60,6.20,5.20,6.60,6.40,5.80,,,,,,,,,,,,,,
1799999990974949222,2027-01-15T07:59:50.974949222Z,-0.80,-1.80,1.80,-0.20,-0.60,0.60,0.60,2.00,2.40,6.20,4.40,6.00,6.00,4.60,,,,,,,,,,,,,,
1799999990981719703,2027-01-15T07:59:50.981719703Z,-0.80,-2.40,1.00,0.40,0.40,1.60,0.80,1.40,3.60,5.20,4.00,4.80,5.80,5.40,,,,,,,,,,,,,,
1799999990988490183,2027-01-15T07:59:50.988490183Z,-1.40,-1.40,0.20,-1.00,0.80,2.20,2.00,1.80,5.00,4.00,5.20,5.80,4.80,6.60,,,,,,,,,,,,,,
1799999990995260664,2027-01-15T07:59:50.995260664Z,-1.60,-0.20,0.40,-2.60,-0.20,2.40,2.40,2.60,5.60,3.00,5.20,6.60,3.80,6.40,,,,,,,,,,,,,,
1799999991002031145,2027-01-15T07:59:51.002031145Z,0.20,0.80,1.00,-2.40,-0.60,2.80,2.00,3.00,5.60,2.80,3.60,5.80,3.60,6.00,,,,,,,,,,,,,,
1799999991008801625,2027-01-15T07:59:51.008801625Z,0.40,0.60,2.20,-0.20,-1.00,2.80,3.00,4.00,5.20,2.80,2.40,5.80,5.20,6.60,,,,,,,,,,,,,,
1799999991015572106,2027-01-15T07:59:51.015572106Z,-1.80,-0.80,3.20,1.40,-0.60,2.80,4.60,4.00,5.80,3.00,3.20,7.00,6.00,7.80,,,,,,,,,,,,,,
1799999991022342587,2027-01-15T07:59:51.022342587Z,-1.40,-1.20,1.80,0.40,0.00,1.80,4.20,3.00,6.20,4.40,5.00,7.40,4.60,8.00,,,,,,,,,,,,,,
1799999991029113068,2027-01-15T07:59:51.029113068Z,-0.80,-0.80,-0.20,-0.20,0.00,0.80,2.00,3.20,4.40,6.00,6.40,5.80,5.20,7.00,,,,,,,,,,,,,,
1799999991035883548,2027-01-15T07:59:51.035883548Z,-0.20,-1.40,-0.40,0.40,-0.40,2.00,1.40,4.80,2.60,5.40,7.40,5.60,6.80,6.80,,,,,,,,,,,,,,
1799999991042654029,2027-01-15T07:59:51.042654029Z,-0.80,-1.40,0.00,0.00,-0.40,3.20,2.60,6.00,3.20,3.80,7.60,6.80,7.60,7.00,,,,,,,,,,,,,,
1799999991049424510,2027-01-15T07:59:51.049424510Z,-1.60,-0.60,0.00,-0.80,0.20,3.00,3.60,5.40,4.40,3.80,7.00,7.40,7.00,7.00,,,,,,,,,,,,,,
1799999991056194990,2027-01-15T07:59:51.056194990Z,-2.20,0.20,0.20,-1.80,1.00,1.80,4.80,4.60,4.20,4.80,5.60,6.60,5.80,6.20,,,,,,,,,,,,,,
1799999991062965471,2027-01-15T07:59:51.062965471Z,-4.80,-0.80,0.60,-1.20,1.80,0.40,5.00,3.80,3.00,5.00,3.80,5.20,4.40,5.00,,,,,,,,,,,,,,
1799999991069735952,2027-01-15T07:59:51.069735952Z,-5.80,-3.20,-0.80,-0.80,2.40,0.40,4.00,4.40,3.00,4.20,3.00,4.80,5.20,5.60,,,,,,,,,,,,,,
1799999991076506432,2027-01-15T07:59:51.076506432Z,-8.40,-5.40,-2.20,-1.40,2.60,1.60,2.80,5.20,3.80,4.00,3.20,5.20,6.40,7.80,,,,,,,,,,,,,,
1799999991083276913,2027-01-15T07:59:51.083276913Z,-4.80,-4.80,-0.40,-0.60,1.40,2.60,2.80,4.40,3.80,4.00,2.60,5.00,5.40,8.80,,,,,,,,,,,,,,
1799999991090047394,2027-01-15T07:59:51.090047394Z,-4.00,-4.20,1.00,-0.20,0.60,2.40,4.00,3.40,3.60,4.00,4.60,4.20,4.40,7.80,,,,,,,,,,,,,,
1799999991096817875,2027-01-15T07:59:51.096817875Z,-4.00,-4.60,0.00,-1.00,1.00,1.80,5.00,3.40,4.00,4.20,7.00,4.00,5.40,7.20,,,,,,,,,,,,,,
1799999991103588355,2027-01-15T07:59:51.103588355Z,-2.80,-3.80,-0.60,-1.60,1.60,1.80,5.00,3.40,4.00,4.20,8.00,4.60,7.00,7.20,,,,,,,,,,,,,,
1799999991110358836,2027-01-15T07:59:51.110358836Z,0.60,-1.40,-0.80,-0.20,2.60,2.20,3.80,3.60,3.80,3.20,6.20,5.80,7.20,7.40,,,,,,,,,,,,,,
1799999991117129317,2027-01-15T07:59:51.117129317Z,1.00,1.00,-1.00,1.80,2.60,2.40,3.40,4.40,3.40,2.80,4.20,7.40,5.40,6.80,,,,,,,,,,,,,,
1799999991123899797,2027-01-15T07:59:51.123899797Z,0.00,1.80,-0.80,1.80,1.40,2.60,4.80,4.00,3.60,4.00,5.20,7.80,5.00,7.00,,,,,,,,,,,,,,
1799999991130670278,2027-01-15T07:59:51.130670278Z,0.00,0.80,-1.00,1.00,0.80,3.00,4.60,3.00,4.00,4.60,6.40,5.80,7.00,7.80,,,,,,,,,,,,,,
1799999991137440759,2027-01-15T07:59:51.137440759Z,0.00,1.00,-0.80,1.80,1.40,2.40,2.60,3.40,4.00,5.60,6.60,4.40,7.80,6.80,,,,,,,,,,,,,,
1799999991144211239,2027-01-15T07:59:51.144211239Z,0.20,3.20,1.40,3.20,1.20,2.00,1.40,2.60,4.40,7.00,7.40,5.20,6.40,6.20,,,,,,,,,,,,,,
1799999991150981720,2027-01-15T07:59:51.150981720Z,1.00,3.80,2.40,3.60,0.40,2.40,1.80,0.80,4.80,7.00,7.40,5.80,6.00,7.00,,,,,,,,,,,,,,
1799999991157752201,2027-01-15T07:59:51.157752201Z,-0.20,1.60,1.00,3.20,0.00,2.40,2.60,0.20,4.60,5.60,6.40,4.80,7.00,7.80,,,,,,,,,,,,,,
1799999991164522682,2027-01-15T07:59:51.164522682Z,0.40,-0.80,-1.00,3.20,0.00,2.00,3.60,1.00,3.00,4.40,5.40,3.80,8.40,7.40,,,,,,,,,,,,,,
1799999991171293162,2027-01-15T07:59:51.171293162Z,0.80,-1.80,-1.80,3.40,0.60,0.80,4.60,1.80,1.60,4.00,4.60,5.00,8.00,5.80,,,,,,,,,,,,,,
1799999991178063643,2027-01-15T07:59:51.178063643Z,-0.80,-0.20,-0.80,2.20,1.80,0.80,4.60,1.20,3.40,4.60,4.80,7.20,5.60,4.60,,,,,,,,,,,,,,
1799999991184834124,2027-01-15T07:59:51.184834124Z,-1.00,0.60,-1.00,0.60,3.00,2.40,2.80,1.40,6.00,3.60,5.40,6.60,4.80,5.00,,,,,,,,,,,,,,
1799999991191604604,2027-01-15T07:59:51.191604604Z,-0.40,-0.80,-1.40,-0.40,3.40,3.80,2.20,2.20,5.40,2.60,5.00,5.60,6.40,6.20,,,,,,,,,,,,,,
1799999991198375085,2027-01-15T07:59:51.198375085Z,-0.20,-2.00,-0.60,0.00,2.40,3.20,3.20,2.20,3.60,3.00,4.60,6.40,7.60,7.60,,,,,,,,,,,,,,
1799999991205145566,2027-01-15T07:59:51.205145566Z,0.80,-2.00,0.20,0.00,1.20,2.00,3.80,1.80,3.40,4.20,5.40,7.60,7.20,8.60,,,,,,,,,,,,,,
1799999991211916047,2027-01-15T07:59:51.211916047Z,1.20,-2.40,0.20,0.60,0.40,1.40,3.20,2.20,4.60,4.00,6.40,6.80,6.80,8.20,,,,,,,,,,,,,,
1799999991218686527,2027-01-15T07:59:51.218686527Z,-1.00,-3.60,-0.20,1.60,0.60,3.00,1.80,3.80,3.60,2.40,6.00,5.00,7.20,7.40,,,,,,,,,,,,,,
1799999991225457008,2027-01-15T07:59:51.225457008Z,0.60,-3.80,-1.00,2.60,0.80,3.80,0.60,5.00,1.00,3.20,5.40,4.60,7.80,7.40,,,,,,,,,,,,,,
1799999991232227489,2027-01-15T07:59:51.232227489Z,0.20,-2.60,-2.20,2.20,0.60,1.80,0.60,5.00,2.20,5.40,5.80,5.40,6.80,8.20,,,,,,,,,,,,,,
1799999991238997969,2027-01-15T07:59:51.238997969Z,-3.00,-1.40,-2.20,2.40,0.40,1.40,1.20,3.80,5.40,6.00,4.00,5.40,5.80,9.00,,,,,,,,,,,,,,
1799999991245768450,2027-01-15T07:59:51.245768450Z,-4.00,-0.80,-1.00,2.40,1.00,3.80,1.40,2.60,4.60,5.80,2.80,5.00,6.20,7.80,,,,,,,,,,,,,,
1799999991252538931,2027-01-15T07:59:51.252538931Z,,-1.20,-0.80,1.80,2.40,6.00,1.80,3.40,2.40,5.80,4.00,5.20,7.20,6.00,,,,,,,,,,,,,,
1799999991259309411,2027-01-15T07:59:51.259309411Z,-3.60,-1.60,-1.60,1.80,3.60,6.80,2.20,4.60,2.40,4.80,6.00,5.60,7.80,5.40,,,,,,,,,,,,,,
1799999991266079892,2027-01-15T07:59:51.266079892Z,-0.40,-2.00,-2.20,2.00,3.80,5.00,3.00,4.60,4.20,3.60,6.80,6.20,7.60,6.20,,,,,,,,,,,,,,
1799999991272850373,2027-01-15T07:59:51.272850373Z,0.20,-2.20,-1.00,0.80,1.80,2.60,2.80,3.00,6.00,3.40,4.80,6.00,6.60,6.80,,,,,,,,,,,,,,
1799999991279620854,2027-01-15T07:59:51.279620854Z,-1.80,-1.60,-0.40,-0.80,1.20,2.80,2.20,1.60,5.20,4.60,3.40,5.40,6.80,6.00,,,,,,,,,,,,,,
1799999991286391334,2027-01-15T07:59:51.286391334Z,0.40,-1.80,-1.80,-0.40,2.80,4.60,3.00,2.00,5.60,5.00,4.80,5.80,6.20,6.40,,,,,,,,,,,,,,
1799999991293161815,2027-01-15T07:59:51.293161815Z,0.60,-2.60,-2.20,0.80,3.80,4.40,3.20,3.00,7.20,4.60,5.20,5.00,3.80,6.40,,,,,,,,,,,,,,
1799999991299932296,2027-01-15T07:59:51.299932296Z,-1.40,-2.00,-1.40,1.40,3.20,2.80,2.00,2.60,6.00,4.40,4.60,4.20,1.80,6.00,,,,,,,,,,,,,,
1799999991306702776,2027-01-15T07:59:51.306702776Z,-3.00,-0.80,-1.20,1.40,2.80,1.40,0.60,1.40,3.60,4.40,4.40,5.00,2.40,6.60,,,,,,,,,,,,,,
1799999991313473257,2027-01-15T07:59:51.313473257Z,-4.80,-1.00,-1.60,1.20,2.60,0.80,1.00,1.60,2.00,4.80,4.80,7.60,4.20,7.40,,,,,,,,,,,,,,
1799999991320243738,2027-01-15T07:59:51.320243738Z,-3.00,-3.20,-1.00,0.20,3.00,1.20,2.40,3.00,3.40,3.80,4.60,9.00,5.40,8.00,,,,,,,,,,,,,,
1799999991327014219,2027-01-15T07:59:51.327014219Z,-1.60,-2.40,0.80,-1.60,2.60,1.00,2.00,3.80,4.60,2.40,4.40,6.40,5.40,8.00,,,,,,,,,,,,,,
1799999991333784699,2027-01-15T07:59:51.333784699Z,-1.60,0.20,1.00,-3.20,0.40,0.80,2.20,3.20,3.80,3.60,6.00,4.60,6.20,6.40,,,,,,,,,,,,,,
1799999991340555180,2027-01-15T07:59:51.340555180Z,-0.20,0.20,-0.60,-1.20,-1.00,1.20,4.20,2.60,5.00,5.00,6.20,5.40,6.40,3.40,,,,,,,,,,,,,,
1799999991347325661,2027-01-15T07:59:51.347325661Z,0.00,-0.60,-1.80,1.80,1.00,1.80,4.60,2.60,7.40,3.60,4.80,4.60,5.40,3.20,,,,,,,,,,,,,,
1799999991354096141,2027-01-15T07:59:51.354096141Z,1.40,0.00,-1.40,2.00,3.60,2.20,3.20,2.80,7.60,1.60,4.40,3.60,5.20,6.20,,,,,,,,,,,,,,
1799999991360866622,2027-01-15T07:59:51.360866622Z,1.60,0.80,-0.60,0.40,5.00,2.20,2.20,3.20,5.80,1.40,5.60,4.60,5.20,9.00,,,,,,,,,,,,,,
1799999991367637103,2027-01-15T07:59:51.367637103Z,0.80,0.80,-0.60,0.00,2.80,1.80,2.40,3.40,3.60,2.80,5.80,6.40,5.40,8.80,,,,,,,,,,,,,,
1799999991374407583,2027-01-15T07:59:51.374407583Z,0.40,-0.20,-1.20,0.80,-1.20,0.80,1.60,2.00,3.20,4.20,4.60,6.00,7.00,6.00,,,,,,,,,,,,,,
1799999991381178064,2027-01-15T07:59:51.381178064Z,0.80,0.00,0.00,0.40,-0.60,0.80,-0.60,1.20,5.00,4.20,4.00,4.00,8.80,5.40,,,,,,,,,,,,,,
1799999991387948545,2027-01-15T07:59:51.387948545Z,3.00,0.60,2.00,-0.60,3.00,1.80,-0.60,2.80,4.80,4.60,5.00,3.80,8.20,6.60,,,,,,,,,,,,,,
1799999991394719026,2027-01-15T07:59:51.394719026Z,-0.60,0.40,2.40,-0.80,3.60,2.40,1.80,3.80,2.80,5.40,4.80,4.80,7.40,5.80,,,,,,,,,,,,,,
1799999991401489506,2027-01-15T07:59:51.401489506Z,-0.80,0.60,1.80,-0.20,2.20,2.80,3.20,2.60,1.80,5.00,4.40,5.40,8.00,5.40,,,,,,,,,,,,,,
1799999991408259987,2027-01-15T07:59:51.408259987Z,-1.40,0.40,1.80,0.20,2.00,3.20,2.80,1.40,2.80,3.80,5.00,5.80,8.80,5.80,,,,,,,,,,,,,,
1799999991415030468,2027-01-15T07:59:51.415030468Z,-1.60,-1.40,1.20,0.00,2.20,2.60,2.80,2.20,4.60,3.20,6.20,6.40,8.00,6.40,,,,,,,,,,,,,,
1799999991421800948,2027-01-15T07:59:51.421800948Z,-4.00,-2.00,0.40,-0.60,2.80,2.20,3.00,3.40,5.60,4.40,6.20,7.00,6.00,6.40,,,,,,,,,,,,,,
1799999991428571429,2027-01-15T07:59:51.428571429Z,-1.20,-0.40,0.80,0.00,3.40,2.60,2.00,2.60,4.00,5.20,4.60,6.80,5.20,6.40,,,,,,,,,,,,,,
1799999991435341910,2027-01-15T07:59:51.435341910Z,,-0.40,1.60,0.60,2.00,0.80,1.40,3.60,2.60,3.40,4.80,6.60,6.00,7.20,,,,,,,,,,,,,,
1799999991442112390,2027-01-15T07:59:51.442112390Z,0.60,-0.80,1.40,-0.20,-0.20,-1.40,2.20,5.00,2.60,2.20,6.60,6.40,6.00,8.40,,,,,,,,,,,,,,
1799999991448882871,2027-01-15T07:59:51.448882871Z,0.40,0.20,0.60,-0.80,0.20,-0.40,2.40,3.40,3.40,3.60,5.40,6.00,5.00,9.00,,,,,,,,,,,,,,
1799999991455653352,2027-01-15T07:59:51.455653352Z,0.00,1.00,0.80,-0.40,1.60,1.40,2.00,1.60,4.40,5.40,2.80,6.00,4.20,8.60,,,,,,,,,,,,,,
1799999991462423833,2027-01-15T07:59:51.462423833Z,-1.00,1.00,2.00,0.00,1.40,2.00,1.60,1.40,5.40,6.00,1.60,6.20,4.20,8.20,,,,,,,,,,,,,,
1799999991469194313,2027-01-15T07:59:51.469194313Z,-2.20,0.60,2.00,-0.60,0.20,1.60,1.40,2.80,4.80,5.20,2.60,6.60,5.60,7.40,,,,,,,,,,,,,,
1799999991475964794,2027-01-15T07:59:51.475964794Z,-2.40,0.60,-0.60,-1.60,0.40,1.80,1.40,3.60,3.20,4.40,4.60,6.80,7.40,6.60,,,,,,,,,,,,,,
1799999991482735275,2027-01-15T07:59:51.482735275Z,-1.60,1.00,-3.20,-1.20,1.60,2.60,1.00,2.40,2.80,4.20,4.60,6.00,7.20,5.40,,,,,,,,,,,,,,
1799999991489505755,2027-01-15T07:59:51.489505755Z,0.20,-0.40,-2.00,-0.80,0.80,1.60,1.20,2.80,4.20,3.80,4.20,5.40,5.80,5.80,,,,,,,,,,,,,,
1799999991496276236,2027-01-15T07:59:51.496276236Z,0.60,-1.40,0.00,-0.80,0.40,0.40,2.00,4.20,4.00,4.20,4.80,6.00,4.60,7.20,,,,,,,,,,,,,,
1799999991503046717,2027-01-15T07:59:51.503046717Z,0.20,-0.60,0.20,0.40,1.80,0.40,2.00,4.00,2.80,4.20,5.00,6.60,4.80,7.80,,,,,,,,,,,,,,
1799999991509817198,2027-01-15T07:59:51.509817198Z,-0.80,-0.60,-0.20,2.00,3.00,1.60,2.00,2.80,2.20,3.80,4.20,6.60,5.20,7.00,,,,,,,,,,,,,,
1799999991516587678,2027-01-15T07:59:51.516587678Z,-1.00,-2.40,0.00,2.00,1.60,2.40,1.60,2.60,2.00,3.40,3.20,5.40,4.20,6.20,,,,,,,,,,,,,,
1799999991523358159,2027-01-15T07:59:51.523358159Z,-1.20,-3.20,0.20,0.80,-1.00,1.60,1.40,3.60,2.40,5.00,4.00,3.80,3.60,6.40,,,,,,,,,,,,,,
1799999991530128640,2027-01-15T07:59:51.530128640Z,-0.20,-1.00,-1.60,2.20,-1.00,0.20,1.80,3.60,3.20,7.00,5.60,4.00,5.40,6.80,,,,,,,,,,,,,,
1799999991536899120,2027-01-15T07:59:51.536899120Z,-0.60,0.00,-2.40,3.40,0.40,0.60,2.40,2.60,3.80,6.60,5.40,5.80,6.20,6.60,,,,,,,,,,,,,,
1799999991543669601,2027-01-15T07:59:51.543669601Z,1.20,-0.40,-0.20,1.60,-0.20,1.00,3.20,1.60,3.00,5.40,4.60,7.60,4.80,7.60,,,,,,,,,,,,,,
1799999991550440082,2027-01-15T07:59:51.550440082Z,0.00,-1.00,0.80,-0.20,-0.20,0.20,3.60,1.00,2.60,5.40,5.00,7.20,6.00,7.60,,,,,,,,,,,,,,
1799999991557210562,2027-01-15T07:59:51.557210562Z,-0.20,-1.60,-0.20,0.00,1.20,-0.20,3.40,1.00,3.40,5.20,5.60,6.20,8.20,6.40,,,,,,,,,,,,,,
1799999991563981043,2027-01-15T07:59:51.563981043Z,-1.20,-1.00,-0.40,0.40,2.60,-0.20,3.40,1.00,3.80,4.40,5.20,6.00,9.20,5.40,,,,,,,,,,,,,,
1799999991570751524,2027-01-15T07:59:51.570751524Z,0.60,-0.20,-0.20,0.20,2.60,-1.40,4.40,1.80,3.60,4.20,4.40,6.00,8.20,6.00,,,,,,,,,,,,,,
1799999991577522005,2027-01-15T07:59:51.577522005Z,1.00,0.00,0.20,0.40,0.80,-3.40,5.00,3.00,2.80,5.40,4.00,5.60,6.20,6.00,,,,,,,,,,,,,,
1799999991584292485,2027-01-15T07:59:51.584292485Z,0.40,-0.20,0.20,0.60,-0.60,-3.60,4.00,3.60,3.20,6.00,4.00,4.40,6.00,4.60,,,,,,,,,,,,,,
1799999991591062966,2027-01-15T07:59:51.591062966Z,-0.20,0.20,-0.60,-0.40,-0.40,-1.20,4.20,4.00,4.40,5.40,3.80,4.40,6.20,5.60,,,,,,,,,,,,,,
1799999991597833447,2027-01-15T07:59:51.597833447Z,-2.20,-0.40,-1.40,-0.20,0.20,0.80,4.80,4.40,5.00,6.80,5.00,5.40,5.40,6.80,,,,,,,,,,,,,,
1799999991604603927,2027-01-15T07:59:51.604603927Z,,-1.60,-0.40,0.00,0.20,0.60,3.80,3.60,4.60,8.00,6.20,5.80,5.40,6.00,,,,,,,,,,,,,,
1799999991611374408,2027-01-15T07:59:51.611374408Z,-2.80,-2.20,0.80,-0.80,0.20,-0.20,2.60,2.80,4.20,7.00,6.20,6.20,5.80,5.20,,,,,,,,,,,,,,
1799999991618144889,2027-01-15T07:59:51.618144889Z,-2.80,-1.80,1.60,-1.40,1.20,-0.20,3.20,3.00,3.40,4.80,4.40,6.80,5.80,6.40,,,,,,,,,,,,,,
1799999991624915369,2027-01-15T07:59:51.624915369Z,-0.60,-1.00,0.00,-0.40,2.20,0.80,5.40,3.80,4.00,3.20,3.40,7.40,5.00,8.40,,,,,,,,,,,,,,
1799999991631685850,2027-01-15T07:59:51.631685850Z,0.00,-1.00,-1.00,0.80,1.40,1.40,4.60,3.40,5.00,4.20,5.00,7.40,4.40,7.20,,,,,,,,,,,,,,
1799999991638456331,2027-01-15T07:59:51.638456331Z,-1.00,-0.40,1.00,2.00,-0.40,0.80,1.60,2.20,4.40,4.60,5.80,7.60,5.80,6.20,,,,,,,,,,,,,,
1799999991645226812,2027-01-15T07:59:51.645226812Z,0.80,0.00,1.80,2.60,-0.20,0.20,2.60,2.20,4.00,4.00,5.00,7.00,7.60,8.40,,,,,,,,,,,,,,
1799999991651997292,2027-01-15T07:59:51.651997292Z,-0.20,-1.20,0.80,1.20,2.80,2.00,5.00,3.60,4.80,3.00,5.80,5.40,7.40,8.40,,,,,,,,,,,,,,
1799999991658767773,2027-01-15T07:59:51.658767773Z,-0.40,-1.00,0.80,0.00,5.00,3.80,4.00,4.20,5.20,3.20,6.80,4.20,6.60,6.20,,,,,,,,,,,,,,
1799999991665538254,2027-01-15T07:59:51.665538254Z,-0.40,0.60,1.60,0.40,4.20,4.00,1.60,3.60,5.20,4.20,6.20,4.20,6.40,4.40,,,,,,,,,,,,,,
1799999991672308734,2027-01-15T07:59:51.672308734Z,-0.20,0.40,1.20,1.20,1.80,3.20,1.60,2.60,4.80,5.60,5.20,4.80,6.20,4.40,,,,,,,,,,,,,,
1799999991679079215,2027-01-15T07:59:51.679079215Z,,-1.60,-0.40,1.20,-0.60,2.40,3.20,2.40,4.80,5.40,5.00,5.00,6.40,5.60,,,,,,,,,,,,,,
1799999991685849696,2027-01-15T07:59:51.685849696Z,-0.80,-2.00,-1.00,1.40,0.20,2.60,2.60,3.80,3.80,4.80,6.00,4.40,6.20,5.80,,,,,,,,,,,,,,
1799999991692620177,2027-01-15T07:59:51.692620177Z,-1.20,-1.60,0.40,2.20,1.20,2.00,1.80,5.40,2.40,5.80,4.80,4.20,5.60,5.00,,,,,,,,,,,,,,
1799999991699390657,2027-01-15T07:59:51.699390657Z,-3.20,-1.40,1.80,1.40,-0.20,1.80,3.80,6.60,2.20,5.40,3.00,4.40,6.00,6.00,,,,,,,,,,,,,,
1799999991706161138,2027-01-15T07:59:51.706161138Z,-1.00,-0.20,2.00,0.20,-1.00,2.60,5.40,7.00,3.60,4.20,3.00,5.00,6.40,7.00,,,,,,,,,,,,,,
1799999991712931619,2027-01-15T07:59:51.712931619Z,-0.60,1.00,0.60,0.20,0.00,3.00,5.00,6.80,5.00,4.00,3.80,5.40,6.40,7.60,,,,,,,,,,,,,,
1799999991719702099,2027-01-15T07:59:51.719702099Z,0.20,0.20,-1.00,1.40,1.00,2.20,3.80,4.80,6.40,5.00,3.80,5.00,6.20,7.40,,,,,,,,,,,,,,
1799999991726472580,2027-01-15T07:59:51.726472580Z,0.00,-1.20,-1.20,2.20,0.00,0.60,2.60,1.80,6.20,5.20,3.40,3.20,6.20,6.80,,,,,,,,,,,,,,
1799999991733243061,2027-01-15T07:59:51.733243061Z,-1.80,0.20,0.00,1.20,-2.20,1.20,3.20,1.80,4.60,3.20,4.20,3.00,5.80,7.00,,,,,,,,,,,,,,
1799999991740013541,2027-01-15T07:59:51.740013541Z,0.40,1.80,-0.60,1.80,-1.00,2.80,2.60,4.80,4.00,2.40,6.20,5.60,5.40,7.20,,,,,,,,,,,,,,
1799999991746784022,2027-01-15T07:59:51.746784022Z,-0.60,0.60,-1.80,2.20,1.60,2.80,1.00,5.80,5.40,4.00,7.00,7.40,5.80,6.40,,,,,,,,,,,,,,
1799999991753554503,2027-01-15T07:59:51.753554503Z,-0.80,-0.80,-1.00,-1.20,1.60,1.60,1.20,3.60,5.40,4.80,4.80,5.80,6.40,6.40,,,,,,,,,,,,,,
1799999991760324984,2027-01-15T07:59:51.760324984Z,-2.00,-0.20,-0.20,-3.60,0.00,1.20,2.60,1.60,3.80,3.80,3.00,5.00,6.40,7.40,,,,,,,,,,,,,,
1799999991767095464,2027-01-15T07:59:51.767095464Z,-1.20,1.00,-0.80,-2.00,-0.60,2.40,3.20,1.00,2.00,3.40,3.40,6.40,6.00,8.60,,,,,,,,,,,,,,
1799999991773865945,2027-01-15T07:59:51.773865945Z,,0.80,-2.60,1.20,0.60,2.60,2.60,1.80,2.20,4.00,4.60,8.00,7.20,8.80,,,,,,,,,,,,,,
1799999991780636426,2027-01-15T07:59:51.780636426Z,-1.00,-0.60,-3.00,3.20,3.20,1.00,3.40,2.80,3.20,5.00,4.80,8.20,9.00,7.40,,,,,,,,,,,,,,
1799999991787406906,2027-01-15T07:59:51.787406906Z,-0.80,-1.20,-1.60,1.20,3.80,0.40,5.20,2.20,2.20,4.60,3.60,6.80,8.60,6.00,,,,,,,,,,,,,,
1799999991794177387,2027-01-15T07:59:51.794177387Z,-1.80,-0.20,-0.60,-0.20,1.40,1.60,3.20,2.20,1.80,4.00,4.60,6.00,5.80,6.00,,,,,,,,,,,,,,
1799999991800947868,2027-01-15T07:59:51.800947868Z,0.00,-0.80,0.40,1.20,0.20,1.40,-1.00,3.80,3.00,3.80,5.00,6.60,4.20,7.00,,,,,,,,,,,,,,
1799999991807718349,2027-01-15T07:59:51.807718349Z,0.20,-2.40,-0.60,2.60,1.60,0.20,0.40,4.40,4.00,4.00,3.60,6.00,5.60,6.60,,,,,,,,,,,,,,
1799999991814488829,2027-01-15T07:59:51.814488829Z,,-1.60,-2.60,1.60,2.20,0.40,4.00,3.40,4.00,4.40,3.80,4.60,6.60,6.20,,,,,,,,,,,,,,
1799999991821259310,2027-01-15T07:59:51.821259310Z,-0.60,1.20,-3.60,0.40,1.20,0.40,5.60,2.20,3.60,4.80,5.80,3.60,6.20,6.80,,,,,,,,,,,,,,
1799999991828029791,2027-01-15T07:59:51.828029791Z,-0.20,2.80,-3.00,0.60,0.00,0.00,4.80,2.40,2.80,5.40,6.80,3.40,5.40,7.80,,,,,,,,,,,,,,
1799999991834800271,2027-01-15T07:59:51.834800271Z,0.80,0.80,-1.40,2.60,-0.20,0.60,2.60,3.60,3.00,5.80,5.40,4.60,4.80,8.00,,,,,,,,,,,,,,
1799999991841570752,2027-01-15T07:59:51.841570752Z,0.40,-1.80,-1.00,3.60,1.00,2.00,2.00,3.60,4.40,4.60,5.00,6.20,4.60,6.80,,,,,,,,,,,,,,
1799999991848341233,2027-01-15T07:59:51.848341233Z,-1.20,-1.20,-1.40,2.80,1.20,1.60,3.00,3.20,5.00,3.00,6.60,7.40,5.20,6.20,,,,,,,,,,,,,,
1799999991855111713,2027-01-15T07:59:51.855111713Z,-0.20,-1.00,-0.60,2.60,0.80,1.40,3.60,4.20,4.20,3.40,7.20,7.00,5.80,7.20,,,,,,,,,,,,,,
1799999991861882194,2027-01-15T07:59:51.861882194Z,0.00,-1.20,0.20,2.80,1.40,2.40,3.00,4.20,4.20,4.20,6.20,6.80,6.00,8.20,,,,,,,,,,,,,,
1799999991868652675,2027-01-15T07:59:51.868652675Z,-0.80,-0.80,0.40,2.20,1.80,3.40,2.20,3.00,5.00,3.40,5.80,7.20,6.00,8.80,,,,,,,,,,,,,,
1799999991875423156,2027-01-15T07:59:51.875423156Z,-1.40,-0.20,0.00,1.00,1.80,3.20,1.20,3.60,4.60,3.60,5.80,8.00,6.60,8.60,,,,,,,,,,,,,,
1799999991882193636,2027-01-15T07:59:51.882193636Z,-4.80,0.20,-0.20,0.60,2.20,2.60,0.60,5.80,2.80,5.80,6.60,7.60,8.00,8.80,,,,,,,,,,,,,,
1799999991888964117,2027-01-15T07:59:51.888964117Z,-0.40,-1.00,0.60,1.80,3.40,2.60,1.00,5.60,2.20,6.20,7.00,6.00,10.00,10.00,,,,,,,,,,,,,,
1799999991895734598,2027-01-15T07:59:51.895734598Z,0.40,-1.60,0.40,2.20,2.20,2.60,1.80,3.20,3.60,3.20,6.20,4.60,10.00,9.00,,,,,,,,,,,,,,
1799999991902505078,2027-01-15T07:59:51.902505078Z,-0.60,-0.20,-0.20,1.20,-0.60,2.80,1.40,2.60,4.20,2.80,4.80,4.60,7.40,6.40,,,,,,,,,,,,,,
1799999991909275559,2027-01-15T07:59:51.909275559Z,-2.20,-0.40,0.40,0.20,0.00,2.00,1.20,3.40,3.60,5.00,4.40,5.60,5.80,4.60,,,,,,,,,,,,,,
1799999991916046040,2027-01-15T07:59:51.916046040Z,-2.80,-2.20,1.40,0.00,2.20,0.60,2.20,3.00,3.00,5.80,5.60,6.60,6.80,4.80,,,,,,,,,,,,,,
1799999991922816520,2027-01-15T07:59:51.922816520Z,-2.00,-3.20,2.60,0.00,3.80,-0.80,3.00,2.20,3.00,5.00,6.80,6.60,7.60,5.20,,,,,,,,,,,,,,
1799999991929587001,2027-01-15T07:59:51.929587001Z,-1.80,-2.20,3.20,-0.20,3.60,0.20,2.40,3.00,4.40,4.80,6.60,6.80,7.00,4.80,,,,,,,,,,,,,,
1799999991936357482,2027-01-15T07:59:51.936357482Z,-2.20,0.60,1.60,-0.60,2.20,2.80,1.40,4.40,6.00,5.00,5.40,7.60,5.60,4.00,,,,,,,,,,,,,,
1799999991943127963,2027-01-15T07:59:51.943127963Z,-1.20,1.60,-0.40,0.20,1.00,3.20,2.20,3.40,6.00,4.60,5.20,7.00,5.40,5.00,,,,,,,,,,,,,,
1799999991949898443,2027-01-15T07:59:51.949898443Z,-1.00,-0.80,-0.80,0.40,1.00,1.60,3.60,2.20,4.80,5.00,6.00,5.20,7.00,7.20,,,,,,,,,,,,,,
1799999991956668924,2027-01-15T07:59:51.956668924Z,-0.60,-2.60,0.40,-0.20,0.80,2.20,3.20,4.40,4.20,5.80,5.80,4.80,8.00,7.80,,,,,,,,,,,,,,
1799999991963439405,2027-01-15T07:59:51.963439405Z,-2.60,-2.20,0.80,0.20,0.20,3.40,2.40,6.00,4.40,5.20,5.40,5.60,7.20,7.00,,,,,,,,,,,,,,
1799999991970209885,2027-01-15T07:59:51.970209885Z,-4.20,-1.40,0.60,0.60,0.00,3.60,2.60,5.20,4.40,4.00,5.40,5.40,5.40,6.80,,,,,,,,,,,,,,
1799999991976980366,2027-01-15T07:59:51.976980366Z,-5.40,-1.80,-0.40,0.60,1.00,2.40,4.20,3.20,4.40,4.00,4.40,5.00,4.00,7.20,,,,,,,,,,,,,,
1799999991983750847,2027-01-15T07:59:51.983750847Z,-3.60,-2.60,-1.40,0.20,2.20,0.60,5.40,2.20,3.80,5.80,3.40,5.80,4.60,7.40,,,,,,,,,,,,,,
1799999991990521328,2027-01-15T07:59:51.990521328Z,-3.40,-2.20,-1.20,0.60,1.60,0.60,4.60,3.20,3.40,6.80,3.60,6.20,6.40,6.60,,,,,,,,,,,,,,
1799999991997291808,2027-01-15T07:59:51.997291808Z,-2.00,-1.80,-0.20,1.00,0.40,1.80,3.80,3.20,3.20,5.80,4.20,4.60,6.80,5.60,,,,,,,,,,,,,,
1799999992004062289,2027-01-15T07:59:52.004062289Z,-1.20,-1.60,-0.40,0.20,-0.60,2.00,3.60,2.60,3.60,4.20,4.20,5.20,6.20,6.60,,,,,,,,,,,,,,
1799999992010832770,2027-01-15T07:59:52.010832770Z,-1.20,-1.80,-0.80,-0.80,-1.00,0.80,4.40,4.40,4.60,2.60,4.40,7.80,5.80,7.60,,,,,,,,,,,,,,
1799999992017603250,2027-01-15T07:59:52.017603250Z,-0.60,-1.80,0.00,-1.00,0.00,0.60,4.20,6.00,5.60,2.40,4.80,8.80,4.80,6.80,,,,,,,,,,,,,,
1799999992024373731,2027-01-15T07:59:52.024373731Z,-0.20,-1.00,0.80,0.00,1.60,1.40,2.80,5.40,6.20,3.40,4.80,8.00,4.00,6.00,,,,,,,,,,,,,,
1799999992031144212,2027-01-15T07:59:52.031144212Z,0.60,-0.40,0.20,1.00,2.40,2.40,1.00,3.60,5.60,5.20,5.00,6.60,5.40,6.60,,,,,,,,,,,,,,
1799999992037914692,2027-01-15T07:59:52.037914692Z,0.20,-1.00,-1.40,1.40,1.20,2.20,0.40,1.60,4.00,5.40,5.20,5.00,8.80,8.20,,,,,,,,,,,,,,
1799999992044685173,2027-01-15T07:59:52.044685173Z,-2.40,-1.40,-0.60,0.40,0.00,1.40,2.40,2.20,2.60,4.20,5.80,4.20,9.40,8.00,,,,,,,,,,,,,,
1799999992051455654,2027-01-15T07:59:52.051455654Z,-1.00,-0.40,1.80,-0.20,1.20,1.80,3.20,3.40,3.00,4.60,6.20,5.20,7.00,5.60,,,,,,,,,,,,,,
1799999992058226135,2027-01-15T07:59:52.058226135Z,-0.80,-0.20,2.20,1.60,1.60,1.20,1.80,3.00,4.00,5.20,5.60,6.40,7.60,4.60,,,,,,,,,,,,,,
1799999992064996615,2027-01-15T07:59:52.064996615Z,-1.60,-1.20,1.00,3.20,1.20,0.60,1.20,2.20,4.40,5.20,4.60,6.80,8.80,5.60,,,,,,,,,,,,,,
1799999992071767096,2027-01-15T07:59:52.071767096Z,,-2.00,-0.40,3.00,1.20,1.20,2.00,1.60,4.00,5.20,4.20,6.40,7.60,6.60,,,,,,,,,,,,,,
1799999992078537577,2027-01-15T07:59:52.078537577Z,-1.00,-1.20,-1.40,1.20,1.60,2.40,2.60,1.80,3.60,5.60,3.80,6.20,5.40,6.60,,,,,,,,,,,,,,
1799999992085308057,2027-01-15T07:59:52.085308057Z,-0.60,1.00,-1.60,-0.80,1.20,2.20,1.60,2.20,4.00,4.40,4.20,6.80,4.60,5.60,,,,,,,,,,,,,,
1799999992092078538,2027-01-15T07:59:52.092078538Z,-0.40,1.40,-0.80,-1.00,0.80,1.60,0.80,1.80,4.40,3.60,4.00,7.00,5.40,5.60,,,,,,,,,,,,,,
1799999992098849019,2027-01-15T07:59:52.098849019Z,-0.20,0.00,0.20,-0.40,1.40,3.40,2.40,1.00,4.20,5.40,3.40,6.00,4.00,6.40,,,,,,,,,,,,,,
1799999992105619499,2027-01-15T07:59:52.105619499Z,-0.20,0.60,0.20,0.00,1.80,4.00,3.20,1.60,4.80,5.60,4.20,5.00,4.80,6.20,,,,,,,,,,,,,,
1799999992112389980,2027-01-15T07:59:52.112389980Z,-0.60,2.00,0.40,0.80,1.60,2.80,2.60,2.80,5.60,4.00,4.00,5.80,7.80,6.00,,,,,,,,,,,,,,
1799999992119160461,2027-01-15T07:59:52.119160461Z,,2.20,1.60,1.20,1.00,2.20,3.00,3.40,5.60,3.00,2.40,6.60,9.00,6.40,,,,,,,,,,,,,,
1799999992125930942,2027-01-15T07:59:52.125930942Z,-2.40,0.80,2.40,0.60,0.60,2.60,4.20,2.80,5.40,3.00,1.20,6.80,7.80,6.40,,,,,,,,,,,,,,
1799999992132701422,2027-01-15T07:59:52.132701422Z,-2.40,-1.00,1.80,-0.40,0.40,2.20,3.60,1.60,4.80,3.60,3.40,6.60,5.80,6.40,,,,,,,,,,,,,,
1799999992139471903,2027-01-15T07:59:52.139471903Z,-2.00,-1.00,0.40,-0.20,0.80,1.00,1.20,1.00,3.60,5.60,7.00,6.00,4.00,6.60,,,,,,,,,,,,,,
1799999992146242384,2027-01-15T07:59:52.146242384Z,-1.40,0.40,-0.60,1.40,0.20,2.20,0.80,2.20,3.20,6.60,6.20,5.40,4.60,7.20,,,,,,,,,,,,,,
1799999992153012864,2027-01-15T07:59:52.153012864Z,-1.20,-0.60,-0.60,1.40,0.40,4.00,2.60,2.40,4.80,4.00,4.40,4.60,6.40,7.80,,,,,,,,,,,,,,
1799999992159783345,2027-01-15T07:59:52.159783345Z,-0.20,-1.60,-1.20,0.20,2.00,3.40,2.20,0.60,4.80,1.20,5.40,4.00,7.40,8.60,,,,,,,,,,,,,,
1799999992166553826,2027-01-15T07:59:52.166553826Z,0.60,-0.60,-1.80,0.80,2.80,2.20,0.20,-0.40,3.20,0.80,6.20,4.20,6.80,8.60,,,,,,,,,,,,,,
1799999992173324307,2027-01-15T07:59:52.173324307Z,1.20,0.20,-2.00,2.40,1.60,2.00,-0.80,0.40,1.80,2.20,5.80,4.60,6.40,8.20,,,,,,,,,,,,,,
1799999992180094787,2027-01-15T07:59:52.180094787Z,1.20,0.00,-1.20,3.20,0.60,2.20,-0.20,2.00,2.20,3.80,5.20,5.40,7.20,7.20,,,,,,,,,,,,,,
1799999992186865268,2027-01-15T07:59:52.186865268Z,-1.80,-0.60,0.00,1.20,0.40,2.40,1.20,3.00,4.20,4.60,5.00,5.40,7.20,7.00,,,,,,,,,,,,,,
1799999992193635749,2027-01-15T07:59:52.193635749Z,-0.60,0.60,1.00,-0.40,0.20,2.80,2.20,2.00,5.60,4.20,3.80,5.40,5.60,7.00,,,,,,,,,,,,,,
1799999992200406229,2027-01-15T07:59:52.200406229Z,-0.20,1.80,1.40,1.60,0.20,3.60,2.60,0.80,4.80,4.20,2.80,6.20,4.80,5.80,,,,,,,,,,,,,,
1799999992207176710,2027-01-15T07:59:52.207176710Z,0.40,0.00,1.40,3.00,0.40,3.60,2.00,1.60,3.60,5.20,4.20,7.00,5.60,5.60,,,,,,,,,,,,,,
1799999992213947191,2027-01-15T07:59:52.213947191Z,0.00,-3.20,0.60,0.80,0.20,3.00,0.20,3.80,3.00,5.60,6.00,7.40,5.60,7.20,,,,,,,,,,,,,,
1799999992220717671,2027-01-15T07:59:52.220717671Z,0.20,-3.60,-0.20,-1.20,0.20,2.20,-1.60,4.40,3.20,4.40,6.40,7.20,5.60,7.80,,,,,,,,,,,,,,
1799999992227488152,2027-01-15T07:59:52.227488152Z,0.60,-1.20,-0.40,-2.00,0.20,1.80,-2.40,3.20,3.20,3.60,5.00,6.60,6.00,6.60,,,,,,,,,,,,,,
1799999992234258633,2027-01-15T07:59:52.234258633Z,1.80,0.60,-0.20,-0.20,0.40,1.40,-1.40,2.80,3.60,3.40,3.40,5.20,6.40,5.80,,,,,,,,,,,,,,
1799999992241029114,2027-01-15T07:59:52.241029114Z,-0.80,-0.20,0.60,2.20,1.20,1.80,0.60,3.40,4.80,4.20,3.60,3.60,7.00,6.60,,,,,,,,,,,,,,
1799999992247799594,2027-01-15T07:59:52.247799594Z,0.80,-1.20,0.40,2.20,2.20,3.00,1.80,3.60,5.20,2.60,5.60,4.00,8.00,7.00,,,,,,,,,,,,,,
1799999992254570075,2027-01-15T07:59:52.254570075Z,1.20,-0.60,-1.40,1.00,3.20,3.60,2.20,3.00,4.00,0.20,5.20,5.00,8.20,5.80,,,,,,,,,,,,,,
1799999992261340556,2027-01-15T07:59:52.261340556Z,3.00,-0.40,-3.00,1.60,3.20,1.80,2.40,2.40,3.60,1.60,2.60,4.60,6.80,6.00,,,,,,,,,,,,,,
1799999992268111036,2027-01-15T07:59:52.268111036Z,2.20,-0.80,-2.40,1.40,2.00,0.40,2.60,2.40,4.60,4.20,2.60,4.20,5.40,7.40,,,,,,,,,,,,,,
1799999992274881517,2027-01-15T07:59:52.274881517Z,-0.20,-1.20,-1.60,0.20,1.20,1.00,3.00,2.40,5.80,5.80,4.80,4.00,5.40,8.80,,,,,,,,,,,,,,
1799999992281651998,2027-01-15T07:59:52.281651998Z,-0.60,-0.40,-0.80,-0.40,1.00,2.00,3.80,2.40,6.60,6.60,7.60,4.20,6.40,10.00,,,,,,,,,,,,,,
1799999992288422478,2027-01-15T07:59:52.288422478Z,-0.80,0.80,-0.40,0.20,2.00,2.40,3.00,1.80,6.40,7.00,7.20,4.80,6.80,9.40,,,,,,,,,,,,,,
1799999992295192959,2027-01-15T07:59:52.295192959Z,-0.60,-0.60,0.00,-0.80,2.40,2.00,1.40,2.20,6.80,6.00,5.00,4.40,5.20,7.20,,,,,,,,,,,,,,
1799999992301963440,2027-01-15T07:59:52.301963440Z,-2.60,-3.00,-0.20,-0.20,1.20,2.40,0.20,2.60,6.80,4.40,4.60,4.00,4.40,6.00,,,,,,,,,,,,,,
1799999992308733921,2027-01-15T07:59:52.308733921Z,-2.60,-3.40,0.20,2.80,0.80,1.00,-0.20,2.00,5.40,3.60,4.60,4.20,6.00,7.20,,,,,,,,,,,,,,
1799999992315504401,2027-01-15T07:59:52.315504401Z,-0.40,-1.20,1.40,3.80,2.00,0.00,0.60,3.20,3.00,4.40,4.20,4.00,7.00,7.20,,,,,,,,,,,,,,
1799999992322274882,2027-01-15T07:59:52.322274882Z,-0.20,1.00,1.00,2.20,2.80,1.00,2.40,5.20,1.20,5.00,5.20,4.00,6.40,6.00,,,,,,,,,,,,,,
1799999992329045363,2027-01-15T07:59:52.329045363Z,-0.60,2.00,-1.00,1.00,2.20,3.00,4.20,5.80,1.40,5.20,6.20,4.00,6.00,5.40,,,,,,,,,,,,,,
1799999992335815843,2027-01-15T07:59:52.335815843Z,-1.20,1.00,-2.60,-0.40,0.80,3.40,4.40,4.60,3.20,5.20,5.20,4.40,7.00,5.80,,,,,,,,,,,,,,
1799999992342586324,2027-01-15T07:59:52.342586324Z,-2.40,-1.00,-1.40,-1.40,0.60,1.20,1.60,2.80,4.20,4.60,3.00,5.20,7.40,6.60,,,,,,,,,,,,,,
1799999992349356805,2027-01-15T07:59:52.349356805Z,0.40,-1.60,0.80,-1.40,2.40,0.00,-0.40,3.20,2.20,4.20,3.20,6.00,7.00,6.80,,,,,,,,,,,,,,
1799999992356127286,2027-01-15T07:59:52.356127286Z,0.40,-1.20,0.00,-1.40,2.20,1.00,2.00,4.40,1.40,4.00,5.00,6.00,8.40,7.20,,,,,,,,,,,,,,
1799999992362897766,2027-01-15T07:59:52.362897766Z,-2.40,-1.60,-2.00,0.20,0.40,0.60,4.80,4.40,2.60,3.60,5.40,6.00,9.00,8.00,,,,,,,,,,,,,,
1799999992369668247,2027-01-15T07:59:52.369668247Z,,-2.40,-2.00,2.00,0.20,-0.80,4.60,3.40,2.80,3.60,5.20,6.60,7.60,7.80,,,,,,,,,,,,,,
1799999992376438728,2027-01-15T07:59:52.376438728Z,,-2.80,-0.80,2.60,1.00,-1.40,3.40,2.80,1.40,4.00,5.40,7.00,6.00,6.80,,,,,,,,,,,,,,
1799999992383209208,2027-01-15T07:59:52.383209208Z,,-1.40,0.40,0.60,1.00,-0.80,2.40,2.80,0.20,4.60,5.80,7.40,5.00,5.60,,,,,,,,,,,,,,
1799999992389979689,2027-01-15T07:59:52.389979689Z,-2.60,-0.40,-0.40,-0.80,1.00,0.40,2.00,2.80,1.40,4.60,5.00,7.00,5.60,5.00,,,,,,,,,,,,,,
1799999992396750170,2027-01-15T07:59:52.396750170Z,-2.20,-1.80,-1.00,1.20,2.00,1.80,2.00,2.00,4.00,3.80,2.60,6.60,6.40,6.60,,,,,,,,,,,,,,
1799999992403520650,2027-01-15T07:59:52.403520650Z,0.40,-1.80,1.20,1.60,1.20,2.60,2.40,1.80,4.40,3.60,1.60,6.40,6.20,8.00,,,,,,,,,,,,,,
1799999992410291131,2027-01-15T07:59:52.410291131Z,0.60,-1.20,2.40,-0.20,1.00,1.80,4.00,3.40,3.40,4.60,4.20,6.00,6.80,7.20,,,,,,,,,,,,,,
1799999992417061612,2027-01-15T07:59:52.417061612Z,-1.60,-2.20,1.00,-0.40,3.20,0.00,5.40,4.20,3.60,4.60,6.40,6.00,6.80,5.80,,,,,,,,,,,,,,
1799999992423832093,2027-01-15T07:59:52.423832093Z,-2.20,-1.60,1.20,0.80,4.00,-0.80,4.80,3.40,4.20,4.20,6.00,6.20,5.80,6.20,,,,,,,,,,,,,,
1799999992430602573,2027-01-15T07:59:52.430602573Z,-1.20,0.60,2.80,1.80,1.40,0.20,3.80,3.40,4.40,4.00,5.20,6.20,5.00,7.00,,,,,,,,,,,,,,
1799999992437373054,2027-01-15T07:59:52.437373054Z,-1.20,3.00,2.60,1.40,-1.20,1.60,2.20,5.00,4.80,4.20,6.00,5.40,5.20,7.40,,,,,,,,,,,,,,
1799999992444143535,2027-01-15T07:59:52.444143535Z,-0.80,2.00,0.80,0.40,-0.60,1.80,0.80,5.80,4.80,3.00,7.80,5.00,6.40,7.20,,,,,,,,,,,,,,
1799999992450914015,2027-01-15T07:59:52.450914015Z,-0.40,-1.60,-0.60,0.40,2.00,1.60,0.80,4.40,4.40,2.40,7.20,6.00,6.60,6.40,,,,,,,,,,,,,,
1799999992457684496,2027-01-15T07:59:52.457684496Z,0.00,-3.00,-0.20,1.80,3.00,2.80,2.60,3.80,4.60,5.20,5.40,7.00,6.60,5.40,,,,,,,,,,,,,,
1799999992464454977,2027-01-15T07:59:52.464454977Z,-0.40,-1.60,0.60,1.80,2.40,2.40,3.80,3.80,4.80,6.20,3.80,7.00,7.60,4.60,,,,,,,,,,,,,,
1799999992471225458,2027-01-15T07:59:52.471225458Z,-2.20,-1.20,1.40,0.00,2.00,1.40,3.00,2.80,4.60,4.20,2.80,7.20,7.20,4.60,,,,,,,,,,,,,,
1799999992477995938,2027-01-15T07:59:52.477995938Z,-2.40,-2.40,1.40,-1.80,1.60,1.40,2.60,1.20,4.60,2.40,3.40,7.20,5.80,5.00,,,,,,,,,,,,,,
1799999992484766419,2027-01-15T07:59:52.484766419Z,-1.40,-3.20,0.60,-1.60,1.00,1.60,2.80,1.00,4.60,2.40,5.00,6.60,4.40,5.80,,,,,,,,,,,,,,
1799999992491536900,2027-01-15T07:59:52.491536900Z,-0.40,-3.00,0.40,0.20,0.00,0.80,3.00,2.60,4.00,3.40,6.60,6.20,5.40,5.80,,,,,,,,,,,,,,
1799999992498307380,2027-01-15T07:59:52.498307380Z,0.40,-2.20,1.40,1.20,-1.00,0.20,1.60,3.20,3.00,2.80,6.80,7.20,7.40,5.40,,,,,,,,,,,,,,
1799999992505077861,2027-01-15T07:59:52.505077861Z,-0.20,-1.60,1.60,0.60,-0.60,2.00,0.80,2.60,2.20,3.00,7.00,7.20,7.00,6.60,,,,,,,,,,,,,,
1799999992511848342,2027-01-15T07:59:52.511848342Z,-1.00,-2.40,0.60,-0.80,0.80,3.20,2.80,3.80,1.20,5.20,6.20,6.40,5.80,8.00,,,,,,,,,,,,,,
1799999992518618822,2027-01-15T07:59:52.518618822Z,-4.00,-3.20,-0.20,-2.60,1.20,1.80,3.80,4.60,2.40,5.80,4.60,6.20,6.00,9.20,,,,,,,,,,,,,,
1799999992525389303,2027-01-15T07:59:52.525389303Z,-3.40,-2.00,-0.40,-2.40,0.80,0.80,2.80,4.20,4.60,4.40,3.80,6.00,6.20,9.60,,,,,,,,,,,,,,
1799999992532159784,2027-01-15T07:59:52.532159784Z,-3.00,0.00,-0.40,-0.80,0.80,1.60,2.20,3.40,5.80,3.00,4.60,5.60,5.80,9.00,,,,,,,,,,,,,,
1799999992538930265,2027-01-15T07:59:52.538930265Z,-2.40,1.20,-0.20,0.40,0.80,3.00,3.00,4.00,4.40,2.40,4.40,5.80,4.80,7.80,,,,,,,,,,,,,,
1799999992545700745,2027-01-15T07:59:52.545700745Z,0.00,-0.80,-0.80,0.20,1.00,3.20,3.60,4.60,1.80,2.80,3.00,6.20,5.40,6.60,,,,,,,,,,,,,,
1799999992552471226,2027-01-15T07:59:52.552471226Z,0.40,-2.80,-1.40,0.40,1.80,1.80,2.40,3.60,1.60,2.60,3.20,5.20,6.60,6.40,,,,,,,,,,,,,,
1799999992559241707,2027-01-15T07:59:52.559241707Z,-0.80,-0.80,-0.60,1.60,2.00,0.60,2.40,3.60,3.20,3.20,4.80,4.60,5.80,6.40,,,,,,,,,,,,,,
1799999992566012187,2027-01-15T07:59:52.566012187Z,-0.40,0.60,-0.20,2.20,1.40,1.00,2.20,3.80,3.20,4.40,4.80,6.20,5.60,6.80,,,,,,,,,,,,,,
1799999992572782668,2027-01-15T07:59:52.572782668Z,-0.60,-1.80,-1.20,1.80,1.20,1.20,1.40,3.00,3.80,4.40,4.20,7.80,6.40,8.20,,,,,,,,,,,,,,
1799999992579553149,2027-01-15T07:59:52.579553149Z,-2.80,-2.80,-2.00,1.20,1.20,0.80,2.40,2.20,5.00,3.80,4.60,7.60,6.20,9.20,,,,,,,,,,,,,,
1799999992586323629,2027-01-15T07:59:52.586323629Z,-3.20,-1.00,-1.80,0.20,0.80,0.80,4.40,1.60,5.40,3.60,4.60,6.40,5.40,8.60,,,,,,,,,,,,,,
1799999992593094110,2027-01-15T07:59:52.593094110Z,-1.60,0.80,-0.80,-1.20,0.20,0.80,5.20,2.60,3.40,3.40,3.80,5.60,5.60,7.00,,,,,,,,,,,,,,
1799999992599864591,2027-01-15T07:59:52.599864591Z,-0.40,0.60,0.40,-0.60,0.80,1.00,2.80,4.60,2.20,3.40,4.00,6.00,6.20,6.00,,,,,,,,,,,,,,
1799999992606635072,2027-01-15T07:59:52.606635072Z,-1.00,-1.00,0.40,1.20,1.80,1.20,1.40,5.20,4.40,3.80,5.40,6.00,6.20,6.80,,,,,,,,,,,,,,
1799999992613405552,2027-01-15T07:59:52.613405552Z,-3.60,-0.60,-0.60,0.80,1.40,1.20,3.40,3.60,4.20,4.80,4.80,5.00,7.60,5.60,,,,,,,,,,,,,,
1799999992620176033,2027-01-15T07:59:52.620176033Z,-0.40,0.00,-1.00,0.20,1.20,0.60,5.40,2.20,1.80,5.00,4.00,4.80,8.00,3.00,,,,,,,,,,,,,,
1799999992626946514,2027-01-15T07:59:52.626946514Z,0.00,0.20,-1.20,0.60,1.60,0.40,4.80,1.80,1.60,4.20,4.80,4.60,7.00,2.40,,,,,,,,,,,,,,
1799999992633716994,2027-01-15T07:59:52.633716994Z,0.20,0.20,-1.60,1.40,1.40,1.00,3.60,1.80,2.80,3.80,5.60,4.20,7.00,4.20,,,,,,,,,,,,,,
1799999992640487475,2027-01-15T07:59:52.640487475Z,-0.20,0.20,-1.80,0.80,1.00,2.00,3.60,2.00,3.80,3.20,5.80,4.20,8.60,6.00,,,,,,,,,,,,,,
1799999992647257956,2027-01-15T07:59:52.647257956Z,-0.60,1.20,-0.60,-0.20,0.40,2.00,4.60,2.20,3.20,4.00,5.00,5.20,8.40,6.80,,,,,,,,,,,,,,
1799999992654028437,2027-01-15T07:59:52.654028437Z,0.00,1.80,1.00,0.80,0.40,0.20,4.20,3.40,2.60,5.20,4.60,6.20,5.60,6.00,,,,,,,,,,,,,,
1799999992660798917,2027-01-15T07:59:52.660798917Z,0.20,0.60,1.00,1.40,1.20,-0.80,2.60,4.80,3.20,5.60,5.40,7.00,5.60,6.00,,,,,,,,,,,,,,
1799999992667569398,2027-01-15T07:59:52.667569398Z,-1.80,-1.20,-0.20,-0.60,1.80,0.60,2.00,4.00,3.00,5.00,6.00,7.80,6.80,6.20,,,,,,,,,,,,,,
1799999992674339879,2027-01-15T07:59:52.674339879Z,-3.40,-2.00,-1.40,-0.60,1.60,1.80,3.20,2.60,3.20,4.20,4.40,6.60,5.20,6.60,,,,,,,,,,,,,,
1799999992681110359,2027-01-15T07:59:52.681110359Z,-1.60,-1.40,-2.00,1.20,1.60,2.00,3.60,2.80,4.00,4.60,2.60,5.00,4.00,7.40,,,,,,,,,,,,,,
1799999992687880840,2027-01-15T07:59:52.687880840Z,0.20,-1.40,-1.40,2.60,1.60,1.60,3.40,3.60,4.40,5.80,2.80,4.80,4.80,8.20,,,,,,,,,,,,,,
1799999992694651321,2027-01-15T07:59:52.694651321Z,0.00,-2.60,-0.40,3.00,1.60,1.20,3.00,3.20,4.00,6.80,4.80,5.80,6.20,8.80,,,,,,,,,,,,,,
1799999992701421801,2027-01-15T07:59:52.701421801Z,-0.40,-2.20,0.40,2.60,1.20,0.40,2.20,2.00,3.40,6.20,6.80,7.00,6.80,8.40,,,,,,,,,,,,,,
1799999992708192282,2027-01-15T07:59:52.708192282Z,-1.20,-0.20,-0.60,2.40,1.60,-0.20,2.20,2.60,4.40,5.40,5.80,7.40,5.80,7.40,,,,,,,,,,,,,,
1799999992714962763,2027-01-15T07:59:52.714962763Z,-1.80,-0.80,-1.80,1.80,2.00,0.40,2.40,4.20,5.00,5.80,4.80,7.80,5.40,6.80,,,,,,,,,,,,,,
1799999992721733244,2027-01-15T07:59:52.721733244Z,-0.60,-2.40,-1.00,1.80,1.60,1.60,2.60,3.40,4.60,4.40,5.20,7.80,6.00,6.20,,,,,,,,,,,,,,
1799999992728503724,2027-01-15T07:59:52.728503724Z,-0.80,-1.40,-0.40,1.60,1.80,1.80,3.60,1.80,5.20,2.80,5.00,7.40,7.00,6.20,,,,,,,,,,,,,,
1799999992735274205,2027-01-15T07:59:52.735274205Z,-0.80,0.20,-0.60,0.80,2.60,1.00,4.40,1.20,6.80,3.20,4.60,7.20,7.40,7.00,,,,,,,,,,,,,,
1799999992742044686,2027-01-15T07:59:52.742044686Z,-0.60,1.20,-1.20,1.40,2.20,0.40,4.80,2.20,7.00,5.00,4.80,7.40,8.00,8.00,,,,,,,,,,,,,,
1799999992748815166,2027-01-15T07:59:52.748815166Z,2.20,-1.00,-1.40,3.40,1.40,1.00,4.20,3.80,4.60,6.40,5.80,7.80,7.60,7.40,,,,,,,,,,,,,,
1799999992755585647,2027-01-15T07:59:52.755585647Z,3.00,-4.60,-1.40,1.60,1.80,2.60,4.20,4.20,3.20,5.60,5.20,7.20,6.40,5.80,,,,,,,,,,,,,,
1799999992762356128,2027-01-15T07:59:52.762356128Z,-8.20,-6.80,-2.20,-2.60,1.80,4.00,5.00,4.40,5.20,5.40,4.20,5.60,5.20,5.00,,,,,,,,,,,,,,
1799999992769126608,2027-01-15T07:59:52.769126608Z,-6.60,-4.20,-1.80,-2.40,1.40,4.60,5.00,4.80,7.40,6.20,5.00,3.40,4.60,6.00,,,,,,,,,,,,,,
1799999992775897089,2027-01-15T07:59:52.775897089Z,-4.40,0.80,0.20,1.20,1.40,3.80,4.20,2.00,6.20,5.00,4.60,3.20,5.20,6.80,,,,,,,,,,,,,,
1799999992782667570,2027-01-15T07:59:52.782667570Z,7.80,4.00,1.80,3.40,1.20,3.40,3.60,-0.80,4.60,3.40,3.40,5.00,6.40,7.20,,,,,,,,,,,,,,
1799999992789438051,2027-01-15T07:59:52.789438051Z,5.80,4.40,2.00,2.80,1.20,3.00,4.00,-1.40,4.60,3.20,3.00,6.40,7.60,7.60,,,,,,,,,,,,,,
1799999992796208531,2027-01-15T07:59:52.796208531Z,-2.20,3.00,0.60,0.60,1.00,2.60,4.20,0.40,6.00,3.60,4.60,6.60,7.40,7.80,,,,,,,,,,,,,,
1799999992802979012,2027-01-15T07:59:52.802979012Z,-2.80,0.80,-1.40,-1.40,0.80,1.60,2.60,2.20,6.80,3.80,6.00,5.60,5.80,7.40,,,,,,,,,,,,,,
1799999992809749493,2027-01-15T07:59:52.809749493Z,-3.20,-0.80,-2.60,0.20,1.00,1.00,2.00,2.20,5.80,4.60,5.00,5.20,5.40,7.00,,,,,,,,,,,,,,
1799999992816519973,2027-01-15T07:59:52.816519973Z,-1.40,-0.60,-2.60,2.40,2.60,2.20,3.60,3.80,5.00,6.00,4.80,4.80,6.60,6.20,,,,,,,,,,,,,,
1799999992823290454,2027-01-15T07:59:52.823290454Z,-1.00,1.20,-2.00,2.60,3.60,3.60,2.80,4.60,4.00,5.20,5.60,4.40,6.40,6.20,,,,,,,,,,,,,,
1799999992830060935,2027-01-15T07:59:52.830060935Z,0.60,2.00,-0.80,2.00,2.40,3.60,0.80,3.80,3.00,3.00,6.00,5.20,5.80,7.60,,,,,,,,,,,,,,
1799999992836831416,2027-01-15T07:59:52.836831416Z,0.20,1.00,0.00,2.00,0.80,2.80,0.80,3.20,2.40,1.20,6.00,6.40,6.80,9.20,,,,,,,,,,,,,,
1799999992843601896,2027-01-15T07:59:52.843601896Z,-1.40,-0.20,0.00,2.40,0.40,2.20,3.20,3.80,2.20,2.80,6.20,6.00,8.60,8.40,,,,,,,,,,,,,,
1799999992850372377,2027-01-15T07:59:52.850372377Z,-1.40,-1.00,-1.20,1.60,1.80,2.60,4.00,4.40,2.60,7.20,6.00,4.40,9.00,5.40,,,,,,,,,,,,,,
1799999992857142858,2027-01-15T07:59:52.857142858Z,-0.80,-1.40,-1.20,0.40,2.40,1.80,0.40,3.20,3.60,8.80,5.60,4.40,6.60,4.40,,,,,,,,,,,,,,
1799999992863913338,2027-01-15T07:59:52.863913338Z,-1.20,-2.20,-0.60,0.20,1.20,0.80,-0.20,1.40,3.60,5.60,5.80,6.20,6.00,6.80,,,,,,,,,,,,,,
1799999992870683819,2027-01-15T07:59:52.870683819Z,-2.00,-1.80,-2.20,0.80,0.60,2.20,3.20,1.20,2.40,3.40,4.60,5.20,7.60,7.80,,,,,,,,,,,,,,
1799999992877454300,2027-01-15T07:59:52.877454300Z,-1.00,0.40,-2.40,0.80,1.60,4.40,3.80,2.00,2.60,4.20,2.60,4.00,7.40,7.00,,,,,,,,,,,,,,
1799999992884224780,2027-01-15T07:59:52.884224780Z,-0.40,2.40,-0.40,0.20,2.60,4.60,2.20,2.60,3.80,5.20,2.40,5.60,6.00,6.80,,,,,,,,,,,,,,
1799999992890995261,2027-01-15T07:59:52.890995261Z,2.80,2.60,1.40,-0.20,2.60,3.40,2.20,3.00,5.00,5.20,3.80,7.60,4.80,7.00,,,,,,,,,,,,,,
1799999992897765742,2027-01-15T07:59:52.897765742Z,2.40,1.00,2.80,-0.60,1.40,2.20,2.80,3.40,4.20,5.40,5.40,7.20,3.60,7.80,,,,,,,,,,,,,,
1799999992904536223,2027-01-15T07:59:52.904536223Z,2.00,-0.40,2.40,0.80,0.00,2.00,1.40,2.40,1.60,6.20,6.60,4.00,2.80,8.80,,,,,,,,,,,,,,
1799999992911306703,2027-01-15T07:59:52.911306703Z,2.20,0.60,1.00,2.00,-1.00,2.40,-0.20,1.40,1.00,5.20,6.60,2.60,3.80,9.00,,,,,,,,,,,,,,
1799999992918077184,2027-01-15T07:59:52.918077184Z,4.00,2.20,1.00,1.40,-0.80,2.60,1.60,2.00,3.40,3.40,7.20,4.40,5.00,9.40,,,,,,,,,,,,,,
1799999992924847665,2027-01-15T07:59:52.924847665Z,4.60,2.80,2.40,0.20,0.20,4.40,3.60,2.60,3.60,3.40,7.40,6.00,5.00,10.20,,,,,,,,,,,,,,
1799999992931618145,2027-01-15T07:59:52.931618145Z,,2.60,3.20,-0.80,1.20,6.20,3.20,2.20,2.40,5.00,6.60,6.60,5.20,9.40,,,,,,,,,,,,,,
1799999992938388626,2027-01-15T07:59:52.938388626Z,3.60,2.60,3.00,-1.20,1.80,6.60,1.60,1.80,3.00,6.40,6.20,6.80,6.40,7.80,,,,,,,,,,,,,,
1799999992945159107,2027-01-15T07:59:52.945159107Z,2.40,2.80,1.80,0.20,1.20,4.80,0.40,1.20,4.40,7.00,5.20,6.60,7.40,6.40,,,,,,,,,,,,,,
1799999992951929588,2027-01-15T07:59:52.951929588Z,-0.60,2.40,0.20,2.60,-0.20,2.20,1.00,2.00,4.60,5.80,4.60,5.80,6.80,7.00,,,,,,,,,,,,,,
1799999992958700068,2027-01-15T07:59:52.958700068Z,-0.80,1.20,-1.00,2.80,-0.60,1.00,2.20,3.20,3.80,4.80,4.20,6.00,6.20,7.80,,,,,,,,,,,,,,
1799999992965470549,2027-01-15T07:59:52.965470549Z,-0.60,1.20,-0.60,1.20,0.80,1.00,1.60,4.00,5.00,6.00,4.40,7.00,6.80,6.80,,,,,,,,,,,,,,
1799999992972241030,2027-01-15T07:59:52.972241030Z,0.60,2.20,-0.60,1.20,1.80,0.00,2.20,4.20,5.60,7.80,5.40,7.80,7.00,6.80,,,,,,,,,,,,,,
1799999992979011510,2027-01-15T07:59:52.979011510Z,0.40,2.20,-1.00,2.40,1.40,0.60,4.60,2.40,4.40,8.00,5.60,7.40,7.20,8.00,,,,,,,,,,,,,,
1799999992985781991,2027-01-15T07:59:52.985781991Z,-1.00,1.20,-0.40,2.40,0.60,1.80,5.80,0.00,3.60,6.60,4.60,6.60,7.00,7.60,,,,,,,,,,,,,,
1799999992992552472,2027-01-15T07:59:52.992552472Z,0.60,0.00,0.40,1.60,0.60,2.20,4.40,-1.60,3.00,4.60,4.00,6.00,6.20,6.40,,,,,,,,,,,,,,
1799999992999322952,2027-01-15T07:59:52.999322952Z,0.80,-1.40,1.40,1.20,1.20,0.00,1.40,-1.00,1.60,3.00,3.00,5.80,6.00,5.40,,,,,,,,,,,,,,
1799999993006093433,2027-01-15T07:59:53.006093433Z,0.20,-0.20,1.40,1.60,2.00,-2.60,-0.40,1.60,1.00,3.40,2.00,4.80,6.40,6.80,,,,,,,,,,,,,,
1799999993012863914,2027-01-15T07:59:53.012863914Z,-0.40,0.20,0.40,0.20,2.20,-0.60,1.20,3.40,3.00,5.40,2.60,3.60,5.00,8.40,,,,,,,,,,,,,,
1799999993019634395,2027-01-15T07:59:53.019634395Z,-2.20,-2.40,-0.20,-0.60,2.60,3.00,2.40,4.20,4.40,5.00,4.00,3.40,3.20,7.20,,,,,,,,,,,,,,
1799999993026404875,2027-01-15T07:59:53.026404875Z,-0.80,-2.80,-1.00,1.20,2.80,3.20,1.00,5.40,3.80,2.60,4.20,2.60,4.40,6.20,,,,,,,,,,,,,,
1799999993033175356,2027-01-15T07:59:53.033175356Z,-1.00,-1.40,-1.60,2.60,2.00,1.80,0.00,5.20,3.20,1.20,3.60,1.40,6.80,6.60,,,,,,,,,,,,,,
1799999993039945837,2027-01-15T07:59:53.039945837Z,-2.80,-1.20,-1.00,2.00,0.80,1.80,0.20,3.40,3.20,1.60,4.20,1.60,8.40,6.60,,,,,,,,,,,,,,
1799999993046716317,2027-01-15T07:59:53.046716317Z,-4.80,-2.20,0.00,0.60,0.60,3.20,1.00,1.00,3.60,2.20,5.40,4.00,8.20,5.40,,,,,,,,,,,,,,
1799999993053486798,2027-01-15T07:59:53.053486798Z,-2.80,-3.20,0.40,0.40,1.40,4.20,2.20,1.40,4.20,2.00,5.60,6.60,7.00,4.60,,,,,,,,,,,,,,
1799999993060257279,2027-01-15T07:59:53.060257279Z,1.00,-2.20,-0.40,2.00,0.80,2.60,2.80,4.60,4.00,2.00,4.60,7.40,6.80,5.40,,,,,,,,,,,,,,
1799999993067027759,2027-01-15T07:59:53.067027759Z,-0.20,-1.40,-0.60,2.40,0.60,1.20,3.80,6.00,2.60,3.40,4.20,7.40,6.80,6.20,,,,,,,,,,,,,,
1799999993073798240,2027-01-15T07:59:53.073798240Z,-0.60,-1.60,-0.40,0.80,2.00,2.40,6.20,5.00,2.20,4.40,3.40,6.60,5.80,6.40,,,,,,,,,,,,,,
1799999993080568721,2027-01-15T07:59:53.080568721Z,-1.40,0.60,0.20,0.80,1.00,3.40,5.40,5.20,3.80,3.60,4.00,5.20,5.00,7.20,,,,,,,,,,,,,,
1799999993087339202,2027-01-15T07:59:53.087339202Z,0.20,2.60,0.20,2.60,-1.20,2.40,2.00,5.40,4.40,3.20,5.60,4.20,5.00,7.60,,,,,,,,,,,,,,
1799999993094109682,2027-01-15T07:59:53.094109682Z,0.60,1.80,-0.20,4.00,-2.40,1.20,-0.80,5.00,3.60,4.00,6.20,4.20,5.00,7.40,,,,,,,,,,,,,,
1799999993100880163,2027-01-15T07:59:53.100880163Z,1.20,-0.40,-0.60,3.20,-1.00,0.20,-0.60,4.60,3.60,5.00,5.60,3.60,4.80,6.60,,,,,,,,,,,,,,
1799999993107650644,2027-01-15T07:59:53.107650644Z,-0.40,-2.40,0.20,1.00,1.60,1.60,1.80,5.00,4.60,3.40,5.00,5.00,4.80,6.40,,,,,,,,,,,,,,
1799999993114421124,2027-01-15T07:59:53.114421124Z,-0.80,-2.20,0.60,-0.60,2.40,4.20,2.80,4.40,4.80,2.80,6.00,8.20,5.60,7.40,,,,,,,,,,,,,,
1799999993121191605,2027-01-15T07:59:53.121191605Z,-3.00,-1.80,-0.80,0.20,1.20,4.00,2.60,2.60,4.20,5.80,5.00,7.60,6.40,6.60,,,,,,,,,,,,,,
1799999993127962086,2027-01-15T07:59:53.127962086Z,-4.60,-1.40,-1.80,1.60,1.60,1.40,3.40,1.60,3.80,6.80,3.60,3.80,6.40,5.20,,,,,,,,,,,,,,
1799999993134732567,2027-01-15T07:59:53.134732567Z,-4.60,-1.40,-1.20,2.40,3.20,0.60,4.00,2.40,3.40,5.80,4.20,2.00,6.20,5.00,,,,,,,,,,,,,,
1799999993141503047,2027-01-15T07:59:53.141503047Z,-3.20,-2.20,-0.40,2.20,5.40,1.80,3.40,2.80,3.20,6.40,5.40,3.40,6.20,6.20,,,,,,,,,,,,,,
1799999993148273528,2027-01-15T07:59:53.148273528Z,-0.40,-2.60,0.20,1.20,4.80,2.60,2.60,2.40,4.80,7.60,5.20,4.80,6.60,7.00,,,,,,,,,,,,,,
1799999993155044009,2027-01-15T07:59:53.155044009Z,-0.40,-2.00,0.40,0.00,1.80,1.40,2.40,3.20,5.80,5.80,4.20,4.80,6.80,5.80,,,,,,,,,,,,,,
1799999993161814489,2027-01-15T07:59:53.161814489Z,-3.00,-1.00,1.00,0.20,1.40,0.80,3.40,4.40,3.20,2.00,5.00,4.40,6.20,4.80,,,,,,,,,,,,,,
1799999993168584970,2027-01-15T07:59:53.168584970Z,-3.20,-1.60,1.40,1.20,3.00,2.00,4.60,3.40,2.40,1.80,5.00,6.00,5.40,6.00,,,,,,,,,,,,,,
1799999993175355451,2027-01-15T07:59:53.175355451Z,-0.80,-2.20,0.80,1.20,1.80,2.00,5.40,2.60,6.60,3.20,2.80,6.80,5.00,6.80,,,,,,,,,,,,,,
1799999993182125931,2027-01-15T07:59:53.182125931Z,-0.40,-0.80,0.00,0.20,0.00,1.60,4.20,4.00,7.20,2.40,1.20,5.20,5.60,5.60,,,,,,,,,,,,,,
1799999993188896412,2027-01-15T07:59:53.188896412Z,1.20,0.60,0.20,0.40,0.80,2.00,2.60,4.00,3.60,2.00,2.40,4.20,5.60,5.40,,,,,,,,,,,,,,
1799999993195666893,2027-01-15T07:59:53.195666893Z,1.00,0.60,0.60,1.20,2.00,2.40,1.20,2.40,0.80,2.20,4.20,4.60,4.80,6.20,,,,,,,,,,,,,,
1799999993202437374,2027-01-15T07:59:53.202437374Z,0.00,-0.80,1.00,2.00,2.60,1.80,1.60,1.60,2.60,3.20,6.00,5.60,3.80,7.00,,,,,,,,,,,,,,
1799999993209207854,2027-01-15T07:59:53.209207854Z,-0.40,-2.20,0.20,1.20,1.00,0.80,3.60,2.60,6.00,5.40,7.00,5.20,5.00,7.20,,,,,,,,,,,,,,
1799999993215978335,2027-01-15T07:59:53.215978335Z,-1.60,-2.00,-0.80,-0.40,0.20,0.60,4.40,3.20,4.80,6.40,6.20,5.20,7.00,6.80,,,,,,,,,,,,,,
1799999993222748816,2027-01-15T07:59:53.222748816Z,-2.40,-1.80,-0.60,0.00,2.20,1.00,2.20,2.20,2.80,4.00,6.40,6.80,6.40,6.40,,,,,,,,,,,,,,
1799999993229519296,2027-01-15T07:59:53.229519296Z,-2.40,-2.80,-0.40,0.20,2.00,0.20,1.00,1.60,5.00,3.40,6.40,6.40,5.00,6.40,,,,,,,,,,,,,,
1799999993236289777,2027-01-15T07:59:53.236289777Z,-4.80,-3.20,-1.60,-0.40,-0.40,-1.20,2.20,1.80,6.60,6.20,5.40,4.40,5.40,6.20,,,,,,,,,,,,,,
1799999993243060258,2027-01-15T07:59:53.243060258Z,-3.80,-2.60,-2.60,-0.40,-0.60,-1.80,2.60,1.80,5.40,8.00,4.80,4.00,6.20,5.40,,,,,,,,,,,,,,
1799999993249830738,2027-01-15T07:59:53.249830738Z,-2.40,-2.60,-2.60,-0.60,1.00,-1.20,2.20,1.80,4.40,7.00,5.40,5.20,6.40,4.60,,,,,,,,,,,,,,
1799999993256601219,2027-01-15T07:59:53.256601219Z,-2.20,-2.40,-2.40,-1.60,2.20,0.00,2.00,2.60,4.80,4.60,6.20,6.40,6.60,5.00,,,,,,,,,,,,,,
1799999993263371700,2027-01-15T07:59:53.263371700Z,-2.40,-2.00,-1.80,-1.60,1.20,0.40,2.40,3.20,4.40,2.40,6.20,6.40,6.60,6.60,,,,,,,,,,,,,,
1799999993270142181,2027-01-15T07:59:53.270142181Z,-3.40,-2.40,-0.60,0.20,0.60,-0.40,1.80,2.60,2.60,2.20,4.40,5.40,6.00,7.40,,,,,,,,,,,,,,
1799999993276912661,2027-01-15T07:59:53.276912661Z,0.60,-1.20,0.60,2.00,1.40,0.00,0.80,2.20,2.60,4.40,4.00,5.00,5.40,7.00,,,,,,,,,,,,,,
1799999993283683142,2027-01-15T07:59:53.283683142Z,1.40,1.00,1.60,1.60,1.20,1.20,0.80,1.60,3.40,7.40,5.20,4.60,5.60,7.80,,,,,,,,,,,,,,
1799999993290453623,2027-01-15T07:59:53.290453623Z,1.20,1.40,1.40,0.40,1.20,1.80,1.60,1.20,2.60,8.60,5.20,3.80,5.20,9.20,,,,,,,,,,,,,,
1799999993297224103,2027-01-15T07:59:53.297224103Z,0.80,0.20,0.00,-0.20,1.20,1.80,2.00,1.40,2.00,7.00,4.00,3.40,4.40,10.20,,,,,,,,,,,,,,
1799999993303994584,2027-01-15T07:59:53.303994584Z,-1.80,-0.60,-1.20,0.60,0.60,1.40,2.20,3.00,3.00,4.20,2.80,4.20,4.60,9.80,,,,,,,,,,,,,,
1799999993310765065,2027-01-15T07:59:53.310765065Z,0.80,-0.80,-1.80,1.60,0.00,0.80,2.00,5.80,5.20,2.60,4.20,6.60,6.80,7.80,,,,,,,,,,,,,,
1799999993317535546,2027-01-15T07:59:53.317535546Z,-0.60,-1.60,-0.80,0.60,1.40,0.20,1.80,7.00,6.20,4.80,6.00,8.00,8.20,6.40,,,,,,,,,,,,,,
1799999993324306026,2027-01-15T07:59:53.324306026Z,-1.00,-2.60,0.20,-0.60,2.80,-0.60,2.80,5.00,5.40,5.20,5.60,6.20,6.40,7.20,,,,,,,,,,,,,,
1799999993331076507,2027-01-15T07:59:53.331076507Z,-2.60,-2.00,-0.60,0.80,1.60,-0.40,4.20,3.40,5.00,4.60,4.80,4.00,5.60,7.20,,,,,,,,,,,,,,
1799999993337846988,2027-01-15T07:59:53.337846988Z,-0.60,-0.80,-0.80,1.60,-0.20,1.80,3.40,2.80,5.40,6.80,4.60,4.80,7.00,5.00,,,,,,,,,,,,,,
1799999993344617468,2027-01-15T07:59:53.344617468Z,-0.60,-1.20,-0.20,0.00,0.20,3.40,2.00,2.80,6.00,7.60,4.80,7.00,8.20,3.20,,,,,,,,,,,,,,
1799999993351387949,2027-01-15T07:59:53.351387949Z,-2.80,-2.40,-0.20,-2.20,1.00,2.80,2.40,3.40,6.40,6.20,5.20,8.00,8.20,4.00,,,,,,,,,,,,,,
1799999993358158430,2027-01-15T07:59:53.358158430Z,-4.80,-3.80,-1.00,-3.00,1.20,1.60,3.20,4.20,5.00,4.00,4.40,7.80,7.20,5.80,,,,,,,,,,,,,,
1799999993364928910,2027-01-15T07:59:53.364928910Z,0.00,-1.80,-1.60,-1.60,0.80,0.80,1.80,4.20,3.20,3.20,3.20,7.00,6.20,7.80,,,,,,,,,,,,,,
1799999993371699391,2027-01-15T07:59:53.371699391Z,0.40,0.60,-1.40,-0.60,1.00,1.00,-0.20,3.00,3.00,3.40,3.80,8.00,7.00,7.20,,,,,,,,,,,,,,
1799999993378469872,2027-01-15T07:59:53.378469872Z,0.20,-0.20,-0.40,-1.40,1.20,0.60,0.60,3.00,3.80,1.80,5.40,8.00,7.60,5.40,,,,,,,,,,,,,,
1799999993385240353,2027-01-15T07:59:53.385240353Z,-0.80,-1.20,0.80,-1.20,0.60,1.00,2.40,4.20,3.80,2.20,4.40,6.60,6.40,4.20,,,,,,,,,,,,,,
1799999993392010833,2027-01-15T07:59:53.392010833Z,-0.40,0.00,1.60,0.20,0.80,1.60,3.60,4.80,4.00,4.20,3.20,5.80,6.00,4.60,,,,,,,,,,,,,,
1799999993398781314,2027-01-15T07:59:53.398781314Z,0.00,1.60,1.40,2.00,2.00,1.20,4.60,4.80,4.00,5.60,4.20,6.60,7.00,5.20,,,,,,,,,,,,,,
1799999993405551795,2027-01-15T07:59:53.405551795Z,0.40,1.60,0.40,2.00,3.00,0.80,5.60,5.00,3.60,5.80,5.40,7.20,8.20,6.80,,,,,,,,,,,,,,
1799999993412322275,2027-01-15T07:59:53.412322275Z,-1.40,-0.80,-0.80,0.20,1.60,2.40,5.00,5.40,3.40,4.00,5.80,6.40,8.00,8.00,,,,,,,,,,,,,,
1799999993419092756,2027-01-15T07:59:53.419092756Z,-1.00,-2.40,-0.40,-0.40,-0.80,4.00,3.20,4.60,4.00,2.00,6.20,5.20,6.80,7.20,,,,,,,,,,,,,,
1799999993425863237,2027-01-15T07:59:53.425863237Z,-0.40,-1.20,0.60,0.40,-0.80,2.80,1.80,3.00,3.80,1.40,7.20,5.80,7.20,6.60,,,,,,,,,,,,,,
1799999993432633717,2027-01-15T07:59:53.432633717Z,-0.20,-0.20,0.40,-0.60,0.60,2.20,2.20,1.60,3.40,3.20,7.20,6.60,8.40,7.80,,,,,,,,,,,,,,
1799999993439404198,2027-01-15T07:59:53.439404198Z,-3.20,0.60,-0.20,-0.60,0.20,3.40,3.00,0.40,3.60,3.40,6.40,6.20,8.80,7.20,,,,,,,,,,,,,,
1799999993446174679,2027-01-15T07:59:53.446174679Z,-2.40,1.40,-0.20,0.80,-0.40,3.00,3.80,0.00,3.80,2.00,5.80,6.40,7.80,5.80,,,,,,,,,,,,,,
1799999993452945160,2027-01-15T07:59:53.452945160Z,-1.20,1.60,-0.20,1.80,0.00,1.40,4.00,1.00,3.80,1.40,4.80,6.80,6.60,5.60,,,,,,,,,,,,,,
1799999993459715640,2027-01-15T07:59:53.459715640Z,-0.80,1.40,-0.40,1.40,0.60,0.40,3.60,2.40,4.00,3.60,3.80,6.00,6.40,6.80,,,,,,,,,,,,,,
1799999993466486121,2027-01-15T07:59:53.466486121Z,0.40,1.00,0.40,0.40,1.00,1.80,3.40,3.00,4.60,6.20,4.00,6.40,7.60,7.20,,,,,,,,,,,,,,
1799999993473256602,2027-01-15T07:59:53.473256602Z,0.00,0.60,2.20,0.20,1.20,2.60,4.20,2.60,4.80,5.00,5.60,8.80,7.40,5.80,,,,,,,,,,,,,,
1799999993480027082,2027-01-15T07:59:53.480027082Z,-0.20,-0.40,2.20,1.20,0.80,0.60,2.80,2.80,4.60,2.80,6.60,8.00,6.80,5.20,,,,,,,,,,,,,,
1799999993486797563,2027-01-15T07:59:53.486797563Z,-0.20,-1.20,-0.40,1.40,0.60,0.20,-0.40,4.00,4.60,3.80,5.80,4.60,6.80,5.80,,,,,,,,,,,,,,
1799999993493568044,2027-01-15T07:59:53.493568044Z,-0.40,-0.80,-2.40,0.20,1.40,1.60,-1.80,4.40,4.40,5.40,5.60,3.60,6.00,5.80,,,,,,,,,,,,,,
1799999993500338525,2027-01-15T07:59:53.500338525Z,-0.20,0.00,-2.60,-0.80,2.60,2.20,-0.40,2.80,4.40,5.60,5.60,4.80,4.80,5.80,,,,,,,,,,,,,,
1799999993507109005,2027-01-15T07:59:53.507109005Z,0.20,0.20,-1.60,0.40,2.80,1.60,1.80,0.20,4.20,4.60,5.20,5.80,4.60,7.20,,,,,,,,,,,,,,
1799999993513879486,2027-01-15T07:59:53.513879486Z,0.20,-1.00,-0.60,3.00,2.00,0.60,3.20,-1.20,3.80,3.60,4.20,5.00,5.40,9.00,,,,,,,,,,,,,,
1799999993520649967,2027-01-15T07:59:53.520649967Z,0.00,-0.40,0.00,3.20,2.00,1.40,2.40,0.40,3.20,4.80,4.40,4.40,6.20,9.20,,,,,,,,,,,,,,
1799999993527420447,2027-01-15T07:59:53.527420447Z,0.20,2.00,0.60,1.20,1.60,2.40,2.40,1.80,3.40,6.80,5.60,4.20,6.00,7.00,,,,,,,,,,,,,,
1799999993534190928,2027-01-15T07:59:53.534190928Z,0.40,3.20,1.60,0.60,1.40,1.80,1.00,2.40,4.40,5.60,6.20,3.80,5.60,5.20,,,,,,,,,,,,,,
1799999993540961409,2027-01-15T07:59:53.540961409Z,2.20,1.80,1.60,0.80,1.60,0.40,-0.40,3.00,4.60,3.20,6.20,5.40,5.40,6.00,,,,,,,,,,,,,,
1799999993547731889,2027-01-15T07:59:53.547731889Z,0.20,-0.20,0.60,-0.40,1.20,0.80,0.80,3.60,3.60,2.80,6.60,7.20,5.40,7.60,,,,,,,,,,,,,,
1799999993554502370,2027-01-15T07:59:53.554502370Z,-0.20,-2.00,-0.20,-2.00,1.20,2.60,3.20,4.00,2.80,4.00,6.60,7.60,5.40,8.20,,,,,,,,,,,,,,
1799999993561272851,2027-01-15T07:59:53.561272851Z,-2.40,-0.80,-0.40,-1.80,1.60,4.00,4.40,3.80,2.60,3.80,5.80,6.00,6.20,7.80,,,,,,,,,,,,,,
1799999993568043332,2027-01-15T07:59:53.568043332Z,-0.60,2.00,-0.80,0.40,2.80,4.00,2.80,3.80,3.40,2.00,4.40,4.20,6.40,7.00,,,,,,,,,,,,,,
1799999993574813812,2027-01-15T07:59:53.574813812Z,-0.40,2.40,-1.40,2.80,3.40,3.00,1.00,4.20,3.00,3.00,3.20,4.80,4.40,7.00,,,,,,,,,,,,,,
1799999993581584293,2027-01-15T07:59:53.581584293Z,-1.40,0.80,-0.40,2.20,2.40,2.80,1.40,2.40,2.60,6.40,2.00,5.60,3.40,7.00,,,,,,,,,,,,,,
1799999993588354774,2027-01-15T07:59:53.588354774Z,-1.00,0.60,1.20,0.40,1.20,2.20,2.40,0.20,3.80,8.40,2.60,5.20,5.20,7.20,,,,,,,,,,,,,,
1799999993595125254,2027-01-15T07:59:53.595125254Z,0.20,0.80,1.40,0.00,0.80,1.20,3.00,0.80,5.00,7.40,4.20,5.80,6.80,7.20,,,,,,,,,,,,,,
1799999993601895735,2027-01-15T07:59:53.601895735Z,0.20,0.60,0.60,1.20,1.60,0.20,3.20,3.00,5.00,6.20,5.20,7.00,6.20,6.60,,,,,,,,,,,,,,
1799999993608666216,2027-01-15T07:59:53.608666216Z,0.00,-0.40,0.20,0.60,1.80,1.00,3.00,5.40,3.60,5.00,5.40,8.00,5.40,5.60,,,,,,,,,,,,,,
1799999993615436697,2027-01-15T07:59:53.615436697Z,-0.40,-1.20,0.00,-1.00,0.20,3.00,1.80,5.60,2.40,5.00,5.00,7.00,6.00,5.20,,,,,,,,,,,,,,
1799999993622207177,2027-01-15T07:59:53.622207177Z,-1.60,-0.20,-0.80,0.20,1.20,3.80,0.20,3.60,3.80,6.00,5.40,5.20,7.60,6.40,,,,,,,,,,,,,,
1799999993628977658,2027-01-15T07:59:53.628977658Z,-1.00,0.80,-0.40,2.20,5.20,2.40,0.00,2.00,4.80,4.60,5.20,5.00,7.20,5.60,,,,,,,,,,,,,,
1799999993635748139,2027-01-15T07:59:53.635748139Z,-0.40,-0.40,1.00,1.20,6.40,2.00,2.00,2.20,3.60,2.00,4.60,5.00,6.60,5.40,,,,,,,,,,,,,,
1799999993642518619,2027-01-15T07:59:53.642518619Z,-1.80,-1.60,0.80,0.00,3.80,3.00,4.20,3.00,3.40,3.20,4.80,6.00,7.20,7.20,,,,,,,,,,,,,,
1799999993649289100,2027-01-15T07:59:53.649289100Z,-2.00,-2.00,-0.40,0.80,2.20,3.00,4.40,3.20,4.60,6.00,5.20,7.80,7.00,8.00,,,,,,,,,,,,,,
1799999993656059581,2027-01-15T07:59:53.656059581Z,-2.80,-1.40,-1.00,1.60,1.40,2.20,3.60,3.00,5.60,8.00,5.60,9.20,6.20,6.80,,,,,,,,,,,,,,
1799999993662830061,2027-01-15T07:59:53.662830061Z,-1.20,-0.60,-1.00,0.60,-0.20,2.20,3.00,2.40,4.60,6.20,6.40,9.20,6.20,5.80,,,,,,,,,,,,,,
1799999993669600542,2027-01-15T07:59:53.669600542Z,-0.60,-1.20,-1.00,-2.20,-0.80,3.60,4.00,1.40,3.20,2.80,6.60,7.60,7.00,5.80,,,,,,,,,,,,,,
1799999993676371023,2027-01-15T07:59:53.676371023Z,-0.20,-3.00,-0.80,-3.40,1.40,3.60,4.80,1.60,4.20,3.00,5.80,5.80,7.20,5.80,,,,,,,,,,,,,,
1799999993683141504,2027-01-15T07:59:53.683141504Z,-1.20,-2.20,0.20,-0.60,2.40,1.00,3.20,2.60,5.20,4.60,5.00,4.40,6.80,5.40,,,,,,,,,,,,,,
1799999993689911984,2027-01-15T07:59:53.689911984Z,-1.20,-0.60,0.20,2.20,1.40,-0.40,2.40,2.80,3.80,4.40,5.20,3.80,6.60,6.00,,,,,,,,,,,,,,
1799999993696682465,2027-01-15T07:59:53.696682465Z,,-0.40,-0.60,3.20,1.80,1.00,3.20,2.20,2.80,4.60,5.00,4.80,6.40,7.40,,,,,,,,,,,,,,
1799999993703452946,2027-01-15T07:59:53.703452946Z,-1.80,-0.80,-1.00,2.60,2.20,2.40,3.40,1.80,2.80,5.00,4.20,5.60,6.00,8.80,,,,,,,,,,,,,,
1799999993710223426,2027-01-15T07:59:53.710223426Z,-2.20,-1.60,-1.40,0.80,1.40,1.40,1.60,1.80,2.80,4.20,3.80,4.40,5.20,8.40,,,,,,,,,,,,,,
1799999993716993907,2027-01-15T07:59:53.716993907Z,-4.40,-2.00,-2.40,-1.20,0.00,-0.60,-0.60,2.60,2.20,3.60,4.80,3.40,4.40,6.80,,,,,,,,,,,,,,
1799999993723764388,2027-01-15T07:59:53.723764388Z,-0.40,-1.20,-1.80,-1.20,-1.00,-1.00,0.40,3.40,2.40,5.00,5.60,6.00,4.60,6.60,,,,,,,,,,,,,,
1799999993730534868,2027-01-15T07:59:53.730534868Z,0.20,-1.80,-0.60,0.20,-1.00,-0.80,2.80,4.20,3.40,4.40,4.60,8.00,5.60,7.60,,,,,,,,,,,,,,
1799999993737305349,2027-01-15T07:59:53.737305349Z,-1.80,-2.40,-1.00,1.80,0.00,-2.20,2.20,4.40,4.00,1.60,4.20,7.00,6.80,6.60,,,,,,,,,,,,,,
1799999993744075830,2027-01-15T07:59:53.744075830Z,-1.60,-1.20,-0.80,2.40,1.00,-2.20,1.20,4.40,4.00,2.20,5.40,7.40,7.00,6.80,,,,,,,,,,,,,,
1799999993750846311,2027-01-15T07:59:53.750846311Z,-0.20,0.00,-0.20,1.80,0.80,-0.80,2.00,5.00,4.60,4.00,5.80,8.80,6.00,8.20,,,,,,,,,,,,,,
1799999993757616791,2027-01-15T07:59:53.757616791Z,0.20,0.60,0.00,1.40,0.40,0.60,3.20,5.40,5.00,3.40,5.00,8.60,4.80,8.60,,,,,,,,,,,,,,
1799999993764387272,2027-01-15T07:59:53.764387272Z,0.60,1.40,0.20,1.60,0.60,1.40,3.20,5.00,5.40,2.40,4.00,7.40,4.20,6.60,,,,,,,,,,,,,,
1799999993771157753,2027-01-15T07:59:53.771157753Z,-0.20,0.80,0.80,1.60,0.40,0.80,3.00,3.00,5.60,3.40,3.40,6.60,5.40,5.20,,,,,,,,,,,,,,
1799999993777928233,2027-01-15T07:59:53.777928233Z,-1.00,-0.20,1.20,0.20,-1.00,0.00,3.60,0.80,5.20,4.00,3.80,6.20,7.00,7.60,,,,,,,,,,,,,,
1799999993784698714,2027-01-15T07:59:53.784698714Z,0.40,-0.80,0.60,-0.60,-1.40,0.20,3.60,0.80,4.20,2.60,4.80,5.00,7.60,8.00,,,,,,,,,,,,,,
1799999993791469195,2027-01-15T07:59:53.791469195Z,0.00,-1.00,1.20,-0.20,0.40,0.80,4.80,3.00,4.20,3.40,4.60,5.60,6.80,5.80,,,,,,,,,,,,,,
1799999993798239676,2027-01-15T07:59:53.798239676Z,-2.40,-0.60,2.20,0.60,1.40,0.40,6.00,4.00,4.20,5.00,3.60,7.00,6.00,5.60,,,,,,,,,,,,,,
1799999993805010156,2027-01-15T07:59:53.805010156Z,-2.20,-0.20,2.20,1.00,0.80,-0.40,5.60,3.40,3.80,5.20,3.00,7.00,5.60,7.20,,,,,,,,,,,,,,
1799999993811780637,2027-01-15T07:59:53.811780637Z,-1.20,-0.20,0.80,1.80,-0.40,-0.40,3.80,3.00,3.40,4.20,3.00,5.60,6.20,8.00,,,,,,,,,,,,,,
1799999993818551118,2027-01-15T07:59:53.818551118Z,0.00,-0.20,-0.80,2.20,0.40,1.60,2.20,3.60,3.40,3.80,3.00,5.00,7.00,6.20,,,,,,,,,,,,,,
1799999993825321598,2027-01-15T07:59:53.825321598Z,0.20,0.40,-1.00,1.80,2.80,2.80,3.20,3.60,3.60,5.00,3.40,6.20,7.00,5.20,,,,,,,,,,,,,,
1799999993832092079,2027-01-15T07:59:53.832092079Z,0.20,-0.60,-0.20,0.80,2.20,1.60,4.60,3.60,4.40,5.00,4.80,5.40,7.20,7.20,,,,,,,,,,,,,,
1799999993838862560,2027-01-15T07:59:53.838862560Z,-0.20,-1.60,0.20,-0.40,-0.20,1.40,4.60,4.80,3.80,4.00,5.60,4.60,8.20,7.40,,,,,,,,,,,,,,
1799999993845633040,2027-01-15T07:59:53.845633040Z,-2.20,0.00,-1.00,-0.40,-0.60,1.80,4.00,5.20,2.60,3.80,5.80,6.40,7.80,5.40,,,,,,,,,,,,,,
1799999993852403521,2027-01-15T07:59:53.852403521Z,-1.80,0.40,-1.80,0.20,0.20,1.20,3.80,4.20,3.20,3.80,6.20,8.20,7.20,5.60,,,,,,,,,,,,,,
1799999993859174002,2027-01-15T07:59:53.859174002Z,-0.80,-1.40,-1.00,0.40,0.80,0.00,3.80,3.40,4.40,3.40,6.40,8.40,7.20,7.20,,,,,,,,,,,,,,
1799999993865944483,2027-01-15T07:59:53.865944483Z,0.40,-3.20,1.00,0.00,1.20,-0.20,4.00,3.60,4.00,2.60,6.00,7.40,7.60,8.40,,,,,,,,,,,,,,
1799999993872714963,2027-01-15T07:59:53.872714963Z,0.00,-1.80,1.80,0.00,0.00,1.20,3.20,4.80,2.80,2.80,5.20,6.00,7.00,8.00,,,,,,,,,,,,,,
1799999993879485444,2027-01-15T07:59:53.879485444Z,-1.00,1.40,0.20,1.20,-2.00,1.80,1.80,6.00,3.40,3.80,4.40,5.40,6.20,7.40,,,,,,,,,,,,,,
1799999993886255925,2027-01-15T07:59:53.886255925Z,-0.60,0.00,0.20,1.60,-1.60,0.40,2.00,6.00,5.40,4.80,3.60,5.80,6.20,7.80,,,,,,,,,,,,,,
1799999993893026405,2027-01-15T07:59:53.893026405Z,0.60,-3.40,1.40,1.40,0.20,0.20,3.00,4.80,5.60,4.80,3.80,6.60,6.00,8.00,,,,,,,,,,,,,,
1799999993899796886,2027-01-15T07:59:53.899796886Z,0.60,-4.00,1.40,2.20,-0.40,1.40,3.00,3.60,5.00,4.40,4.20,7.20,5.00,7.60,,,,,,,,,,,,,,
1799999993906567367,2027-01-15T07:59:53.906567367Z,-0.60,-2.40,1.00,2.80,-1.60,2.40,2.60,2.60,5.00,4.80,4.20,7.00,4.60,7.60,,,,,,,,,,,,,,
1799999993913337847,2027-01-15T07:59:53.913337847Z,-1.60,-1.40,0.40,1.60,-0.40,3.00,2.00,2.60,4.00,5.20,3.80,6.60,5.00,7.20,,,,,,,,,,,,,,
1799999993920108328,2027-01-15T07:59:53.920108328Z,-0.60,-0.80,-0.60,0.00,3.20,2.60,1.40,2.60,2.60,5.00,4.00,6.40,6.20,7.00,,,,,,,,,,,,,,
1799999993926878809,2027-01-15T07:59:53.926878809Z,,0.60,-1.80,0.60,4.00,2.20,1.60,2.00,2.40,4.60,5.20,6.20,6.60,8.00,,,,,,,,,,,,,,
1799999993933649290,2027-01-15T07:59:53.933649290Z,,1.40,-1.40,0.40,1.40,2.40,2.80,1.40,4.20,4.60,5.40,5.20,6.80,8.20,,,,,,,,,,,,,,
1799999993940419770,2027-01-15T07:59:53.940419770Z,-1.20,0.60,0.60,-0.80,1.00,2.60,2.00,1.40,5.20,4.40,4.00,4.60,8.00,6.20,,,,,,,,,,,,,,
1799999993947190251,2027-01-15T07:59:53.947190251Z,-1.60,-0.20,0.80,-0.40,1.80,2.80,0.20,2.80,4.20,5.00,3.40,5.00,8.00,6.00,,,,,,,,,,,,,,
1799999993953960732,2027-01-15T07:59:53.953960732Z,-3.00,-0.80,-0.60,0.60,1.40,2.80,0.00,4.00,3.40,6.20,4.20,5.20,7.40,8.00,,,,,,,,,,,,,,
1799999993960731212,2027-01-15T07:59:53.960731212Z,-1.20,-1.20,-1.00,0.60,1.00,2.80,1.20,3.80,3.20,7.20,5.00,4.80,7.20,10.20,,,,,,,,,,,,,,
1799999993967501693,2027-01-15T07:59:53.967501693Z,-1.00,-1.80,1.00,-0.40,1.00,3.00,1.20,2.60,3.60,7.40,4.60,3.80,6.80,9.60,,,,,,,,,,,,,,
1799999993974272174,2027-01-15T07:59:53.974272174Z,0.20,-1.80,3.40,-1.20,1.80,3.40,0.00,1.40,5.00,5.80,3.80,2.40,5.80,6.60,,,,,,,,,,,,,,
1799999993981042655,2027-01-15T07:59:53.981042655Z,0.00,-0.40,2.20,0.40,1.80,2.40,0.40,1.40,5.60,4.00,4.60,3.40,4.60,5.40,,,,,,,,,,,,,,
1799999993987813135,2027-01-15T07:59:53.987813135Z,-1.80,0.60,-1.20,2.60,0.80,1.20,3.00,2.20,3.40,3.60,5.20,6.80,4.40,6.80,,,,,,,,,,,,,,
1799999993994583616,2027-01-15T07:59:53.994583616Z,0.00,0.00,-2.00,2.40,-0.40,1.40,4.20,4.20,2.00,4.60,4.60,7.60,6.20,6.40,,,,,,,,,,,,,,
1799999994001354097,2027-01-15T07:59:54.001354097Z,0.40,-0.60,0.20,1.20,-1.40,2.60,2.60,5.20,4.20,4.40,5.60,4.80,7.80,5.00,,,,,,,,,,,,,,
1799999994008124577,2027-01-15T07:59:54.008124577Z,-1.20,-0.40,1.40,1.20,-0.40,3.60,1.80,4.00,5.80,4.00,7.40,3.60,7.20,5.00,,,,,,,,,,,,,,
1799999994014895058,2027-01-15T07:59:54.014895058Z,-3.80,-0.40,1.00,2.40,0.80,4.20,2.20,2.00,5.20,4.00,9.20,5.00,6.00,6.00,,,,,,,,,,,,,,
1799999994021665539,2027-01-15T07:59:54.021665539Z,-1.20,-0.40,0.60,2.60,1.60,2.60,2.40,1.20,4.20,4.40,9.20,7.00,5.80,7.40,,,,,,,,,,,,,,
1799999994028436019,2027-01-15T07:59:54.028436019Z,-0.40,-1.20,0.20,1.40,1.20,-0.20,1.60,2.80,3.40,4.00,6.40,6.60,6.80,8.00,,,,,,,,,,,,,,
1799999994035206500,2027-01-15T07:59:54.035206500Z,0.80,-1.00,-1.60,0.80,2.20,0.40,1.40,2.40,3.00,4.00,4.60,4.40,6.80,6.80,,,,,,,,,,,,,,
1799999994041976981,2027-01-15T07:59:54.041976981Z,-1.60,-1.00,-3.20,1.60,2.80,3.60,1.60,1.40,3.60,3.80,5.80,4.80,6.20,6.80,,,,,,,,,,,,,,
1799999994048747462,2027-01-15T07:59:54.048747462Z,-2.00,-3.40,-2.20,1.00,1.60,5.00,1.00,4.00,4.40,3.60,5.60,6.00,7.20,7.40,,,,,,,,,,,,,,
1799999994055517942,2027-01-15T07:59:54.055517942Z,-2.20,-5.20,-0.60,0.00,1.20,3.80,1.20,5.80,4.20,5.00,3.40,5.80,7.60,7.00,,,,,,,,,,,,,,
1799999994062288423,2027-01-15T07:59:54.062288423Z,-3.00,-4.20,-0.40,0.20,2.00,2.80,2.00,4.60,3.40,6.60,2.20,5.80,6.40,6.60,,,,,,,,,,,,,,
1799999994069058904,2027-01-15T07:59:54.069058904Z,-3.20,-2.20,-0.80,0.80,2.60,3.00,2.60,3.60,3.60,7.20,3.80,7.00,5.20,7.00,,,,,,,,,,,,,,
1799999994075829384,2027-01-15T07:59:54.075829384Z,-1.40,-0.40,-0.60,1.00,1.20,2.80,2.00,5.00,4.60,5.80,6.20,8.20,5.40,8.00,,,,,,,,,,,,,,
1799999994082599865,2027-01-15T07:59:54.082599865Z,0.40,-0.40,0.80,-0.20,-0.80,1.40,1.40,4.80,4.20,6.20,5.60,7.60,5.60,7.60,,,,,,,,,,,,,,
1799999994089370346,2027-01-15T07:59:54.089370346Z,-0.40,-0.80,1.00,-1.60,0.20,1.60,2.40,2.00,3.40,6.60,4.00,6.40,6.20,6.40,,,,,,,,,,,,,,
1799999994096140826,2027-01-15T07:59:54.096140826Z,-3.20,0.00,-0.20,-1.00,2.60,3.20,2.80,2.20,3.40,3.80,5.40,5.20,8.40,5.40,,,,,,,,,,,,,,
1799999994102911307,2027-01-15T07:59:54.102911307Z,-1.60,1.00,-1.00,0.60,4.20,3.60,2.20,4.80,3.60,3.00,6.80,4.60,9.00,5.00,,,,,,,,,,,,,,
1799999994109681788,2027-01-15T07:59:54.109681788Z,-1.20,0.60,-1.40,1.60,3.60,3.80,2.60,5.20,3.20,5.80,5.80,5.40,7.00,5.40,,,,,,,,,,,,,,
1799999994116452269,2027-01-15T07:59:54.116452269Z,-2.00,-0.20,-1.80,1.40,2.20,4.20,3.80,3.80,2.80,8.00,4.20,6.20,5.20,5.80,,,,,,,,,,,,,,
1799999994123222749,2027-01-15T07:59:54.123222749Z,-2.40,0.20,-1.80,1.00,0.80,4.00,4.00,1.80,3.20,7.60,3.40,6.00,5.60,6.00,,,,,,,,,,,,,,
1799999994129993230,2027-01-15T07:59:54.129993230Z,-1.60,1.00,-0.80,0.80,0.60,3.20,2.20,2.00,5.40,4.60,3.80,4.80,6.00,5.80,,,,,,,,,,,,,,
1799999994136763711,2027-01-15T07:59:54.136763711Z,-1.20,0.00,0.40,1.00,1.80,3.00,1.20,5.00,7.80,2.20,2.20,5.00,4.60,6.40,,,,,,,,,,,,,,
1799999994143534191,2027-01-15T07:59:54.143534191Z,-1.40,-0.60,0.00,-0.60,1.80,2.00,2.20,4.80,7.60,1.60,0.80,5.00,5.40,6.80,,,,,,,,,,,,,,
1799999994150304672,2027-01-15T07:59:54.150304672Z,-2.00,-0.40,-1.20,-2.00,0.00,1.60,3.40,1.80,5.60,2.20,2.80,3.80,6.80,7.20,,,,,,,,,,,,,,
1799999994157075153,2027-01-15T07:59:54.157075153Z,-3.60,-0.80,-1.80,-1.00,-1.00,2.80,3.40,0.60,4.00,2.60,5.20,3.80,5.80,7.80,,,,,,,,,,,,,,
1799999994163845634,2027-01-15T07:59:54.163845634Z,-2.60,-1.20,-1.00,1.00,-0.40,4.00,3.00,2.00,3.40,2.60,5.60,5.20,4.20,8.00,,,,,,,,,,,,,,
1799999994170616114,2027-01-15T07:59:54.170616114Z,-0.60,-0.80,0.00,1.80,1.00,3.00,2.40,3.80,2.80,2.40,4.40,6.40,4.00,6.60,,,,,,,,,,,,,,
1799999994177386595,2027-01-15T07:59:54.177386595Z,-0.40,-0.20,0.00,1.20,1.80,0.40,2.80,4.60,2.40,2.80,3.80,6.20,5.80,5.00,,,,,,,,,,,,,,
1799999994184157076,2027-01-15T07:59:54.184157076Z,-1.80,-1.00,-1.00,2.00,1.20,-0.60,3.80,2.80,3.00,3.40,5.00,4.60,6.40,5.60,,,,,,,,,,,,,,
1799999994190927556,2027-01-15T07:59:54.190927556Z,-1.00,-2.00,-2.00,3.00,0.40,0.80,3.80,2.00,4.40,3.80,5.80,4.60,5.20,6.00,,,,,,,,,,,,,,
1799999994197698037,2027-01-15T07:59:54.197698037Z,-0.60,-1.80,-1.40,2.40,-0.60,1.80,2.80,3.00,5.40,4.20,6.40,5.80,5.80,6.00,,,,,,,,,,,,,,
1799999994204468518,2027-01-15T07:59:54.204468518Z,0.60,-0.40,0.00,1.20,-0.60,1.40,3.40,2.40,5.00,3.60,7.00,5.40,6.40,5.80,,,,,,,,,,,,,,
1799999994211238998,2027-01-15T07:59:54.211238998Z,0.20,1.00,1.00,0.60,0.60,1.00,4.60,1.00,3.80,3.40,6.60,4.80,5.00,5.60,,,,,,,,,,,,,,
1799999994218009479,2027-01-15T07:59:54.218009479Z,0.20,2.00,1.20,0.40,1.80,0.80,4.80,0.60,2.80,4.20,6.20,5.20,3.00,5.80,,,,,,,,,,,,,,
1799999994224779960,2027-01-15T07:59:54.224779960Z,0.60,2.00,1.00,1.60,1.80,0.60,3.20,2.60,3.20,4.60,5.40,5.60,3.00,6.80,,,,,,,,,,,,,,
1799999994231550441,2027-01-15T07:59:54.231550441Z,0.20,0.60,1.20,1.60,0.80,0.80,1.20,4.80,4.80,3.40,4.20,5.00,5.80,7.80,,,,,,,,,,,,,,
1799999994238320921,2027-01-15T07:59:54.238320921Z,-0.20,-0.40,1.80,-0.80,1.00,0.80,2.20,3.80,4.60,2.00,1.80,4.20,7.60,7.60,,,,,,,,,,,,,,
1799999994245091402,2027-01-15T07:59:54.245091402Z,-0.40,-1.20,0.20,-1.00,1.80,0.20,4.40,3.40,2.40,3.40,1.00,4.60,5.80,7.00,,,,,,,,,,,,,,
1799999994251861883,2027-01-15T07:59:54.251861883Z,-1.40,-2.20,-1.40,0.80,2.20,0.40,3.20,4.80,2.00,5.20,3.20,5.00,5.40,6.60,,,,,,,,,,,,,,
1799999994258632363,2027-01-15T07:59:54.258632363Z,-1.40,-2.20,-1.00,0.60,2.00,1.60,1.40,4.80,3.00,4.80,5.00,5.60,6.80,7.00,,,,,,,,,,,,,,
1799999994265402844,2027-01-15T07:59:54.265402844Z,0.40,-1.80,0.20,-0.60,2.00,2.80,1.60,4.00,3.60,4.00,5.60,7.00,7.80,7.80,,,,,,,,,,,,,,
1799999994272173325,2027-01-15T07:59:54.272173325Z,0.20,-2.60,0.40,-0.80,1.60,2.00,3.40,4.40,4.00,3.20,5.60,8.60,7.60,7.60,,,,,,,,,,,,,,
1799999994278943806,2027-01-15T07:59:54.278943806Z,-2.20,-1.80,-0.20,1.00,1.80,0.20,4.00,5.60,3.40,2.80,6.40,8.80,6.60,6.60,,,,,,,,,,,,,,
1799999994285714286,2027-01-15T07:59:54.285714286Z,-2.20,1.00,0.80,1.60,1.40,0.00,2.20,5.20,2.20,3.00,7.60,7.00,5.40,5.80,,,,,,,,,,,,,,
1799999994292484767,2027-01-15T07:59:54.292484767Z,-0.60,0.60,1.00,0.20,0.40,1.00,2.80,3.20,2.80,3.80,7.00,5.20,3.80,5.20,,,,,,,,,,,,,,
1799999994299255248,2027-01-15T07:59:54.299255248Z,-0.40,-1.20,-1.20,-0.40,0.80,1.20,3.80,1.60,5.20,4.80,5.60,5.40,3.40,5.00,,,,,,,,,,,,,,
1799999994306025728,2027-01-15T07:59:54.306025728Z,-0.40,-1.00,-3.00,0.00,1.40,0.40,1.80,1.40,6.20,5.80,5.00,6.40,4.80,6.40,,,,,,,,,,,,,,
1799999994312796209,2027-01-15T07:59:54.312796209Z,-0.40,-0.80,-2.60,0.00,0.60,0.20,-0.40,2.00,5.00,6.80,5.20,7.00,6.00,8.00,,,,,,,,,,,,,,
1799999994319566690,2027-01-15T07:59:54.319566690Z,-1.80,-1.60,-2.20,0.20,0.00,1.40,-0.60,2.40,3.80,7.80,5.00,7.00,7.00,9.00,,,,,,,,,,,,,,
1799999994326337170,2027-01-15T07:59:54.326337170Z,-3.40,-1.80,-1.80,0.80,2.40,3.40,1.20,2.20,3.40,7.00,3.80,7.80,7.40,8.80,,,,,,,,,,,,,,
1799999994333107651,2027-01-15T07:59:54.333107651Z,-2.40,-0.80,-2.00,1.40,5.80,4.60,3.40,1.40,4.20,5.20,2.60,8.80,6.80,7.40,,,,,,,,,,,,,,
1799999994339878132,2027-01-15T07:59:54.339878132Z,1.60,-1.40,-1.20,1.80,4.60,2.80,4.20,0.80,5.20,4.40,3.40,8.00,6.00,6.00,,,,,,,,,,,,,,
1799999994346648613,2027-01-15T07:59:54.346648613Z,0.80,-2.80,0.00,2.00,1.40,1.40,4.40,2.80,6.20,5.20,4.80,6.40,5.80,5.80,,,,,,,,,,,,,,
1799999994353419093,2027-01-15T07:59:54.353419093Z,0.60,-2.40,1.00,1.40,0.80,3.00,4.20,4.40,5.60,4.60,5.80,5.40,6.00,7.60,,,,,,,,,,,,,,
1799999994360189574,2027-01-15T07:59:54.360189574Z,-0.60,-1.40,1.00,1.40,1.60,3.40,3.40,3.20,3.80,3.20,6.20,4.40,6.40,8.80,,,,,,,,,,,,,,
1799999994366960055,2027-01-15T07:59:54.366960055Z,-0.20,-0.80,0.60,2.20,1.40,2.20,3.00,1.60,2.40,2.20,6.20,3.60,6.80,8.20,,,,,,,,,,,,,,
1799999994373730535,2027-01-15T07:59:54.373730535Z,1.20,-0.20,-0.40,2.80,1.00,1.80,3.00,0.60,2.00,3.20,5.80,3.00,6.40,7.40,,,,,,,,,,,,,,
1799999994380501016,2027-01-15T07:59:54.380501016Z,-0.60,0.80,0.20,3.20,1.40,2.40,3.80,0.40,3.20,5.40,4.80,4.60,5.40,7.60,,,,,,,,,,,,,,
1799999994387271497,2027-01-15T07:59:54.387271497Z,-0.80,1.40,1.40,3.40,2.40,2.60,4.60,1.20,3.60,5.80,4.40,6.60,5.60,8.60,,,,,,,,,,,,,,
1799999994394041977,2027-01-15T07:59:54.394041977Z,-1.00,1.20,0.60,3.40,2.20,2.40,3.80,3.00,3.80,4.20,5.60,6.20,7.20,7.80,,,,,,,,,,,,,,
1799999994400812458,2027-01-15T07:59:54.400812458Z,-0.80,1.40,-0.80,2.40,1.00,2.40,3.20,4.40,3.40,4.20,6.20,5.60,7.60,6.60,,,,,,,,,,,,,,
1799999994407582939,2027-01-15T07:59:54.407582939Z,-0.40,-0.40,-1.40,0.60,0.80,1.60,4.00,3.80,2.20,5.40,5.00,6.80,7.20,7.20,,,,,,,,,,,,,,
1799999994414353420,2027-01-15T07:59:54.414353420Z,0.40,-2.40,-0.60,-0.60,1.80,0.80,3.20,3.00,1.80,4.60,4.20,7.80,8.40,7.60,,,,,,,,,,,,,,
1799999994421123900,2027-01-15T07:59:54.421123900Z,0.80,-2.60,0.60,0.00,2.60,0.40,0.80,2.60,2.60,3.00,4.60,7.20,9.60,6.40,,,,,,,,,,,,,,
1799999994427894381,2027-01-15T07:59:54.427894381Z,2.60,-1.40,1.60,1.00,1.60,0.00,-0.40,2.20,3.20,2.60,5.60,6.00,9.40,3.80,,,,,,,,,,,,,,
1799999994434664862,2027-01-15T07:59:54.434664862Z,-0.20,-0.40,0.80,1.40,0.00,-0.20,1.80,1.40,2.80,4.60,6.00,5.80,7.40,2.20,,,,,,,,,,,,,,
1799999994441435342,2027-01-15T07:59:54.441435342Z,-0.80,-0.60,-0.60,0.80,0.60,1.00,3.40,0.40,2.80,6.00,6.40,7.00,5.80,4.20,,,,,,,,,,,,,,
1799999994448205823,2027-01-15T07:59:54.448205823Z,-1.40,-0.60,-0.40,0.60,2.60,2.80,1.60,-0.20,3.80,4.80,7.00,6.60,5.40,6.00,,,,,,,,,,,,,,
1799999994454976304,2027-01-15T07:59:54.454976304Z,-2.80,-1.40,-0.20,-0.20,2.00,3.60,1.20,1.00,3.60,3.60,5.80,4.80,6.00,6.60,,,,,,,,,,,,,,
1799999994461746785,2027-01-15T07:59:54.461746785Z,,-2.20,-0.60,-0.80,0.40,2.40,2.80,2.80,3.20,2.60,4.40,3.80,6.80,7.40,,,,,,,,,,,,,,
1799999994468517265,2027-01-15T07:59:54.468517265Z,,-2.80,-0.60,-0.20,-0.20,1.20,3.40,4.20,3.60,2.60,3.40,4.80,7.20,8.60,,,,,,,,,,,,,,
1799999994475287746,2027-01-15T07:59:54.475287746Z,-2.80,-2.40,-0.20,0.60,0.40,0.60,2.80,5.00,4.20,3.60,3.80,6.80,6.40,9.00,,,,,,,,,,,,,,
1799999994482058227,2027-01-15T07:59:54.482058227Z,-2.80,-1.20,-1.00,0.40,1.80,1.00,3.20,4.80,4.00,4.80,5.00,7.80,5.60,8.00,,,,,,,,,,,,,,
1799999994488828707,2027-01-15T07:59:54.488828707Z,-1.40,-1.00,-2.00,-0.40,1.40,0.80,5.00,4.60,3.20,5.00,5.40,5.60,6.80,8.00,,,,,,,,,,,,,,
1799999994495599188,2027-01-15T07:59:54.495599188Z,-0.40,-1.20,-1.00,0.80,-1.40,0.00,4.00,4.00,3.60,5.80,5.60,3.40,7.60,8.80,,,,,,,,,,,,,,
1799999994502369669,2027-01-15T07:59:54.502369669Z,-0.60,-0.60,0.20,1.00,-2.60,0.60,1.80,3.40,4.20,7.80,6.20,4.60,6.00,7.60,,,,,,,,,,,,,,
1799999994509140149,2027-01-15T07:59:54.509140149Z,-3.20,-0.80,-1.40,-0.40,-0.20,1.80,2.20,4.20,3.40,8.60,5.20,6.20,6.60,7.00,,,,,,,,,,,,,,
1799999994515910630,2027-01-15T07:59:54.515910630Z,-4.20,-1.40,-3.20,-0.80,1.80,1.80,3.40,4.80,2.80,6.80,3.80,6.20,8.40,7.80,,,,,,,,,,,,,,
1799999994522681111,2027-01-15T07:59:54.522681111Z,-1.40,-1.40,-4.00,0.00,1.40,1.40,3.60,4.60,2.80,4.60,3.80,5.80,9.20,8.00,,,,,,,,,,,,,,
1799999994529451592,2027-01-15T07:59:54.529451592Z,-1.00,-1.40,-3.20,0.20,0.60,1.00,3.80,4.00,2.40,2.20,4.80,5.80,8.20,6.60,,,,,,,,,,,,,,
1799999994536222072,2027-01-15T07:59:54.536222072Z,0.80,-1.60,-1.80,-1.00,1.20,1.40,4.00,3.20,1.40,1.60,5.80,6.60,7.80,5.40,,,,,,,,,,,,,,
1799999994542992553,2027-01-15T07:59:54.542992553Z,-1.60,-1.40,0.20,-1.80,2.00,1.80,3.40,3.40,2.00,3.00,4.80,6.00,8.40,6.20,,,,,,,,,,,,,,
1799999994549763034,2027-01-15T07:59:54.549763034Z,-0.20,-0.80,1.00,-0.40,0.20,1.40,2.80,3.40,3.00,3.80,4.00,4.00,6.40,6.60,,,,,,,,,,,,,,
1799999994556533514,2027-01-15T07:59:54.556533514Z,0.00,-1.00,-0.80,1.40,-0.40,1.00,4.00,2.20,3.40,3.80,5.60,3.60,3.60,6.20,,,,,,,,,,,,,,
1799999994563303995,2027-01-15T07:59:54.563303995Z,0.80,-1.80,-1.60,2.40,1.40,1.40,4.80,2.00,4.40,4.60,6.80,4.80,3.20,6.60,,,,,,,,,,,,,,
1799999994570074476,2027-01-15T07:59:54.570074476Z,0.80,-3.00,-0.60,2.00,3.00,1.80,3.80,3.40,5.60,5.80,5.80,5.80,5.00,7.00,,,,,,,,,,,,,,
1799999994576844956,2027-01-15T07:59:54.576844956Z,-0.40,-3.00,0.80,1.20,1.20,2.20,1.00,5.20,5.60,6.40,3.80,5.20,6.60,6.20,,,,,,,,,,,,,,
1799999994583615437,2027-01-15T07:59:54.583615437Z,-0.60,-0.80,0.60,0.80,-2.60,1.00,-1.20,5.00,3.00,4.60,3.60,5.60,7.80,4.80,,,,,,,,,,,,,,
1799999994590385918,2027-01-15T07:59:54.590385918Z,-3.40,-0.20,-0.80,0.40,-2.00,-0.40,0.20,4.00,2.20,2.20,5.20,8.20,7.40,5.40,,,,,,,,,,,,,,
1799999994597156399,2027-01-15T07:59:54.597156399Z,-1.60,-1.60,-0.20,-0.40,0.80,1.00,1.80,4.60,5.40,2.40,5.40,7.80,6.40,6.80,,,,,,,,,,,,,,
1799999994603926879,2027-01-15T07:59:54.603926879Z,-1.40,-1.60,1.00,1.20,0.40,3.80,1.40,2.60,7.00,5.20,4.40,4.60,5.80,8.20,,,,,,,,,,,,,,
1799999994610697360,2027-01-15T07:59:54.610697360Z,-3.00,-0.60,0.80,3.20,0.20,4.60,2.60,0.20,4.80,7.60,3.60,3.00,5.40,8.00,,,,,,,,,,,,,,
1799999994617467841,2027-01-15T07:59:54.617467841Z,-1.60,-0.40,0.00,2.60,1.80,3.00,4.00,0.00,3.20,7.00,3.20,3.80,5.60,6.60,,,,,,,,,,,,,,
1799999994624238321,2027-01-15T07:59:54.624238321Z,0.20,-0.60,-0.40,0.60,2.80,1.00,3.80,0.80,4.00,4.80,3.20,4.40,6.40,5.20,,,,,,,,,,,,,,
1799999994631008802,2027-01-15T07:59:54.631008802Z,0.00,-1.00,-0.60,-0.60,2.80,-0.40,2.60,1.80,4.60,3.00,4.20,5.00,7.00,4.20,,,,,,,,,,,,,,
1799999994637779283,2027-01-15T07:59:54.637779283Z,-1.00,-0.80,0.40,-0.40,1.80,0.20,1.60,2.80,3.40,3.00,5.00,6.00,6.20,5.20,,,,,,,,,,,,,,
1799999994644549764,2027-01-15T07:59:54.644549764Z,-0.80,-0.20,1.00,-0.60,1.40,1.40,2.40,3.40,2.20,4.40,3.80,6.00,5.00,6.20,,,,,,,,,,,,,,
1799999994651320244,2027-01-15T07:59:54.651320244Z,-0.80,-1.40,-0.20,-1.40,0.40,1.20,3.40,3.20,3.00,5.40,4.00,4.60,5.00,6.40,,,,,,,,,,,,,,
1799999994658090725,2027-01-15T07:59:54.658090725Z,-1.20,-1.40,-1.20,-0.20,-0.60,1.40,3.20,3.00,3.00,5.00,5.80,4.40,5.60,7.00,,,,,,,,,,,,,,
1799999994664861206,2027-01-15T07:59:54.664861206Z,0.20,0.40,-0.80,0.80,0.20,3.00,3.00,2.20,2.80,3.80,5.80,5.60,5.40,6.60,,,,,,,,,,,,,,
1799999994671631686,2027-01-15T07:59:54.671631686Z,0.80,1.40,-1.00,0.80,1.20,3.40,3.60,1.80,4.00,4.20,4.60,6.00,4.40,5.40,,,,,,,,,,,,,,
1799999994678402167,2027-01-15T07:59:54.678402167Z,0.80,1.00,-1.80,1.00,0.60,2.00,4.00,2.40,4.80,6.00,4.40,5.20,3.60,4.40,,,,,,,,,,,,,,
1799999994685172648,2027-01-15T07:59:54.685172648Z,0.40,0.40,-2.00,2.00,-0.20,0.20,3.40,3.40,4.80,7.60,5.60,4.60,3.60,4.80,,,,,,,,,,,,,,
1799999994691943128,2027-01-15T07:59:54.691943128Z,-3.00,-0.60,-1.80,2.60,0.80,1.00,3.00,4.00,4.80,6.20,6.80,5.40,5.40,6.80,,,,,,,,,,,,,,
1799999994698713609,2027-01-15T07:59:54.698713609Z,-0.40,-1.80,-2.00,2.20,3.40,3.40,2.60,3.40,5.80,3.80,6.20,6.40,6.80,9.00,,,,,,,,,,,,,,
1799999994705484090,2027-01-15T07:59:54.705484090Z,0.40,-1.40,-1.80,1.80,3.60,2.80,0.80,3.20,5.80,4.00,5.40,7.40,6.40,9.40,,,,,,,,,,,,,,
1799999994712254571,2027-01-15T07:59:54.712254571Z,-0.20,1.00,-1.00,0.40,2.00,1.60,1.00,3.40,5.40,5.40,4.80,7.60,7.00,7.60,,,,,,,,,,,,,,
1799999994719025051,2027-01-15T07:59:54.719025051Z,-0.40,3.00,-0.60,-1.20,1.60,2.40,3.20,3.00,6.20,4.80,4.80,6.80,7.60,6.20,,,,,,,,,,,,,,
1799999994725795532,2027-01-15T07:59:54.725795532Z,-0.40,3.00,-0.60,-2.60,2.40,4.00,5.00,2.20,6.60,4.00,4.80,5.80,7.20,6.20,,,,,,,,,,,,,,
1799999994732566013,2027-01-15T07:59:54.732566013Z,-0.60,2.20,0.40,-2.40,2.40,4.60,4.00,2.60,5.40,3.00,5.20,4.20,7.20,6.40,,,,,,,,,,,,,,
1799999994739336493,2027-01-15T07:59:54.739336493Z,-1.20,1.20,1.60,-0.80,0.60,3.20,1.40,3.60,3.20,3.20,5.20,3.80,6.80,6.60,,,,,,,,,,,,,,
1799999994746106974,2027-01-15T07:59:54.746106974Z,-1.60,-0.40,0.80,-0.20,-0.40,1.80,1.60,3.00,2.40,4.20,5.40,5.00,6.20,6.60,,,,,,,,,,,,,,
1799999994752877455,2027-01-15T07:59:54.752877455Z,-2.60,-1.20,-0.80,1.40,1.80,2.00,2.40,1.80,3.40,4.80,5.60,5.80,6.80,6.00,,,,,,,,,,,,,,
1799999994759647936,2027-01-15T07:59:54.759647936Z,-1.80,0.40,-0.20,4.80,3.80,2.80,1.20,2.00,4.60,4.40,5.00,6.40,7.80,6.00,,,,,,,,,,,,,,
1799999994766418416,2027-01-15T07:59:54.766418416Z,1.80,1.40,1.20,5.80,2.80,3.00,1.20,2.20,5.00,4.00,4.40,7.60,7.60,7.40,,,,,,,,,,,,,,
1799999994773188897,2027-01-15T07:59:54.773188897Z,-0.60,0.00,1.60,4.00,1.20,2.00,1.80,1.80,4.60,3.80,4.40,8.00,7.80,8.80,,,,,,,,,,,,,,
1799999994779959378,2027-01-15T07:59:54.779959378Z,-1.00,-1.60,1.20,3.00,0.60,0.40,1.00,1.60,4.60,3.80,4.60,7.80,8.20,9.40,,,,,,,,,,,,,,
1799999994786729858,2027-01-15T07:59:54.786729858Z,-2.60,-3.00,1.80,2.60,0.60,-0.60,0.40,2.20,4.80,5.40,5.20,7.20,7.80,9.00,,,,,,,,,,,,,,
1799999994793500339,2027-01-15T07:59:54.793500339Z,0.40,-1.40,3.00,1.40,1.60,0.40,1.40,3.60,3.40,7.80,6.20,6.40,6.80,7.20,,,,,,,,,,,,,,
1799999994800270820,2027-01-15T07:59:54.800270820Z,0.20,1.40,2.40,-0.20,2.80,1.80,3.20,4.60,1.00,8.80,5.60,7.00,7.20,5.60,,,,,,,,,,,,,,
1799999994807041300,2027-01-15T07:59:54.807041300Z,-0.40,0.20,0.80,-0.60,1.80,2.20,3.20,3.60,0.80,6.40,4.20,8.00,8.20,6.00,,,,,,,,,,,,,,
1799999994813811781,2027-01-15T07:59:54.813811781Z,-0.60,-2.20,0.60,0.20,0.00,1.00,2.40,2.20,2.60,3.80,3.40,6.60,7.40,7.20,,,,,,,,,,,,,,
1799999994820582262,2027-01-15T07:59:54.820582262Z,-0.40,-0.80,1.40,1.40,0.40,-0.40,2.80,3.00,4.20,3.60,3.60,4.80,6.00,7.20,,,,,,,,,,,,,,
1799999994827352743,2027-01-15T07:59:54.827352743Z,1.00,1.60,1.40,2.80,2.60,-1.00,3.20,4.20,5.80,5.20,3.80,3.80,5.40,6.40,,,,,,,,,,,,,,
1799999994834123223,2027-01-15T07:59:54.834123223Z,-1.00,2.60,0.20,2.40,5.00,0.80,2.40,4.20,7.20,6.60,4.60,4.00,6.20,6.20,,,,,,,,,,,,,,
1799999994840893704,2027-01-15T07:59:54.840893704Z,-1.20,0.80,-1.00,0.60,4.00,3.20,1.20,3.00,7.20,5.40,5.40,5.20,7.80,7.20,,,,,,,,,,,,,,
1799999994847664185,2027-01-15T07:59:54.847664185Z,0.80,-0.20,-1.00,-0.60,1.40,2.20,0.80,3.80,6.00,3.00,5.00,5.80,7.80,6.60,,,,,,,,,,,,,,
1799999994854434665,2027-01-15T07:59:54.854434665Z,1.00,1.00,-0.20,-0.20,0.80,1.00,0.80,4.40,5.00,2.80,4.20,5.80,6.00,5.80,,,,,,,,,,,,,,
1799999994861205146,2027-01-15T07:59:54.861205146Z,0.80,0.80,0.60,-0.40,1.00,2.40,-1.00,2.20,3.40,3.80,4.20,5.60,5.20,6.60,,,,,,,,,,,,,,
1799999994867975627,2027-01-15T07:59:54.867975627Z,-1.00,0.20,0.00,0.40,0.80,2.60,-1.40,2.20,2.00,3.00,3.80,5.80,5.40,7.00,,,,,,,,,,,,,,
1799999994874746107,2027-01-15T07:59:54.874746107Z,-0.60,0.60,-0.60,1.40,1.40,1.20,0.20,4.20,2.80,2.20,3.60,6.20,5.20,6.20,,,,,,,,,,,,,,
1799999994881516588,2027-01-15T07:59:54.881516588Z,0.40,0.80,0.00,2.00,1.80,0.60,1.20,5.20,4.40,2.20,3.80,6.20,5.40,5.80,,,,,,,,,,,,,,
1799999994888287069,2027-01-15T07:59:54.888287069Z,0.40,0.00,1.00,1.60,1.00,1.00,1.80,4.00,5.80,3.20,4.60,5.00,5.80,6.40,,,,,,,,,,,,,,
1799999994895057550,2027-01-15T07:59:54.895057550Z,0.00,-1.20,1.20,0.80,0.00,1.40,3.40,2.00,5.40,4.40,5.00,3.80,6.00,7.80,,,,,,,,,,,,,,
1799999994901828030,2027-01-15T07:59:54.901828030Z,-1.60,-2.00,1.20,1.20,0.80,0.40,5.60,2.60,3.80,4.60,4.20,4.20,6.00,9.20,,,,,,,,,,,,,,
1799999994908598511,2027-01-15T07:59:54.908598511Z,1.20,-2.20,2.60,1.00,1.80,0.80,5.60,4.60,2.60,4.00,3.60,5.40,5.80,8.80,,,,,,,,,,,,,,
1799999994915368992,2027-01-15T07:59:54.915368992Z,1.80,-2.60,3.20,-0.80,1.60,1.80,4.00,4.60,2.00,4.00,5.60,6.40,5.00,7.60,,,,,,,,,,,,,,
1799999994922139472,2027-01-15T07:59:54.922139472Z,3.20,-2.20,2.40,-2.20,1.80,2.00,3.80,3.40,2.40,4.60,7.80,7.60,4.80,6.80,,,,,,,,,,,,,,
1799999994928909953,2027-01-15T07:59:54.928909953Z,2.80,-1.80,1.20,-2.40,2.20,1.80,4.60,2.80,3.40,5.40,8.80,8.40,5.20,6.80,,,,,,,,,,,,,,
1799999994935680434,2027-01-15T07:59:54.935680434Z,1.20,-1.40,0.60,-1.40,2.00,1.40,3.80,3.20,4.60,5.00,7.20,8.20,5.20,7.00,,,,,,,,,,,,,,
1799999994942450915,2027-01-15T07:59:54.942450915Z,-0.40,-1.20,0.20,-0.20,0.60,1.80,2.80,2.60,5.00,4.40,5.00,5.80,4.60,7.20,,,,,,,,,,,,,,
1799999994949221395,2027-01-15T07:59:54.949221395Z,-0.80,-1.60,-0.80,-0.20,0.40,3.20,3.80,1.20,4.60,5.80,4.40,3.60,6.00,8.00,,,,,,,,,,,,,,
1799999994955991876,2027-01-15T07:59:54.955991876Z,-2.20,-2.20,-2.00,0.00,2.00,2.60,4.40,1.60,4.80,6.80,4.60,3.60,8.20,8.60,,,,,,,,,,,,,,
1799999994962762357,2027-01-15T07:59:54.962762357Z,0.80,-1.80,-2.60,0.60,2.00,0.80,3.60,2.60,4.00,3.60,4.00,3.20,8.00,8.00,,,,,,,,,,,,,,
1799999994969532837,2027-01-15T07:59:54.969532837Z,0.00,-0.80,-1.20,-0.60,0.00,1.40,4.00,1.80,3.40,1.60,3.60,3.00,7.80,7.20,,,,,,,,,,,,,,
1799999994976303318,2027-01-15T07:59:54.976303318Z,0.00,-0.40,0.20,-1.60,-0.80,3.20,4.40,1.40,3.80,3.00,3.40,4.20,8.60,7.20,,,,,,,,,,,,,,
1799999994983073799,2027-01-15T07:59:54.983073799Z,-1.40,-0.80,0.40,-1.00,0.40,3.80,4.20,2.40,4.60,5.00,3.40,5.60,8.60,7.40,,,,,,,,,,,,,,
1799999994989844279,2027-01-15T07:59:54.989844279Z,-1.60,-1.60,-0.40,-0.20,0.40,2.80,3.40,3.80,4.40,5.20,3.60,5.20,6.80,8.00,,,,,,,,,,,,,,
1799999994996614760,2027-01-15T07:59:54.996614760Z,-3.80,-1.60,-1.80,0.40,-1.60,1.00,2.60,5.00,3.40,4.00,3.40,4.00,5.60,9.20,,,,,,,,,,,,,,
1799999995003385241,2027-01-15T07:59:55.003385241Z,-3.40,-0.60,-1.40,0.60,-2.00,0.80,2.60,5.40,3.20,3.00,2.40,3.60,6.60,9.00,,,,,,,,,,,,,,
1799999995010155722,2027-01-15T07:59:55.010155722Z,,-0.40,0.80,1.00,-0.40,2.00,2.00,5.00,3.80,2.40,3.80,4.40,6.00,7.60,,,,,,,,,,,,,,
1799999995016926202,2027-01-15T07:59:55.016926202Z,-3.40,-0.20,1.80,0.80,-0.40,2.60,0.40,4.40,3.40,3.00,6.60,4.20,3.80,8.20,,,,,,,,,,,,,,
1799999995023696683,2027-01-15T07:59:55.023696683Z,-3.40,0.20,0.20,0.80,-0.60,2.20,-1.00,4.00,3.20,4.40,7.00,4.20,3.60,9.60,,,,,,,,,,,,,,
1799999995030467164,2027-01-15T07:59:55.030467164Z,-3.20,0.20,-1.40,0.80,-0.20,1.80,-1.20,3.40,3.20,5.80,5.20,5.20,4.80,8.80,,,,,,,,,,,,,,
1799999995037237644,2027-01-15T07:59:55.037237644Z,-1.20,-1.20,-2.00,1.20,0.00,1.40,0.20,1.60,3.00,5.60,3.20,6.40,5.20,7.00,,,,,,,,,,,,,,
1799999995044008125,2027-01-15T07:59:55.044008125Z,-1.40,-2.00,-0.40,0.00,0.00,1.20,1.60,0.00,2.60,4.20,3.20,7.40,4.20,6.20,,,,,,,,,,,,,,
1799999995050778606,2027-01-15T07:59:55.050778606Z,-2.00,-1.00,-0.20,-2.20,0.20,0.80,1.20,1.20,3.40,6.00,4.80,7.20,4.80,7.60,,,,,,,,,,,,,,
1799999995057549086,2027-01-15T07:59:55.057549086Z,-1.20,-0.60,-1.60,-1.80,-0.80,0.60,1.80,2.60,3.80,8.80,5.20,6.20,6.60,6.40,,,,,,,,,,,,,,
1799999995064319567,2027-01-15T07:59:55.064319567Z,-0.60,-1.40,-1.20,1.00,-1.00,1.00,2.80,2.60,2.80,6.60,4.80,5.20,6.20,4.60,,,,,,,,,,,,,,
1799999995071090048,2027-01-15T07:59:55.071090048Z,-0.80,-2.60,-0.20,1.40,1.20,1.20,2.60,2.00,3.20,4.20,5.20,5.20,6.00,5.80,,,,,,,,,,,,,,
1799999995077860529,2027-01-15T07:59:55.077860529Z,-1.20,-3.20,0.40,1.00,3.00,0.80,1.60,1.80,4.20,5.80,5.00,6.40,7.20,7.60,,,,,,,,,,,,,,
1799999995084631009,2027-01-15T07:59:55.084631009Z,-1.60,-2.60,0.40,2.40,2.80,0.40,1.00,1.80,4.80,8.00,4.60,7.40,8.20,8.00,,,,,,,,,,,,,,
1799999995091401490,2027-01-15T07:59:55.091401490Z,-1.40,-1.60,-0.40,4.00,2.20,1.20,1.00,1.80,3.80,6.40,3.80,6.60,7.60,7.60,,,,,,,,,,,,,,
1799999995098171971,2027-01-15T07:59:55.098171971Z,-1.40,-0.40,-1.20,2.20,2.20,3.00,1.40,1.00,2.60,2.60,4.20,5.00,6.80,6.60,,,,,,,,,,,,,,
1799999995104942451,2027-01-15T07:59:55.104942451Z,-2.40,0.00,0.20,-1.20,1.60,3.40,2.40,0.40,3.20,1.40,5.00,6.40,6.20,6.20,,,,,,,,,,,,,,
1799999995111712932,2027-01-15T07:59:55.111712932Z,-1.20,-0.40,1.80,-0.20,1.20,1.80,3.80,2.20,3.80,3.00,3.80,8.60,4.80,6.00,,,,,,,,,,,,,,
1799999995118483413,2027-01-15T07:59:55.118483413Z,-1.40,0.40,1.40,1.40,2.40,2.20,4.60,5.00,3.20,3.60,3.00,8.20,4.20,5.20,,,,,,,,,,,,,,
1799999995125253894,2027-01-15T07:59:55.125253894Z,-3.40,0.00,1.20,0.20,2.80,3.60,3.80,6.20,2.60,3.80,4.00,6.80,4.80,4.80,,,,,,,,,,,,,,
1799999995132024374,2027-01-15T07:59:55.132024374Z,-4.20,-1.20,1.60,-1.80,1.40,2.80,3.00,5.60,2.40,4.20,4.60,5.80,5.20,5.40,,,,,,,,,,,,,,
1799999995138794855,2027-01-15T07:59:55.138794855Z,-0.40,-1.80,0.40,-1.40,0.20,1.00,2.60,4.20,3.20,4.60,2.80,5.80,4.80,7.20,,,,,,,,,,,,,,
1799999995145565336,2027-01-15T07:59:55.145565336Z,0.00,-0.60,-1.80,0.60,0.40,0.00,3.20,2.80,4.20,4.60,1.60,7.00,5.20,9.00,,,,,,,,,,,,,,
1799999995152335816,2027-01-15T07:59:55.152335816Z,0.60,-0.20,-2.20,0.20,0.60,1.20,4.20,2.80,4.00,4.60,4.00,7.60,6.20,7.40,,,,,,,,,,,,,,
1799999995159106297,2027-01-15T07:59:55.159106297Z,-3.20,-0.20,-0.80,-0.80,-0.80,2.00,4.80,4.00,4.20,3.60,6.40,6.40,6.00,4.60,,,,,,,,,,,,,,
1799999995165876778,2027-01-15T07:59:55.165876778Z,0.40,1.20,-0.40,0.60,0.20,2.40,3.60,4.60,5.00,3.60,6.20,6.60,6.00,3.80,,,,,,,,,,,,,,
1799999995172647258,2027-01-15T07:59:55.172647258Z,0.20,1.00,-0.60,2.20,2.80,3.60,2.20,3.80,4.80,6.20,5.80,7.80,5.00,4.80,,,,,,,,,,,,,,
1799999995179417739,2027-01-15T07:59:55.179417739Z,0.20,-0.40,0.40,1.80,3.40,4.40,2.40,3.40,4.20,7.80,6.00,8.40,4.00,5.80,,,,,,,,,,,,,,
1799999995186188220,2027-01-15T07:59:55.186188220Z,-1.00,-1.00,1.60,1.40,2.20,4.00,2.80,3.40,4.00,6.40,5.60,8.00,4.80,6.20,,,,,,,,,,,,,,
1799999995192958701,2027-01-15T07:59:55.192958701Z,-2.40,-0.40,2.60,1.40,1.40,3.20,3.40,3.00,4.40,3.80,5.80,8.00,7.40,6.80,,,,,,,,,,,,,,
1799999995199729181,2027-01-15T07:59:55.199729181Z,-1.60,0.00,2.00,1.80,1.80,2.80,4.20,2.20,4.60,2.20,6.20,7.40,9.20,6.40,,,,,,,,,,,,,,
1799999995206499662,2027-01-15T07:59:55.206499662Z,-0.40,-1.20,-0.20,1.60,1.60,2.20,4.00,1.60,3.40,3.40,5.40,5.60,7.20,5.80,,,,,,,,,,,,,,
1799999995213270143,2027-01-15T07:59:55.213270143Z,-0.60,-2.00,-1.60,2.20,0.60,0.60,2.80,2.00,2.40,4.80,4.20,4.60,7.00,6.40,,,,,,,,,,,,,,
1799999995220040623,2027-01-15T07:59:55.220040623Z,,-1.60,-0.60,2.60,1.40,0.00,3.40,2.20,3.20,5.20,4.60,5.00,8.60,6.80,,,,,,,,,,,,,,
1799999995226811104,2027-01-15T07:59:55.226811104Z,-1.40,-1.40,-0.80,2.00,2.60,1.00,4.60,2.60,4.40,4.60,5.40,4.60,7.80,6.20,,,,,,,,,,,,,,
1799999995233581585,2027-01-15T07:59:55.233581585Z,-1.40,-1.40,-2.00,1.20,3.20,1.40,5.00,3.00,4.00,3.80,6.00,3.80,6.20,5.80,,,,,,,,,,,,,,
1799999995240352065,2027-01-15T07:59:55.240352065Z,,-1.00,-1.80,1.40,2.40,0.40,3.40,3.80,1.80,2.80,5.80,4.00,5.40,6.40,,,,,,,,,,,,,,
1799999995247122546,2027-01-15T07:59:55.247122546Z,,-0.60,-0.20,2.20,1.20,-0.80,1.40,3.40,0.80,2.80,5.20,5.60,6.80,8.00,,,,,,,,,,,,,,
1799999995253893027,2027-01-15T07:59:55.253893027Z,0.00,-1.00,0.60,0.80,0.00,0.60,2.20,3.20,4.00,4.60,5.00,7.40,7.60,8.00,,,,,,,,,,,,,,
1799999995260663508,2027-01-15T07:59:55.260663508Z,0.40,-1.20,0.20,-0.40,1.00,2.00,4.20,4.20,6.00,5.60,4.80,6.40,7.00,5.80,,,,,,,,,,,,,,
1799999995267433988,2027-01-15T07:59:55.267433988Z,1.20,-1.40,0.40,0.60,2.20,1.20,3.20,4.20,4.40,4.20,4.80,4.20,6.20,5.60,,,,,,,,,,,,,,
1799999995274204469,2027-01-15T07:59:55.274204469Z,-1.60,-1.80,0.00,1.20,0.40,1.40,0.40,3.20,3.00,4.40,5.60,4.40,5.40,7.40,,,,,,,,,,,,,,
1799999995280974950,2027-01-15T07:59:55.280974950Z,-4.60,-1.80,-0.60,0.20,-1.00,2.00,-0.80,3.20,2.80,6.20,6.00,6.00,4.60,7.20,,,,,,,,,,,,,,
1799999995287745430,2027-01-15T07:59:55.287745430Z,-4.40,-1.80,-0.60,-0.60,0.20,1.60,0.20,4.40,2.40,7.20,5.80,6.60,4.40,6.00,,,,,,,,,,,,,,
1799999995294515911,2027-01-15T07:59:55.294515911Z,-2.40,-1.00,-1.20,-0.40,1.40,2.00,2.20,5.40,3.40,5.20,5.40,5.00,5.00,5.60,,,,,,,,,,,,,,
1799999995301286392,2027-01-15T07:59:55.301286392Z,-2.00,0.20,-1.80,1.60,1.20,3.20,2.80,5.00,5.20,2.40,4.80,3.80,5.60,7.20,,,,,,,,,,,,,,
1799999995308056873,2027-01-15T07:59:55.308056873Z,-2.00,0.40,-0.80,3.60,0.80,2.40,1.20,4.40,5.60,3.20,4.40,5.80,5.80,7.40,,,,,,,,,,,,,,
1799999995314827353,2027-01-15T07:59:55.314827353Z,-1.00,-0.60,0.80,2.80,1.80,1.20,-0.40,4.60,4.20,4.00,4.20,6.80,7.40,5.80,,,,,,,,,,,,,,
1799999995321597834,2027-01-15T07:59:55.321597834Z,-0.60,-0.40,0.20,1.00,1.60,2.80,0.20,3.60,4.60,3.00,4.60,5.40,7.80,6.80,,,,,,,,,,,,,,
1799999995328368315,2027-01-15T07:59:55.328368315Z,0.20,0.60,-1.00,0.20,0.80,4.00,1.60,2.60,5.40,3.40,5.00,5.20,5.80,9.00,,,,,,,,,,,,,,
1799999995335138795,2027-01-15T07:59:55.335138795Z,-0.20,1.80,-1.00,0.20,1.40,3.00,3.00,2.40,4.40,4.60,5.00,6.00,3.60,10.00,,,,,,,,,,,,,,
1799999995341909276,2027-01-15T07:59:55.341909276Z,-0.80,2.20,-0.40,-1.00,2.60,1.20,3.00,2.60,3.20,4.80,5.40,6.60,4.60,8.80,,,,,,,,,,,,,,
1799999995348679757,2027-01-15T07:59:55.348679757Z,-0.40,1.00,-0.40,-2.40,2.60,0.20,2.20,3.20,3.00,3.80,6.20,6.40,8.20,5.80,,,,,,,,,,,,,,
1799999995355450237,2027-01-15T07:59:55.355450237Z,0.00,0.40,-1.40,-1.00,1.20,0.60,2.60,3.40,4.40,3.80,5.20,7.00,8.40,5.80,,,,,,,,,,,,,,
1799999995362220718,2027-01-15T07:59:55.362220718Z,0.00,1.20,-1.40,1.40,1.60,1.40,1.60,3.40,5.40,5.80,3.00,7.80,5.00,8.40,,,,,,,,,,,,,,
1799999995368991199,2027-01-15T07:59:55.368991199Z,-0.40,0.80,-0.80,1.60,1.20,2.60,1.20,3.60,5.40,7.60,3.20,6.80,5.00,7.80,,,,,,,,,,,,,,
1799999995375761680,2027-01-15T07:59:55.375761680Z,0.60,1.00,-0.80,0.40,-0.60,2.20,3.00,3.80,5.20,7.40,5.20,5.40,7.60,5.20,,,,,,,,,,,,,,
1799999995382532160,2027-01-15T07:59:55.382532160Z,2.00,1.80,-0.80,0.00,-0.80,1.40,3.20,3.20,5.80,5.60,6.60,4.60,7.80,4.20,,,,,,,,,,,,,,
1799999995389302641,2027-01-15T07:59:55.389302641Z,1.80,1.80,-0.60,0.60,0.40,2.40,1.20,2.40,6.20,3.80,7.20,4.40,6.60,5.20,,,,,,,,,,,,,,
1799999995396073122,2027-01-15T07:59:55.396073122Z,1.20,0.60,0.00,1.60,1.40,3.40,-0.20,1.60,4.80,2.60,7.00,5.20,6.80,6.60,,,,,,,,,,,,,,
1799999995402843602,2027-01-15T07:59:55.402843602Z,0.60,0.20,-0.20,2.00,0.40,2.20,1.40,1.60,2.40,2.80,6.20,6.60,8.00,7.40,,,,,,,,,,,,,,
1799999995409614083,2027-01-15T07:59:55.409614083Z,-1.20,1.00,-1.40,1.00,0.00,-0.20,2.60,2.20,3.00,3.60,5.80,6.40,7.20,6.20,,,,,,,,,,,,,,
1799999995416384564,2027-01-15T07:59:55.416384564Z,0.40,0.00,-2.20,1.00,1.80,0.20,0.00,3.20,5.80,3.40,6.00,5.20,5.60,5.80,,,,,,,,,,,,,,
1799999995423155045,2027-01-15T07:59:55.423155045Z,1.00,-0.20,-2.60,1.80,3.20,2.20,-1.60,3.80,6.00,3.00,5.60,5.00,5.80,7.00,,,,,,,,,,,,,,
1799999995429925525,2027-01-15T07:59:55.429925525Z,1.80,0.00,-2.80,1.00,1.80,3.40,0.60,3.00,4.40,4.40,5.20,5.40,6.80,7.00,,,,,,,,,,,,,,
1799999995436696006,2027-01-15T07:59:55.436696006Z,-2.80,-1.00,-2.00,0.40,0.20,3.40,2.80,2.00,3.40,5.60,5.60,5.20,7.20,6.20,,,,,,,,,,,,,,
1799999995443466487,2027-01-15T07:59:55.443466487Z,-4.00,-2.20,-0.60,0.60,-0.40,2.40,4.00,1.00,3.40,5.40,5.60,4.80,7.20,6.00,,,,,,,,,,,,,,
1799999995450236967,2027-01-15T07:59:55.450236967Z,-1.60,-2.20,0.80,1.20,0.60,1.20,4.20,1.40,4.00,4.00,5.20,4.40,7.00,6.40,,,,,,,,,,,,,,
1799999995457007448,2027-01-15T07:59:55.457007448Z,-1.40,-1.20,1.20,1.40,1.20,0.80,3.80,2.20,4.40,2.20,4.80,5.00,7.00,6.60,,,,,,,,,,,,,,
1799999995463777929,2027-01-15T07:59:55.463777929Z,-1.00,-1.00,0.00,0.20,0.60,1.60,4.40,2.00,4.20,2.20,5.40,6.20,7.00,6.20,,,,,,,,,,,,,,
1799999995470548409,2027-01-15T07:59:55.470548409Z,-2.40,-0.60,-1.20,-1.00,1.20,1.20,5.00,2.60,4.80,3.00,5.60,7.00,6.00,6.40,,,,,,,,,,,,,,
1799999995477318890,2027-01-15T07:59:55.477318890Z,-1.20,0.00,-0.60,-0.20,2.20,0.60,4.20,3.60,4.40,2.60,5.20,6.60,4.60,6.40,,,,,,,,,,,,,,
1799999995484089371,2027-01-15T07:59:55.484089371Z,-1.20,-0.40,1.00,1.20,1.80,1.00,3.20,4.00,3.00,2.60,4.80,5.60,4.40,6.40,,,,,,,,,,,,,,
1799999995490859852,2027-01-15T07:59:55.490859852Z,-2.20,-0.80,2.40,2.20,1.40,1.80,2.60,3.40,1.60,3.00,4.40,4.80,5.40,6.40,,,,,,,,,,,,,,
1799999995497630332,2027-01-15T07:59:55.497630332Z,-2.60,-0.40,2.40,2.00,2.60,2.40,2.40,2.60,2.00,3.20,4.00,4.00,6.80,6.80,,,,,,,,,,,,,,
1799999995504400813,2027-01-15T07:59:55.504400813Z,0.60,0.80,0.60,1.00,4.80,2.00,2.60,1.80,3.60,3.00,4.60,3.40,7.40,6.60,,,,,,,,,,,,,,
1799999995511171294,2027-01-15T07:59:55.511171294Z,-0.20,1.60,-1.40,0.20,3.40,1.60,2.20,2.40,4.40,3.00,5.80,3.80,6.80,6.40,,,,,,,,,,,,,,
1799999995517941774,2027-01-15T07:59:55.517941774Z,-0.60,0.00,-0.20,0.20,0.20,2.40,1.80,3.60,3.40,3.60,6.00,5.60,7.20,6.60,,,,,,,,,,,,,,
1799999995524712255,2027-01-15T07:59:55.524712255Z,-3.60,-2.80,2.40,0.00,0.40,2.60,2.80,3.60,3.80,4.60,4.80,6.60,7.00,6.60,,,,,,,,,,,,,,
1799999995531482736,2027-01-15T07:59:55.531482736Z,1.00,-4.00,2.80,0.40,1.80,1.00,3.40,2.60,4.40,4.60,5.00,6.20,6.00,6.80,,,,,,,,,,,,,,
1799999995538253216,2027-01-15T07:59:55.538253216Z,1.60,-2.60,1.60,1.60,1.00,-0.60,2.80,3.20,3.80,3.80,5.80,6.20,5.80,7.40,,,,,,,,,,,,,,
1799999995545023697,2027-01-15T07:59:55.545023697Z,0.60,-1.20,1.00,2.80,-0.20,-0.60,1.60,4.80,3.40,3.20,6.00,7.00,6.20,7.80,,,,,,,,,,,,,,
1799999995551794178,2027-01-15T07:59:55.551794178Z,0.00,-0.60,1.40,2.20,-0.40,1.20,1.40,5.00,3.60,4.20,5.40,7.40,5.20,7.20,,,,,,,,,,,,,,
1799999995558564659,2027-01-15T07:59:55.558564659Z,1.20,-0.40,2.20,-0.20,0.60,2.40,1.80,3.00,4.80,5.40,4.40,6.40,3.00,5.60,,,,,,,,,,,,,,
1799999995565335139,2027-01-15T07:59:55.565335139Z,1.80,0.60,2.40,-1.40,0.20,1.20,1.60,0.80,5.20,4.80,4.20,5.40,2.60,6.00,,,,,,,,,,,,,,
1799999995572105620,2027-01-15T07:59:55.572105620Z,0.00,0.40,2.40,0.20,1.20,0.60,2.60,0.80,4.40,4.20,4.60,5.60,5.20,8.60,,,,,,,,,,,,,,
1799999995578876101,2027-01-15T07:59:55.578876101Z,-0.60,-0.60,2.20,1.40,3.60,1.40,4.40,2.60,3.20,5.00,4.60,5.20,7.80,8.60,,,,,,,,,,,,,,
1799999995585646581,2027-01-15T07:59:55.585646581Z,-3.60,-1.20,1.40,1.00,4.00,1.40,5.00,4.60,2.60,5.40,5.00,4.60,9.00,7.00,,,,,,,,,,,,,,
1799999995592417062,2027-01-15T07:59:55.592417062Z,-3.20,-1.80,0.20,0.20,2.60,1.00,3.60,5.60,2.60,4.60,5.40,4.20,9.00,6.80,,,,,,,,,,,,,,
1799999995599187543,2027-01-15T07:59:55.599187543Z,-1.80,-3.20,-0.20,0.20,0.80,0.60,2.40,5.00,3.80,4.00,6.00,3.80,7.40,7.80,,,,,,,,,,,,,,
1799999995605958024,2027-01-15T07:59:55.605958024Z,-1.80,-4.00,0.40,1.00,-0.40,1.40,3.20,3.20,4.00,4.60,6.60,4.60,6.40,8.00,,,,,,,,,,,,,,
1799999995612728504,2027-01-15T07:59:55.612728504Z,-3.80,-2.00,-0.20,1.00,-0.20,2.80,5.00,2.40,2.40,6.20,7.60,6.00,7.40,6.60,,,,,,,,,,,,,,
1799999995619498985,2027-01-15T07:59:55.619498985Z,-0.20,0.40,-1.80,0.40,0.80,3.60,4.60,3.60,2.60,7.20,7.60,6.20,7.60,5.40,,,,,,,,,,,,,,
1799999995626269466,2027-01-15T07:59:55.626269466Z,0.40,-0.60,-2.60,0.20,1.60,2.60,4.60,3.00,5.00,5.20,6.40,7.00,6.40,5.00,,,,,,,,,,,,,,
1799999995633039946,2027-01-15T07:59:55.633039946Z,-2.20,-3.80,-1.40,-0.20,0.20,1.80,6.00,0.60,6.00,3.00,5.40,7.20,6.60,6.00,,,,,,,,,,,,,,
1799999995639810427,2027-01-15T07:59:55.639810427Z,-3.00,-4.60,-0.20,-0.60,-1.40,2.40,6.60,0.00,5.40,2.60,5.40,6.00,7.00,7.00,,,,,,,,,,,,,,
1799999995646580908,2027-01-15T07:59:55.646580908Z,-5.60,-3.00,0.40,-0.60,-1.40,2.80,5.60,1.40,5.20,4.00,5.80,4.60,6.60,7.20,,,,,,,,,,,,,,
1799999995653351388,2027-01-15T07:59:55.653351388Z,-2.80,-1.40,-0.40,0.20,0.00,1.60,4.20,3.00,5.40,5.60,5.00,5.00,5.80,7.80,,,,,,,,,,,,,,
1799999995660121869,2027-01-15T07:59:55.660121869Z,-0.40,-2.60,-1.60,1.40,1.00,0.40,3.00,3.60,4.80,6.00,3.60,6.40,6.80,9.00,,,,,,,,,,,,,,
1799999995666892350,2027-01-15T07:59:55.666892350Z,-1.40,-3.80,-1.60,1.80,0.60,1.00,2.80,4.00,3.40,4.60,3.80,6.20,7.00,9.40,,,,,,,,,,,,,,
1799999995673662831,2027-01-15T07:59:55.673662831Z,-2.60,-1.60,-1.00,0.80,1.40,1.40,2.60,4.60,3.40,6.00,5.20,6.00,4.00,7.00,,,,,,,,,,,,,,
1799999995680433311,2027-01-15T07:59:55.680433311Z,1.60,0.80,-0.60,-0.20,2.60,0.20,2.80,3.20,5.00,8.60,5.60,6.60,2.20,4.40,,,,,,,,,,,,,,
1799999995687203792,2027-01-15T07:59:55.687203792Z,0.20,0.80,0.00,-0.60,3.00,0.40,3.80,2.40,5.60,9.00,4.40,6.00,4.00,4.20,,,,,,,,,,,,,,
1799999995693974273,2027-01-15T07:59:55.693974273Z,-0.20,-0.40,0.40,-0.80,3.00,1.60,4.20,3.00,4.80,6.80,3.20,5.00,6.60,6.00,,,,,,,,,,,,,,
1799999995700744753,2027-01-15T07:59:55.700744753Z,-2.40,-1.20,-0.40,0.20,2.60,2.60,3.40,3.40,3.60,4.40,2.60,6.00,8.00,8.40,,,,,,,,,,,,,,
1799999995707515234,2027-01-15T07:59:55.707515234Z,1.20,-1.40,-1.40,1.60,1.00,2.00,2.60,1.80,3.80,3.60,3.20,8.40,6.20,8.80,,,,,,,,,,,,,,
1799999995714285715,2027-01-15T07:59:55.714285715Z,1.80,-0.80,-0.40,2.00,0.60,2.00,3.80,1.20,4.60,5.00,4.60,7.80,3.60,6.80,,,,,,,,,,,,,,
1799999995721056195,2027-01-15T07:59:55.721056195Z,0.20,-0.20,0.80,1.80,2.40,3.20,3.00,3.00,4.80,6.20,5.40,4.80,4.80,5.40,,,,,,,,,,,,,,
1799999995727826676,2027-01-15T07:59:55.727826676Z,-0.40,-0.40,0.20,0.80,2.80,3.20,0.40,4.00,4.40,5.60,4.60,4.20,6.20,4.60,,,,,,,,,,,,,,
1799999995734597157,2027-01-15T07:59:55.734597157Z,-0.20,-0.40,0.00,-0.40,2.00,2.20,0.00,3.20,4.00,4.20,3.80,6.20,4.80,3.80,,,,,,,,,,,,,,
1799999995741367638,2027-01-15T07:59:55.741367638Z,0.00,-0.60,1.00,-0.60,2.40,2.40,1.00,3.00,3.80,3.40,4.00,7.20,4.20,4.40,,,,,,,,,,,,,,
1799999995748138118,2027-01-15T07:59:55.748138118Z,-1.00,-1.40,1.60,0.20,2.80,2.40,1.60,3.40,3.80,3.80,4.60,5.80,5.40,6.20,,,,,,,,,,,,,,
1799999995754908599,2027-01-15T07:59:55.754908599Z,-2.20,-1.40,0.60,1.00,2.20,2.20,1.80,3.20,3.80,4.00,5.60,4.20,6.20,7.60,,,,,,,,,,,,,,
1799999995761679080,2027-01-15T07:59:55.761679080Z,-1.60,-0.20,0.20,2.00,2.20,1.80,2.40,1.80,3.60,3.40,6.80,4.00,5.20,7.60,,,,,,,,,,,,,,
1799999995768449560,2027-01-15T07:59:55.768449560Z,-0.20,-0.40,2.00,3.60,3.20,1.20,3.00,1.20,4.20,3.40,7.20,5.20,4.80,6.40,,,,,,,,,,,,,,
1799999995775220041,2027-01-15T07:59:55.775220041Z,0.00,-2.20,2.00,4.20,1.20,0.20,3.00,2.40,5.00,3.80,6.80,5.80,6.20,7.00,,,,,,,,,,,,,,
1799999995781990522,2027-01-15T07:59:55.781990522Z,,-1.80,-0.20,2.20,-0.40,-0.20,2.40,3.20,4.80,2.80,6.20,6.20,6.60,8.20,,,,,,,,,,,,,,
1799999995788761003,2027-01-15T07:59:55.788761003Z,,0.00,-1.60,1.20,1.40,-0.60,1.20,3.00,4.20,2.00,5.40,6.80,5.60,7.80,,,,,,,,,,,,,,
1799999995795531483,2027-01-15T07:59:55.795531483Z,,0.60,-1.20,1.80,3.80,-1.40,0.40,3.00,4.20,2.60,4.60,7.20,5.00,6.60,,,,,,,,,,,,,,
1799999995802301964,2027-01-15T07:59:55.802301964Z,0.20,0.00,-0.40,1.80,3.40,-2.40,0.60,2.60,4.00,3.40,4.20,6.40,4.80,6.40,,,,,,,,,,,,,,
1799999995809072445,2027-01-15T07:59:55.809072445Z,0.40,-0.20,0.20,0.60,0.60,-1.20,2.20,2.20,3.20,4.00,4.40,5.60,5.40,8.00,,,,,,,,,,,,,,
1799999995815842925,2027-01-15T07:59:55.815842925Z,0.40,0.60,-0.40,0.60,0.40,1.00,2.20,3.00,2.60,3.60,5.00,6.60,6.80,8.40,,,,,,,,,,,,,,
1799999995822613406,2027-01-15T07:59:55.822613406Z,0.40,-0.80,-1.00,2.00,2.00,1.80,0.80,3.80,2.60,3.20,6.00,7.20,8.60,6.80,,,,,,,,,,,,,,
1799999995829383887,2027-01-15T07:59:55.829383887Z,0.00,-3.20,0.60,1.40,1.00,1.60,0.40,3.00,3.60,4.60,5.60,6.00,8.40,5.80,,,,,,,,,,,,,,
1799999995836154367,2027-01-15T07:59:55.836154367Z,1.00,-3.80,1.60,0.80,-0.80,1.80,1.20,1.80,5.20,6.80,4.20,5.00,6.20,6.20,,,,,,,,,,,,,,
1799999995842924848,2027-01-15T07:59:55.842924848Z,0.20,-2.60,1.00,1.40,-0.80,1.40,1.20,2.40,5.80,7.40,3.40,4.80,4.60,5.80,,,,,,,,,,,,,,
1799999995849695329,2027-01-15T07:59:55.849695329Z,-0.60,-1.20,0.20,1.20,0.40,1.00,1.20,3.80,4.40,6.00,4.20,4.80,4.40,5.40,,,,,,,,,,,,,,
1799999995856465810,2027-01-15T07:59:55.856465810Z,0.20,-0.80,0.40,-0.60,0.60,0.40,1.80,5.00,2.80,4.40,5.00,5.20,4.60,5.60,,,,,,,,,,,,,,
1799999995863236290,2027-01-15T07:59:55.863236290Z,-0.20,-0.40,0.40,-2.00,0.00,0.20,3.00,4.80,3.40,3.20,4.40,5.80,5.20,6.60,,,,,,,,,,,,,,
1799999995870006771,2027-01-15T07:59:55.870006771Z,-0.60,0.80,-1.20,-0.80,0.80,0.80,3.00,3.20,4.80,4.20,3.40,5.20,6.00,6.40,,,,,,,,,,,,,,
1799999995876777252,2027-01-15T07:59:55.876777252Z,-3.20,1.60,-2.40,0.20,2.20,2.60,2.40,2.80,2.40,6.20,3.80,4.80,7.20,5.40,,,,,,,,,,,,,,
1799999995883547732,2027-01-15T07:59:55.883547732Z,-0.60,0.60,-1.80,1.60,1.80,4.20,3.60,4.20,0.00,7.20,4.60,6.00,8.00,5.60,,,,,,,,,,,,,,
1799999995890318213,2027-01-15T07:59:55.890318213Z,-0.40,-0.60,-1.20,3.00,1.40,4.00,5.00,4.40,1.00,6.40,4.60,6.60,8.00,6.80,,,,,,,,,,,,,,
1799999995897088694,2027-01-15T07:59:55.897088694Z,-1.00,-0.60,-1.20,3.40,1.80,3.20,5.20,3.20,2.60,5.60,4.60,6.20,7.40,8.20,,,,,,,,,,,,,,
1799999995903859175,2027-01-15T07:59:55.903859175Z,-1.20,0.00,-0.80,1.20,2.20,3.20,4.20,2.20,3.80,6.20,4.60,5.40,6.00,8.60,,,,,,,,,,,,,,
