# spacing_uv=20.0
timestamp_ns,timestamp_iso,AF3,F7,F3,FC5,T7,P7,O1,O2,P8,T8,FC6,F4,F8,AF4,AF3_q,F7_q,F3_q,FC5_q,T7_q,P7_q,O1_q,O2_q,P8_q,T8_q,FC6_q,F4_q,F8_q,AF4_q
1799999990000000000,2027-01-15T07:59:50.000000000Z,,,,,,,,,,,,,,,,,,,,,,,,,,,,
1799999990015360984,2027-01-15T07:59:50.015360984Z,-1.47,-0.74,1.32,-0.29,-1.91,0.44,2.50,3.68,1.62,4.12,3.53,2.35,5.15,4.56,,,,,,,,,,,,,,
1799999990030721967,2027-01-15T07:59:50.030721967Z,1.03,-0.44,1.76,0.15,-1.32,1.47,2.50,4.56,0.74,3.53,3.97,3.53,5.44,3.68,,,,,,,,,,,,,,
1799999990046082950,2027-01-15T07:59:50.046082950Z,-0.15,1.18,1.47,0.44,0.15,3.09,2.79,3.53,1.03,4.12,2.79,4.41,5.15,4.71,,,,,,,,,,,,,,
1799999990061443933,2027-01-15T07:59:50.061443933Z,-0.29,1.18,0.00,1.76,0.74,2.35,3.68,2.79,3.38,4.71,3.53,5.00,5.44,5.59,,,,,,,,,,,,,,
1799999990076804916,2027-01-15T07:59:50.076804916Z,-0.29,0.59,-0.15,1.18,0.15,3.68,4.85,2.79,2.94,3.09,3.68,5.44,4.41,4.12,,,,,,,,,,,,,,
1799999990092165899,2027-01-15T07:59:50.092165899Z,-0.74,0.29,-0.15,1.03,0.44,3.24,3.82,1.32,2.94,5.15,1.32,3.38,4.12,5.00,,,,,,,,,,,,,,
1799999990107526882,2027-01-15T07:59:50.107526882Z,0.44,0.00,0.59,-0.29,1.18,2.65,2.06,1.03,3.24,6.62,1.76,2.94,4.41,5.44,,,,,,,,,,,,,,
1799999990122887865,2027-01-15T07:59:50.122887865Z,0.29,0.59,0.00,1.76,0.44,0.44,1.03,2.65,2.79,4.41,2.35,2.94,4.41,6.47,,,,,,,,,,,,,,
1799999990138248848,2027-01-15T07:59:50.138248848Z,-1.91,0.88,-0.59,2.79,-0.15,2.21,-0.29,3.68,1.76,3.68,3.82,4.71,3.53,5.29,,,,,,,,,,,,,,
1799999990153609832,2027-01-15T07:59:50.153609832Z,-1.32,-0.88,-0.44,0.59,2.50,2.79,0.44,3.38,2.50,2.35,4.26,5.15,3.38,4.85,,,,,,,,,,,,,,
1799999990168970815,2027-01-15T07:59:50.168970815Z,-0.44,-0.15,-0.74,0.00,2.35,1.76,1.18,2.94,3.38,2.94,4.12,5.00,3.97,5.59,,,,,,,,,,,,,,
1799999990184331798,2027-01-15T07:59:50.184331798Z,-0.29,1.32,-1.62,-0.15,1.03,0.59,1.47,2.35,3.38,1.91,4.56,4.56,4.71,5.00,,,,,,,,,,,,,,
1799999990199692781,2027-01-15T07:59:50.199692781Z,0.74,0.15,-1.47,0.44,0.15,0.74,2.06,2.65,2.21,1.47,4.85,3.68,5.59,5.15,,,,,,,,,,,,,,
1799999990215053764,2027-01-15T07:59:50.215053764Z,-0.59,-2.35,2.21,-0.15,-0.44,1.62,1.18,3.24,0.88,2.94,4.26,4.41,4.71,5.59,,,,,,,,,,,,,,
1799999990230414747,2027-01-15T07:59:50.230414747Z,-0.29,-0.88,-0.29,0.74,0.88,1.76,0.29,3.38,2.79,3.68,3.38,5.88,4.26,4.41,,,,,,,,,,,,,,
1799999990245775730,2027-01-15T07:59:50.245775730Z,-2.06,-1.03,-1.62,0.88,0.44,0.74,-0.74,2.35,2.21,3.68,3.97,4.26,2.79,3.82,,,,,,,,,,,,,,
1799999990261136713,2027-01-15T07:59:50.261136713Z,-1.47,-3.09,-1.32,-0.15,0.59,1.62,0.00,2.21,2.35,2.50,3.38,3.09,2.50,4.12,,,,,,,,,,,,,,
1799999990276497696,2027-01-15T07:59:50.276497696Z,-0.88,-1.62,1.91,0.00,0.44,2.21,0.74,3.53,2.79,2.50,3.53,2.79,3.68,6.18,,,,,,,,,,,,,,
1799999990291858679,2027-01-15T07:59:50.291858679Z,-0.44,-1.47,1.47,-0.15,0.59,1.62,1.76,2.50,2.21,2.35,3.53,3.82,2.79,4.71,,,,,,,,,,,,,,
1799999990307219663,2027-01-15T07:59:50.307219663Z,-2.50,-2.21,1.32,0.29,1.62,1.91,3.53,1.32,3.09,1.91,4.56,3.68,4.26,3.82,,,,,,,,,,,,,,
1799999990322580646,2027-01-15T07:59:50.322580646Z,2.21,-1.32,1.18,0.44,0.74,1.62,3.82,1.47,3.09,4.41,4.85,4.26,5.29,4.12,,,,,,,,,,,,,,
1799999990337941629,2027-01-15T07:59:50.337941629Z,-1.62,-0.15,0.15,0.00,0.00,1.18,1.47,1.91,2.94,5.00,3.82,4.85,5.44,6.32,,,,,,,,,,,,,,
1799999990353302612,2027-01-15T07:59:50.353302612Z,-1.62,-0.88,-0.74,-1.32,2.50,1.47,0.74,2.06,2.50,6.32,3.68,2.35,5.29,6.03,,,,,,,,,,,,,,
1799999990368663595,2027-01-15T07:59:50.368663595Z,-1.18,-1.62,-0.74,-1.03,2.35,2.06,1.91,2.35,1.76,5.29,3.82,3.68,4.41,6.03,,,,,,,,,,,,,,
1799999990384024578,2027-01-15T07:59:50.384024578Z,-1.32,-3.53,0.88,-1.03,1.76,2.35,3.38,2.79,1.62,3.68,5.00,3.53,3.68,5.88,,,,,,,,,,,,,,
1799999990399385561,2027-01-15T07:59:50.399385561Z,0.00,-0.74,0.29,-0.29,0.74,2.50,3.53,3.24,2.06,4.26,4.26,1.76,3.09,4.71,,,,,,,,,,,,,,
1799999990414746544,2027-01-15T07:59:50.414746544Z,-0.15,0.88,-0.15,0.88,0.00,1.18,3.38,1.91,1.76,5.44,3.09,3.38,3.38,5.44,,,,,,,,,,,,,,
1799999990430107527,2027-01-15T07:59:50.430107527Z,0.88,0.59,-0.59,0.15,0.15,1.18,3.97,1.76,2.06,3.68,4.12,5.00,6.18,4.71,,,,,,,,,,,,,,
1799999990445468510,2027-01-15T07:59:50.445468510Z,-0.29,0.15,-0.44,-0.29,1.32,1.32,3.68,1.32,2.79,2.79,4.26,5.29,5.74,4.85,,,,,,,,,,,,,,
1799999990460829494,2027-01-15T07:59:50.460829494Z,-0.88,-0.88,1.62,0.00,2.35,1.03,1.91,0.88,3.38,1.76,3.97,5.00,5.74,4.71,,,,,,,,,,,,,,
1799999990476190477,2027-01-15T07:59:50.476190477Z,-0.44,0.44,0.74,0.00,1.91,1.47,1.62,1.47,3.82,2.35,4.12,5.74,5.44,3.82,,,,,,,,,,,,,,
1799999990491551460,2027-01-15T07:59:50.491551460Z,0.15,1.47,0.15,1.62,1.32,0.59,2.94,3.09,2.50,3.68,3.53,5.29,4.56,5.15,,,,,,,,,,,,,,
1799999990506912443,2027-01-15T07:59:50.506912443Z,-0.29,0.00,-0.44,0.44,0.74,1.76,2.06,2.35,3.24,4.56,2.79,3.97,4.41,5.00,,,,,,,,,,,,,,
1799999990522273426,2027-01-15T07:59:50.522273426Z,-0.29,0.29,-0.15,2.06,2.21,1.62,0.74,1.47,4.41,3.82,2.79,3.24,3.38,3.97,,,,,,,,,,,,,,
1799999990537634409,2027-01-15T07:59:50.537634409Z,-0.59,1.18,0.29,2.79,2.06,1.47,-1.03,2.65,4.41,3.09,3.53,3.09,3.38,3.24,,,,,,,,,,,,,,
1799999990552995392,2027-01-15T07:59:50.552995392Z,-0.59,0.59,0.00,0.74,1.32,1.18,0.00,2.06,3.38,2.65,3.53,4.85,3.24,3.24,,,,,,,,,,,,,,
1799999990568356375,2027-01-15T07:59:50.568356375Z,-0.44,0.29,0.15,0.15,2.79,0.29,1.18,1.62,2.06,3.82,5.44,2.94,3.82,3.09,,,,,,,,,,,,,,
1799999990583717358,2027-01-15T07:59:50.583717358Z,-0.88,1.18,0.59,-1.76,0.29,1.47,1.32,2.35,2.35,4.71,5.88,3.82,4.85,5.00,,,,,,,,,,,,,,
1799999990599078342,2027-01-15T07:59:50.599078342Z,0.44,2.06,0.15,0.29,-1.03,1.47,2.21,1.47,4.12,4.12,4.85,5.44,3.97,5.15,,,,,,,,,,,,,,
1799999990614439325,2027-01-15T07:59:50.614439325Z,1.32,0.59,-0.15,1.18,-0.15,1.76,1.62,1.91,3.09,2.21,4.71,5.88,4.41,6.32,,,,,,,,,,,,,,
1799999990629800308,2027-01-15T07:59:50.629800308Z,0.88,-0.15,-0.59,0.74,0.88,2.35,0.88,1.91,2.50,1.76,3.38,4.26,5.29,5.29,,,,,,,,,,,,,,
1799999990645161291,2027-01-15T07:59:50.645161291Z,0.00,0.59,-0.59,0.74,1.47,2.21,1.62,1.47,1.91,1.18,3.38,3.53,5.15,3.97,,,,,,,,,,,,,,
1799999990660522274,2027-01-15T07:59:50.660522274Z,-0.88,0.15,1.03,1.03,0.44,2.21,2.06,2.21,2.06,2.06,2.94,3.38,4.12,5.15,,,,,,,,,,,,,,
1799999990675883257,2027-01-15T07:59:50.675883257Z,-1.18,-1.18,0.00,1.32,0.44,0.88,1.91,1.18,2.65,1.32,2.21,4.85,4.56,5.88,,,,,,,,,,,,,,
1799999990691244240,2027-01-15T07:59:50.691244240Z,-1.32,-0.88,-0.74,1.62,0.00,0.88,1.76,2.06,3.53,2.50,2.21,3.09,5.59,5.88,,,,,,,,,,,,,,
1799999990706605223,2027-01-15T07:59:50.706605223Z,0.59,1.18,-1.03,2.35,-0.29,1.47,1.32,2.21,3.24,3.68,3.09,2.94,5.44,4.85,,,,,,,,,,,,,,
1799999990721966206,2027-01-15T07:59:50.721966206Z,0.29,0.15,-0.59,2.35,0.59,2.21,1.62,1.62,2.94,6.18,3.68,3.82,4.26,4.71,,,,,,,,,,,,,,
1799999990737327189,2027-01-15T07:59:50.737327189Z,0.74,-1.91,0.29,-0.29,0.44,1.18,2.79,1.91,3.09,3.24,5.44,2.94,2.79,4.26,,,,,,,,,,,,,,
1799999990752688173,2027-01-15T07:59:50.752688173Z,0.15,-2.50,1.62,-0.74,-0.15,0.15,1.18,2.21,4.12,2.65,3.97,4.56,5.15,5.59,,,,,,,,,,,,,,
1799999990768049156,2027-01-15T07:59:50.768049156Z,-0.29,0.44,1.32,0.00,2.50,2.06,1.32,2.94,3.82,4.12,3.38,4.71,5.88,5.59,,,,,,,,,,,,,,
1799999990783410139,2027-01-15T07:59:50.783410139Z,-1.76,0.88,0.59,0.15,3.68,3.09,1.91,2.65,2.35,3.38,3.38,4.12,5.15,4.26,,,,,,,,,,,,,,
1799999990798771122,2027-01-15T07:59:50.798771122Z,-2.79,1.32,0.59,1.32,1.03,1.62,1.62,2.50,4.71,3.38,4.26,4.56,3.82,3.82,,,,,,,,,,,,,,
1799999990814132105,2027-01-15T07:59:50.814132105Z,0.29,-0.74,0.29,2.21,0.00,0.44,3.24,1.91,4.26,3.68,3.53,5.59,3.82,5.00,,,,,,,,,,,,,,
1799999990829493088,2027-01-15T07:59:50.829493088Z,-1.91,0.15,0.44,0.88,0.59,0.88,5.00,2.79,3.82,4.12,2.21,5.74,4.12,5.74,,,,,,,,,,,,,,
1799999990844854071,2027-01-15T07:59:50.844854071Z,1.03,-1.03,0.59,0.59,2.65,0.29,2.50,2.21,2.35,4.56,2.79,5.44,5.29,4.85,,,,,,,,,,,,,,
1799999990860215054,2027-01-15T07:59:50.860215054Z,-0.44,-3.09,0.44,0.15,3.09,0.88,3.38,0.15,2.21,3.97,2.94,4.26,4.85,3.24,,,,,,,,,,,,,,
1799999990875576037,2027-01-15T07:59:50.875576037Z,0.59,-2.06,-0.44,0.88,2.06,1.47,2.21,1.03,2.21,3.09,3.38,5.15,3.82,4.71,,,,,,,,,,,,,,
1799999990890937020,2027-01-15T07:59:50.890937020Z,-1.62,-0.59,-0.59,1.18,-0.15,2.35,1.18,3.38,2.06,3.82,3.68,4.85,5.00,4.85,,,,,,,,,,,,,,
1799999990906298004,2027-01-15T07:59:50.906298004Z,0.15,-1.32,-0.29,0.15,0.88,2.21,2.35,4.12,3.38,2.35,4.26,2.94,4.26,4.71,,,,,,,,,,,,,,
1799999990921658987,2027-01-15T07:59:50.921658987Z,0.29,-1.76,-0.29,-0.59,1.62,1.62,2.35,3.09,2.35,2.06,3.68,4.41,3.97,5.88,,,,,,,,,,,,,,
1799999990937019970,2027-01-15T07:59:50.937019970Z,1.32,0.44,-0.15,0.15,2.21,0.74,0.44,2.35,1.32,1.32,2.50,5.00,4.71,3.38,,,,,,,,,,,,,,
1799999990952380953,2027-01-15T07:59:50.952380953Z,-2.50,0.15,0.15,0.59,2.21,-0.44,-0.44,0.88,1.03,0.29,2.65,4.85,4.85,2.50,,,,,,,,,,,,,,
1799999990967741936,2027-01-15T07:59:50.967741936Z,0.00,-2.50,0.00,0.15,-0.88,-0.29,0.44,2.94,3.53,2.35,3.82,4.41,4.41,4.71,,,,,,,,,,,,,,
1799999990983102919,2027-01-15T07:59:50.983102919Z,0.29,-2.94,0.00,-0.59,-2.35,0.44,1.47,2.65,3.09,3.97,3.68,4.71,3.82,4.71,,,,,,,,,,,,,,
1799999990998463902,2027-01-15T07:59:50.998463902Z,-0.29,-0.74,-0.59,-0.74,0.00,1.18,1.32,1.91,1.47,3.53,2.79,5.44,3.68,5.88,,,,,,,,,,,,,,
1799999991013824885,2027-01-15T07:59:51.013824885Z,-0.88,-0.44,-1.62,-0.59,0.88,0.59,1.03,2.06,1.91,1.62,3.82,4.85,3.68,6.91,,,,,,,,,,,,,,
1799999991029185868,2027-01-15T07:59:51.029185868Z,-0.44,-1.47,-1.18,0.15,3.09,0.88,0.74,2.94,2.21,3.09,3.97,3.53,3.68,4.41,,,,,,,,,,,,,,
1799999991044546851,2027-01-15T07:59:51.044546851Z,1.03,-1.76,-0.59,0.88,1.76,1.47,0.88,0.74,2.06,3.53,4.41,3.97,4.12,5.44,,,,,,,,,,,,,,
1799999991059907835,2027-01-15T07:59:51.059907835Z,-0.15,-0.29,-0.44,0.74,3.38,1.91,0.59,2.35,2.35,2.50,5.00,3.68,4.26,5.59,,,,,,,,,,,,,,
1799999991075268818,2027-01-15T07:59:51.075268818Z,-0.88,0.15,0.74,0.15,4.71,2.06,1.47,4.26,2.21,4.56,4.56,5.00,5.00,5.59,,,,,,,,,,,,,,
1799999991090629801,2027-01-15T07:59:51.090629801Z,1.18,-2.06,1.03,-0.29,1.62,2.06,2.65,3.68,2.35,4.41,4.85,5.00,3.97,5.29,,,,,,,,,,,,,,
1799999991105990784,2027-01-15T07:59:51.105990784Z,0.29,-2.21,0.29,-0.44,0.74,1.91,2.35,1.76,3.68,3.68,5.00,3.68,3.68,3.97,,,,,,,,,,,,,,
1799999991121351767,2027-01-15T07:59:51.121351767Z,0.15,-1.18,-1.03,0.29,0.00,1.76,1.47,0.88,2.35,4.12,5.00,2.79,5.44,5.88,,,,,,,,,,,,,,
1799999991136712750,2027-01-15T07:59:51.136712750Z,-1.91,0.29,-1.18,0.00,-1.91,1.76,1.18,-0.29,2.35,3.53,5.00,1.32,4.71,5.74,,,,,,,,,,,,,,
1799999991152073733,2027-01-15T07:59:51.152073733Z,1.32,-0.15,-0.74,0.29,-0.74,1.47,3.09,1.62,2.79,2.06,3.24,0.74,5.15,6.03,,,,,,,,,,,,,,
1799999991167434716,2027-01-15T07:59:51.167434716Z,1.32,0.44,1.32,2.06,-1.62,0.29,1.47,3.97,2.06,2.65,2.65,2.79,4.71,7.21,,,,,,,,,,,,,,
1799999991182795699,2027-01-15T07:59:51.182795699Z,0.15,2.65,1.32,1.18,0.15,-0.15,1.18,3.38,2.21,3.09,2.65,4.71,4.56,6.03,,,,,,,,,,,,,,
1799999991198156683,2027-01-15T07:59:51.198156683Z,-1.47,2.50,0.00,1.76,0.74,2.06,1.18,2.79,2.06,4.12,3.09,5.15,6.18,3.97,,,,,,,,,,,,,,
1799999991213517666,2027-01-15T07:59:51.213517666Z,0.29,0.59,-0.59,2.94,1.91,2.50,2.50,2.79,1.76,5.29,2.79,4.26,6.76,4.56,,,,,,,,,,,,,,
1799999991228878649,2027-01-15T07:59:51.228878649Z,-0.15,0.59,-0.29,1.62,2.65,1.03,1.91,3.09,2.65,3.97,2.65,4.12,5.59,6.03,,,,,,,,,,,,,,
1799999991244239632,2027-01-15T07:59:51.244239632Z,-0.44,1.18,0.00,0.44,1.18,1.18,0.44,2.06,3.68,3.09,2.94,5.29,4.71,5.44,,,,,,,,,,,,,,
1799999991259600615,2027-01-15T07:59:51.259600615Z,0.00,0.74,0.29,0.00,2.06,1.62,0.88,2.06,3.53,0.59,3.82,5.74,2.65,4.26,,,,,,,,,,,,,,
1799999991274961598,2027-01-15T07:59:51.274961598Z,1.18,0.15,0.29,0.15,1.76,0.74,2.21,1.32,3.68,2.06,4.41,5.59,2.50,3.24,,,,,,,,,,,,,,
1799999991290322581,2027-01-15T07:59:51.290322581Z,0.29,0.29,2.06,0.44,0.88,1.47,1.47,1.32,3.68,2.94,3.97,4.12,3.97,5.00,,,,,,,,,,,,,,
1799999991305683564,2027-01-15T07:59:51.305683564Z,0.59,-0.44,2.35,0.29,0.00,1.03,2.94,2.50,2.79,2.35,1.62,4.41,5.44,5.15,,,,,,,,,,,,,,
1799999991321044547,2027-01-15T07:59:51.321044547Z,-1.03,-0.59,0.29,-0.88,0.00,-0.44,3.68,2.79,2.35,2.50,2.35,3.97,4.85,4.41,,,,,,,,,,,,,,
1799999991336405530,2027-01-15T07:59:51.336405530Z,1.18,0.29,0.59,-1.03,0.29,-0.44,3.68,3.53,2.21,2.65,3.68,4.85,4.56,5.00,,,,,,,,,,,,,,
1799999991351766514,2027-01-15T07:59:51.351766514Z,-0.44,-0.29,1.03,1.32,0.59,1.03,3.53,4.12,2.79,1.47,4.71,5.44,3.97,3.97,,,,,,,,,,,,,,
1799999991367127497,2027-01-15T07:59:51.367127497Z,0.00,-0.74,-1.03,3.09,-0.44,2.65,2.35,3.53,3.38,3.53,3.09,3.97,4.71,3.09,,,,,,,,,,,,,,
1799999991382488480,2027-01-15T07:59:51.382488480Z,-0.59,-1.32,-1.62,2.21,-0.59,2.35,3.97,3.09,3.68,4.26,1.91,5.59,4.71,5.44,,,,,,,,,,,,,,
1799999991397849463,2027-01-15T07:59:51.397849463Z,1.62,-0.29,-0.74,-0.44,1.47,2.21,2.94,3.24,4.85,3.38,2.50,5.29,4.85,6.18,,,,,,,,,,,,,,
1799999991413210446,2027-01-15T07:59:51.413210446Z,2.06,2.21,0.59,1.03,0.29,2.21,1.32,2.35,3.68,2.35,5.15,3.82,6.03,5.15,,,,,,,,,,,,,,
1799999991428571429,2027-01-15T07:59:51.428571429Z,-2.35,1.47,-0.59,2.06,0.29,2.65,1.62,2.35,0.29,2.94,5.29,2.79,5.59,3.82,,,,,,,,,,,,,,
1799999991443932412,2027-01-15T07:59:51.443932412Z,-0.15,0.59,0.74,1.03,1.18,2.79,2.65,3.09,1.62,6.32,2.94,3.82,6.18,6.18,,,,,,,,,,,,,,
1799999991459293395,2027-01-15T07:59:51.459293395Z,-0.59,0.00,1.47,-0.29,0.59,2.35,3.38,3.24,1.91,4.12,2.50,3.82,5.15,5.88,,,,,,,,,,,,,,
1799999991474654378,2027-01-15T07:59:51.474654378Z,-0.88,0.44,2.21,0.44,-0.15,0.44,2.50,3.09,2.79,2.94,3.24,3.82,4.56,5.44,,,,,,,,,,,,,,
1799999991490015361,2027-01-15T07:59:51.490015361Z,0.59,-0.44,0.74,1.76,0.15,0.15,1.91,2.79,3.09,4.85,1.76,3.53,3.38,5.29,,,,,,,,,,,,,,
1799999991505376345,2027-01-15T07:59:51.505376345Z,0.15,-0.88,-0.29,1.32,1.91,0.59,1.62,2.35,3.97,4.56,3.38,3.97,2.35,4.26,,,,,,,,,,,,,,
1799999991520737328,2027-01-15T07:59:51.520737328Z,-0.15,-0.88,-0.74,0.44,1.62,0.44,2.06,2.94,4.41,3.38,4.26,4.12,3.82,5.00,,,,,,,,,,,,,,
1799999991536098311,2027-01-15T07:59:51.536098311Z,-1.62,-0.29,-1.32,0.44,0.74,-0.15,1.32,2.35,2.94,4.26,2.94,4.26,4.26,5.15,,,,,,,,,,,,,,
1799999991551459294,2027-01-15T07:59:51.551459294Z,-1.76,-0.74,-0.59,-0.59,0.29,-1.03,0.74,2.79,2.65,3.68,2.65,3.82,3.68,5.15,,,,,,,,,,,,,,
1799999991566820277,2027-01-15T07:59:51.566820277Z,0.44,-1.18,0.00,-0.88,0.15,-0.44,1.03,3.09,3.09,3.82,3.09,3.24,3.97,7.50,,,,,,,,,,,,,,
1799999991582181260,2027-01-15T07:59:51.582181260Z,0.44,-1.03,-0.44,-0.29,-0.15,1.03,1.47,-0.15,3.97,2.79,3.53,3.82,4.56,5.59,,,,,,,,,,,,,,
1799999991597542243,2027-01-15T07:59:51.597542243Z,-0.29,-1.76,-0.59,1.03,2.06,1.62,3.24,-0.15,3.68,1.76,4.71,3.53,5.00,4.26,,,,,,,,,,,,,,
1799999991612903226,2027-01-15T07:59:51.612903226Z,-2.35,-1.18,-0.15,2.21,3.53,3.24,3.53,0.44,1.47,1.18,4.56,1.62,4.71,4.85,,,,,,,,,,,,,,
1799999991628264209,2027-01-15T07:59:51.628264209Z,-2.21,-1.91,1.18,1.91,1.62,1.47,2.06,1.62,2.50,1.91,3.82,2.35,3.82,5.29,,,,,,,,,,,,,,
1799999991643625193,2027-01-15T07:59:51.643625193Z,1.03,-1.47,0.74,0.15,2.06,1.03,0.00,3.53,2.06,3.24,3.09,3.38,5.00,5.15,,,,,,,,,,,,,,
1799999991658986176,2027-01-15T07:59:51.658986176Z,-0.74,-1.03,0.15,0.44,0.29,1.76,0.88,2.35,1.18,3.82,4.41,3.38,4.41,4.26,,,,,,,,,,,,,,
1799999991674347159,2027-01-15T07:59:51.674347159Z,-0.44,-1.18,-0.59,0.88,-1.91,2.21,0.00,1.62,1.76,4.26,3.82,4.12,3.82,4.12,,,,,,,,,,,,,,
1799999991689708142,2027-01-15T07:59:51.689708142Z,-0.88,-0.88,0.74,-1.03,-2.21,1.03,0.74,1.32,2.79,6.32,4.41,2.65,3.68,3.82,,,,,,,,,,,,,,
1799999991705069125,2027-01-15T07:59:51.705069125Z,-0.74,-1.18,1.76,-1.18,0.15,0.74,1.18,1.62,2.94,3.24,4.26,2.65,2.94,4.26,,,,,,,,,,,,,,
1799999991720430108,2027-01-15T07:59:51.720430108Z,-1.47,-1.62,0.88,-0.15,2.65,2.06,0.59,2.65,3.53,3.68,3.24,3.97,4.41,4.85,,,,,,,,,,,,,,
1799999991735791091,2027-01-15T07:59:51.735791091Z,1.18,-1.47,0.88,0.44,1.18,2.50,0.88,3.53,3.24,3.24,4.26,3.24,5.74,3.97,,,,,,,,,,,,,,
1799999991751152074,2027-01-15T07:59:51.751152074Z,-1.32,-1.03,-0.15,0.74,1.76,2.50,0.74,2.94,2.94,2.65,4.85,1.91,5.29,5.00,,,,,,,,,,,,,,
1799999991766513057,2027-01-15T07:59:51.766513057Z,-1.18,-0.88,0.00,0.88,1.76,1.62,0.88,2.50,3.09,4.12,5.29,2.50,3.97,6.62,,,,,,,,,,,,,,
1799999991781874040,2027-01-15T07:59:51.781874040Z,-0.59,-0.88,-0.88,1.18,2.35,1.91,1.91,1.76,3.24,2.50,5.29,2.35,3.82,5.29,,,,,,,,,,,,,,
1799999991797235024,2027-01-15T07:59:51.797235024Z,0.44,-0.44,-1.32,1.03,2.50,2.79,2.79,1.76,3.68,0.74,5.74,1.91,5.44,3.53,,,,,,,,,,,,,,
1799999991812596007,2027-01-15T07:59:51.812596007Z,1.47,0.15,-1.03,1.18,3.38,1.03,2.65,1.62,2.79,2.06,4.26,4.41,4.56,6.32,,,,,,,,,,,,,,
1799999991827956990,2027-01-15T07:59:51.827956990Z,-0.44,0.29,0.00,0.15,0.88,-0.15,2.21,1.47,3.38,2.06,3.38,3.97,3.53,7.35,,,,,,,,,,,,,,
1799999991843317973,2027-01-15T07:59:51.843317973Z,-0.15,1.18,1.18,-0.88,0.29,1.32,0.00,1.03,4.71,2.06,3.97,5.15,3.82,7.94,,,,,,,,,,,,,,
1799999991858678956,2027-01-15T07:59:51.858678956Z,-0.44,1.32,0.00,-0.59,1.91,3.09,0.59,0.88,3.97,4.12,3.24,4.85,4.71,5.15,,,,,,,,,,,,,,
1799999991874039939,2027-01-15T07:59:51.874039939Z,,0.74,-0.44,1.18,1.18,2.94,1.62,1.47,3.38,2.21,2.79,3.82,5.74,4.56,,,,,,,,,,,,,,
1799999991889400922,2027-01-15T07:59:51.889400922Z,-0.88,0.00,0.29,1.32,0.44,2.50,2.21,1.91,2.94,0.44,3.97,2.65,5.00,3.53,,,,,,,,,,,,,,
1799999991904761905,2027-01-15T07:59:51.904761905Z,0.44,-0.29,0.44,0.88,1.32,1.32,0.88,2.50,2.06,0.88,3.53,2.94,3.38,5.00,,,,,,,,,,,,,,
1799999991920122888,2027-01-15T07:59:51.920122888Z,0.00,-0.59,-0.15,1.47,1.18,-0.88,1.18,2.79,1.91,2.65,2.50,3.97,3.82,6.62,,,,,,,,,,,,,,
1799999991935483871,2027-01-15T07:59:51.935483871Z,0.44,0.44,-0.15,0.29,0.59,0.29,1.32,2.50,2.21,3.68,4.56,3.53,3.68,4.71,,,,,,,,,,,,,,
1799999991950844855,2027-01-15T07:59:51.950844855Z,0.29,1.18,0.44,0.74,1.18,1.76,2.06,2.21,3.53,3.09,3.82,3.53,3.82,3.82,,,,,,,,,,,,,,
1799999991966205838,2027-01-15T07:59:51.966205838Z,1.03,-0.44,0.88,1.91,-1.32,1.76,2.50,2.06,1.62,2.50,2.06,4.12,4.71,3.24,,,,,,,,,,,,,,
1799999991981566821,2027-01-15T07:59:51.981566821Z,1.18,-1.18,1.32,-0.44,-1.32,1.32,3.38,2.65,1.47,4.26,1.76,4.26,6.03,4.41,,,,,,,,,,,,,,
1799999991996927804,2027-01-15T07:59:51.996927804Z,1.76,-0.74,2.35,-0.44,-0.15,1.76,3.68,2.79,3.09,4.71,2.06,5.15,5.29,5.15,,,,,,,,,,,,,,
1799999992012288787,2027-01-15T07:59:52.012288787Z,0.88,0.59,2.50,1.76,0.15,2.65,3.38,2.65,2.06,3.68,4.12,4.71,4.71,6.03,,,,,,,,,,,,,,
1799999992027649770,2027-01-15T07:59:52.027649770Z,0.29,-0.44,0.88,1.32,1.76,2.21,1.62,2.35,2.50,1.32,4.12,4.85,3.24,6.76,,,,,,,,,,,,,,
1799999992043010753,2027-01-15T07:59:52.043010753Z,1.91,-0.15,-0.15,1.03,1.47,2.35,1.76,0.88,3.53,1.47,3.38,4.85,3.68,5.29,,,,,,,,,,,,,,
1799999992058371736,2027-01-15T07:59:52.058371736Z,-0.29,0.44,-0.88,1.03,0.88,2.35,2.06,2.65,3.38,2.21,3.82,5.29,5.29,3.82,,,,,,,,,,,,,,
1799999992073732719,2027-01-15T07:59:52.073732719Z,-0.44,2.06,-2.35,0.88,2.06,2.06,1.91,4.41,2.65,3.97,2.65,5.88,4.71,3.68,,,,,,,,,,,,,,
1799999992089093702,2027-01-15T07:59:52.089093702Z,-1.62,0.59,-2.21,0.44,1.76,1.47,3.24,3.53,2.06,4.26,2.65,4.56,4.71,3.97,,,,,,,,,,,,,,
1799999992104454686,2027-01-15T07:59:52.104454686Z,-2.79,-0.44,-0.88,0.29,0.15,0.29,2.21,2.35,1.47,3.38,3.97,5.29,4.85,4.85,,,,,,,,,,,,,,
1799999992119815669,2027-01-15T07:59:52.119815669Z,-1.18,0.74,-0.15,0.00,-0.29,0.59,2.50,1.47,2.94,5.15,3.68,5.00,4.26,5.74,,,,,,,,,,,,,,
1799999992135176652,2027-01-15T07:59:52.135176652Z,-1.76,0.59,-0.15,0.00,0.88,0.59,2.94,1.91,2.94,5.15,3.97,4.71,4.12,6.91,,,,,,,,,,,,,,
1799999992150537635,2027-01-15T07:59:52.150537635Z,-0.88,-0.15,-1.47,-0.15,1.03,1.91,2.94,2.21,2.65,4.41,4.56,4.56,5.00,5.88,,,,,,,,,,,,,,
1799999992165898618,2027-01-15T07:59:52.165898618Z,-0.44,-0.88,-0.29,-0.59,-1.18,1.32,3.24,1.47,3.82,2.79,3.82,4.12,5.44,3.68,,,,,,,,,,,,,,
1799999992181259601,2027-01-15T07:59:52.181259601Z,0.00,-1.76,-0.59,0.88,-0.15,0.59,1.91,2.21,3.38,1.03,3.38,5.00,3.82,3.82,,,,,,,,,,,,,,
1799999992196620584,2027-01-15T07:59:52.196620584Z,0.15,-0.74,-0.59,0.29,0.29,1.62,1.91,2.79,2.79,2.21,3.97,5.74,4.85,5.44,,,,,,,,,,,,,,
1799999992211981567,2027-01-15T07:59:52.211981567Z,0.88,0.00,0.59,-0.59,2.06,1.32,0.59,2.21,2.35,3.97,4.71,4.85,6.32,5.29,,,,,,,,,,,,,,
1799999992227342550,2027-01-15T07:59:52.227342550Z,-0.74,-1.03,0.88,-1.18,2.06,0.44,1.47,1.32,3.38,4.12,3.24,3.68,5.44,4.71,,,,,,,,,,,,,,
1799999992242703534,2027-01-15T07:59:52.242703534Z,-0.88,-0.29,1.03,-0.44,0.00,0.88,2.35,2.50,4.41,3.38,2.35,5.44,5.44,4.85,,,,,,,,,,,,,,
1799999992258064517,2027-01-15T07:59:52.258064517Z,0.15,-1.91,1.47,0.15,-0.74,0.88,2.06,3.09,2.35,1.76,2.79,4.41,5.00,4.56,,,,,,,,,,,,,,
1799999992273425500,2027-01-15T07:59:52.273425500Z,-0.59,-2.21,-0.15,0.59,0.59,0.44,2.35,1.03,1.62,1.18,2.94,4.56,6.62,5.44,,,,,,,,,,,,,,
1799999992288786483,2027-01-15T07:59:52.288786483Z,-0.44,0.00,-0.59,0.59,0.74,1.47,2.65,1.91,0.74,3.68,3.53,3.68,5.00,3.82,,,,,,,,,,,,,,
1799999992304147466,2027-01-15T07:59:52.304147466Z,-0.88,0.15,-1.32,1.03,0.15,1.32,1.62,1.62,1.47,4.56,3.09,3.24,4.26,3.82,,,,,,,,,,,,,,
1799999992319508449,2027-01-15T07:59:52.319508449Z,0.44,-0.29,-0.74,0.88,2.65,0.15,1.62,1.76,1.18,4.12,3.09,3.97,5.00,3.97,,,,,,,,,,,,,,
1799999992334869432,2027-01-15T07:59:52.334869432Z,0.29,-1.47,0.44,0.44,3.68,0.00,2.35,2.35,0.59,2.35,4.41,2.65,5.29,3.97,,,,,,,,,,,,,,
1799999992350230415,2027-01-15T07:59:52.350230415Z,0.29,-1.76,1.03,1.32,3.53,-0.29,2.94,3.38,0.88,2.65,4.85,2.65,4.71,3.68,,,,,,,,,,,,,,
1799999992365591398,2027-01-15T07:59:52.365591398Z,-0.88,-1.18,0.44,0.88,0.44,0.74,1.91,2.79,2.21,1.03,3.53,4.85,3.53,3.97,,,,,,,,,,,,,,
1799999992380952381,2027-01-15T07:59:52.380952381Z,-1.62,-1.32,-0.29,-0.74,-0.29,1.47,1.18,2.35,3.09,0.44,4.56,5.74,4.85,3.82,,,,,,,,,,,,,,
1799999992396313365,2027-01-15T07:59:52.396313365Z,-0.44,-0.29,1.76,0.29,1.03,0.74,1.47,2.65,3.38,4.85,4.71,5.00,4.56,3.53,,,,,,,,,,,,,,
1799999992411674348,2027-01-15T07:59:52.411674348Z,0.88,-0.74,0.59,1.03,2.21,1.03,0.44,0.74,1.91,4.41,4.12,4.56,3.82,4.26,,,,,,,,,,,,,,
1799999992427035331,2027-01-15T07:59:52.427035331Z,-0.74,-2.21,0.29,1.76,2.65,0.29,0.29,2.50,2.50,2.21,2.94,4.26,3.97,3.38,,,,,,,,,,,,,,
1799999992442396314,2027-01-15T07:59:52.442396314Z,1.32,-0.59,1.03,1.03,1.76,0.44,0.44,3.68,1.91,2.21,3.24,2.94,3.53,4.12,,,,,,,,,,,,,,
1799999992457757297,2027-01-15T07:59:52.457757297Z,0.59,-0.15,0.44,0.59,-0.15,0.15,-0.44,2.50,4.26,4.85,3.09,3.53,3.24,5.15,,,,,,,,,,,,,,
1799999992473118280,2027-01-15T07:59:52.473118280Z,2.65,0.59,-1.18,-0.88,-0.88,0.29,0.00,1.91,3.68,4.71,4.26,5.44,3.97,4.41,,,,,,,,,,,,,,
1799999992488479263,2027-01-15T07:59:52.488479263Z,0.00,0.00,-0.59,0.29,0.74,0.74,1.47,2.65,2.50,3.38,4.41,3.68,4.85,6.03,,,,,,,,,,,,,,
1799999992503840246,2027-01-15T07:59:52.503840246Z,-0.59,-1.03,0.74,0.44,2.50,1.47,1.18,1.03,1.47,0.15,4.12,3.82,5.59,7.06,,,,,,,,,,,,,,
1799999992519201229,2027-01-15T07:59:52.519201229Z,1.03,-0.15,-1.62,-0.44,2.65,1.32,2.06,1.76,2.79,2.94,3.38,4.56,4.56,4.41,,,,,,,,,,,,,,
1799999992534562212,2027-01-15T07:59:52.534562212Z,-0.15,0.59,-1.32,2.06,1.91,0.59,1.91,1.47,3.24,4.41,3.09,3.38,2.94,4.12,,,,,,,,,,,,,,
1799999992549923196,2027-01-15T07:59:52.549923196Z,-1.47,0.74,-0.15,1.62,-0.74,0.88,2.94,2.35,3.24,5.00,3.82,3.24,3.82,4.56,,,,,,,,,,,,,,
1799999992565284179,2027-01-15T07:59:52.565284179Z,0.00,-0.29,-0.59,0.74,-0.88,1.91,3.09,3.24,3.24,4.41,3.09,4.26,2.79,4.71,,,,,,,,,,,,,,
1799999992580645162,2027-01-15T07:59:52.580645162Z,-0.88,-1.03,0.44,0.29,0.29,2.79,2.79,1.62,2.79,0.88,3.24,3.53,5.44,6.18,,,,,,,,,,,,,,
1799999992596006145,2027-01-15T07:59:52.596006145Z,0.74,0.29,1.76,1.91,1.03,1.76,2.06,2.94,4.26,2.94,3.53,2.94,6.03,6.76,,,,,,,,,,,,,,
1799999992611367128,2027-01-15T07:59:52.611367128Z,0.00,1.47,0.59,1.76,1.76,0.88,2.35,3.68,3.53,3.38,5.00,4.71,4.71,6.62,,,,,,,,,,,,,,
1799999992626728111,2027-01-15T07:59:52.626728111Z,-0.15,0.29,-0.29,1.32,0.29,1.32,2.06,4.41,2.65,3.09,3.38,4.71,5.59,6.62,,,,,,,,,,,,,,
1799999992642089094,2027-01-15T07:59:52.642089094Z,0.44,0.44,0.29,1.18,-0.29,1.91,2.35,2.21,2.21,2.94,2.79,3.97,4.85,6.03,,,,,,,,,,,,,,
1799999992657450077,2027-01-15T07:59:52.657450077Z,1.76,1.62,1.32,1.62,0.29,2.94,2.65,2.79,2.21,2.50,3.82,4.12,5.00,3.38,,,,,,,,,,,,,,
1799999992672811060,2027-01-15T07:59:52.672811060Z,0.00,0.15,0.15,-0.15,-0.74,1.76,3.53,2.94,3.68,1.76,3.24,5.00,3.82,3.68,,,,,,,,,,,,,,
1799999992688172044,2027-01-15T07:59:52.688172044Z,-1.03,-1.18,-0.29,-1.03,1.76,0.74,3.68,2.65,4.12,4.71,3.24,4.56,3.97,4.41,,,,,,,,,,,,,,
1799999992703533027,2027-01-15T07:59:52.703533027Z,-1.62,-0.59,0.44,0.15,3.09,1.47,3.68,2.06,2.50,7.35,3.68,3.82,4.71,5.44,,,,,,,,,,,,,,
1799999992718894010,2027-01-15T07:59:52.718894010Z,-1.62,-1.18,0.44,-0.59,2.65,2.35,4.12,2.35,2.06,4.85,3.24,3.68,3.97,5.88,,,,,,,,,,,,,,
1799999992734254993,2027-01-15T07:59:52.734254993Z,-1.62,-2.21,-0.29,0.29,1.91,2.21,1.62,3.38,3.09,4.56,4.56,3.53,4.12,4.71,,,,,,,,,,,,,,
1799999992749615976,2027-01-15T07:59:52.749615976Z,0.88,-1.47,-0.29,0.59,-0.44,2.06,1.03,2.06,3.97,2.35,3.82,3.38,4.71,5.59,,,,,,,,,,,,,,
1799999992764976959,2027-01-15T07:59:52.764976959Z,1.03,-0.74,-0.74,1.47,0.15,1.47,0.00,2.79,3.68,3.68,2.79,3.38,3.97,5.15,,,,,,,,,,,,,,
1799999992780337942,2027-01-15T07:59:52.780337942Z,0.15,-0.15,0.74,1.03,0.59,2.35,0.44,3.24,4.26,3.38,2.35,3.38,4.56,4.56,,,,,,,,,,,,,,
1799999992795698925,2027-01-15T07:59:52.795698925Z,-1.03,-1.18,1.32,2.06,0.59,2.35,2.21,2.21,3.82,1.91,2.35,4.56,3.97,5.00,,,,,,,,,,,,,,
1799999992811059908,2027-01-15T07:59:52.811059908Z,0.00,-0.74,0.88,0.88,-0.44,1.18,2.65,0.88,2.65,3.24,4.12,4.85,3.53,5.74,,,,,,,,,,,,,,
1799999992826420891,2027-01-15T07:59:52.826420891Z,-0.59,0.29,0.44,-0.15,-1.62,-0.29,2.50,1.32,2.21,3.09,3.97,3.68,4.56,6.76,,,,,,,,,,,,,,
1799999992841781875,2027-01-15T07:59:52.841781875Z,-2.65,0.15,-1.03,-1.32,-5.15,0.00,1.03,2.21,2.65,3.24,3.09,5.88,4.71,5.74,,,,,,,,,,,,,,
1799999992857142858,2027-01-15T07:59:52.857142858Z,-3.53,-1.18,-1.47,-0.74,-2.21,0.59,1.32,2.06,2.94,3.68,2.79,5.88,4.41,4.85,,,,,,,,,,,,,,
1799999992872503841,2027-01-15T07:59:52.872503841Z,-3.24,-2.06,0.00,1.62,2.50,2.65,-0.15,1.47,2.06,3.82,4.41,3.97,4.85,4.12,,,,,,,,,,,,,,
1799999992887864824,2027-01-15T07:59:52.887864824Z,-3.09,-1.91,1.18,-0.59,3.82,2.50,0.00,2.65,3.38,4.56,3.24,3.97,4.71,4.41,,,,,,,,,,,,,,
1799999992903225807,2027-01-15T07:59:52.903225807Z,-1.76,-1.18,0.59,-1.03,2.35,2.06,1.47,1.91,3.24,2.65,1.76,4.26,4.56,5.00,,,,,,,,,,,,,,
1799999992918586790,2027-01-15T07:59:52.918586790Z,-1.76,-0.88,-0.59,-1.03,1.91,2.35,1.91,1.47,0.29,1.62,2.79,5.29,3.82,6.03,,,,,,,,,,,,,,
1799999992933947773,2027-01-15T07:59:52.933947773Z,-1.47,-1.18,0.15,-0.15,3.09,2.94,1.03,2.79,1.76,3.38,4.12,5.29,3.38,5.29,,,,,,,,,,,,,,
1799999992949308756,2027-01-15T07:59:52.949308756Z,0.00,-0.44,1.18,0.00,3.09,2.06,0.74,2.94,2.06,3.97,5.44,2.06,3.53,4.85,,,,,,,,,,,,,,
1799999992964669739,2027-01-15T07:59:52.964669739Z,-3.24,-0.74,-0.29,-0.59,0.88,1.18,1.47,2.21,1.47,1.76,6.03,3.09,4.85,3.68,,,,,,,,,,,,,,
1799999992980030722,2027-01-15T07:59:52.980030722Z,-3.53,-2.50,-1.18,0.29,-0.59,1.18,2.94,1.91,1.91,1.91,6.18,3.68,5.74,4.26,,,,,,,,,,,,,,
1799999992995391706,2027-01-15T07:59:52.995391706Z,-0.15,-2.06,-0.74,1.18,0.88,-1.03,3.82,-0.29,1.91,3.68,5.15,4.26,4.56,4.56,,,,,,,,,,,,,,
1799999993010752689,2027-01-15T07:59:53.010752689Z,0.44,-1.03,0.15,1.32,1.47,1.03,1.62,0.74,2.06,4.71,3.38,3.38,4.71,4.85,,,,,,,,,,,,,,
1799999993026113672,2027-01-15T07:59:53.026113672Z,-1.03,-0.88,0.44,0.44,1.18,1.76,0.44,2.79,1.91,2.94,4.26,2.94,5.59,5.44,,,,,,,,,,,,,,
1799999993041474655,2027-01-15T07:59:53.041474655Z,0.88,-0.59,0.15,1.03,0.59,1.32,0.88,3.24,2.50,2.35,4.26,3.68,3.82,5.29,,,,,,,,,,,,,,
1799999993056835638,2027-01-15T07:59:53.056835638Z,0.29,0.59,0.29,1.03,0.59,2.21,1.47,2.94,3.97,3.38,3.68,3.68,5.15,5.44,,,,,,,,,,,,,,
1799999993072196621,2027-01-15T07:59:53.072196621Z,1.03,0.29,0.44,1.32,2.35,1.76,1.76,1.91,3.09,1.76,1.62,3.53,7.06,5.44,,,,,,,,,,,,,,
1799999993087557604,2027-01-15T07:59:53.087557604Z,2.06,0.29,0.59,0.88,3.38,1.91,3.24,2.21,2.79,2.79,2.35,3.97,4.85,5.00,,,,,,,,,,,,,,
1799999993102918587,2027-01-15T07:59:53.102918587Z,0.74,1.62,0.29,-0.44,2.06,1.18,5.00,0.59,3.53,3.53,5.15,3.53,4.71,6.03,,,,,,,,,,,,,,
1799999993118279570,2027-01-15T07:59:53.118279570Z,-0.15,1.03,-1.32,-0.88,0.74,0.59,2.94,-0.74,3.38,1.18,5.88,2.94,3.97,6.76,,,,,,,,,,,,,,
1799999993133640553,2027-01-15T07:59:53.133640553Z,1.03,1.91,-1.03,-0.44,2.06,1.91,1.32,0.88,2.79,0.74,4.12,1.91,4.71,5.74,,,,,,,,,,,,,,
1799999993149001537,2027-01-15T07:59:53.149001537Z,1.18,1.18,-0.15,2.35,2.79,1.62,1.62,2.06,3.24,1.47,4.12,3.09,4.41,5.59,,,,,,,,,,,,,,
1799999993164362520,2027-01-15T07:59:53.164362520Z,2.50,0.29,0.44,2.65,1.62,0.29,2.35,4.56,3.97,3.09,5.00,3.24,3.82,5.44,,,,,,,,,,,,,,
1799999993179723503,2027-01-15T07:59:53.179723503Z,-0.59,-0.29,0.59,1.91,1.32,1.91,3.53,3.97,3.38,2.65,4.12,3.53,3.09,3.97,,,,,,,,,,,,,,
1799999993195084486,2027-01-15T07:59:53.195084486Z,0.00,1.62,1.18,1.32,0.00,2.50,3.24,3.24,3.24,3.09,4.26,4.85,4.12,3.53,,,,,,,,,,,,,,
1799999993210445469,2027-01-15T07:59:53.210445469Z,0.15,1.32,0.74,1.47,0.44,1.47,2.06,3.82,2.94,4.26,2.79,4.26,4.41,3.53,,,,,,,,,,,,,,
1799999993225806452,2027-01-15T07:59:53.225806452Z,0.59,0.29,0.88,1.03,0.44,1.76,1.18,4.71,2.79,3.53,1.18,3.97,4.71,2.79,,,,,,,,,,,,,,
1799999993241167435,2027-01-15T07:59:53.241167435Z,-0.59,1.32,0.88,0.59,-1.18,3.82,0.29,4.26,2.50,2.65,3.38,3.24,3.24,5.29,,,,,,,,,,,,,,
1799999993256528418,2027-01-15T07:59:53.256528418Z,0.74,2.06,-0.15,0.29,0.00,4.26,1.91,3.24,3.38,3.82,3.38,3.68,2.79,5.15,,,,,,,,,,,,,,
1799999993271889401,2027-01-15T07:59:53.271889401Z,-1.18,2.06,-0.29,1.91,1.47,4.56,1.62,3.53,3.97,3.97,2.65,5.44,3.82,3.97,,,,,,,,,,,,,,
1799999993287250385,2027-01-15T07:59:53.287250385Z,-0.15,0.44,-0.88,2.50,2.06,3.09,0.88,3.38,3.68,3.38,2.94,5.15,4.41,4.85,,,,,,,,,,,,,,
1799999993302611368,2027-01-15T07:59:53.302611368Z,-0.15,0.74,-1.03,2.35,0.29,3.53,0.44,2.21,3.24,3.09,2.65,5.29,5.00,4.12,,,,,,,,,,,,,,
1799999993317972351,2027-01-15T07:59:53.317972351Z,1.18,1.03,0.88,-1.32,-0.15,3.09,-0.15,1.91,3.24,2.21,3.53,5.88,5.88,3.97,,,,,,,,,,,,,,
1799999993333333334,2027-01-15T07:59:53.333333334Z,0.88,0.74,1.76,-1.03,0.44,2.21,0.59,0.74,2.21,2.35,3.68,5.59,6.47,5.15,,,,,,,,,,,,,,
1799999993348694317,2027-01-15T07:59:53.348694317Z,-0.74,0.59,-0.44,2.94,1.03,1.62,1.32,1.62,1.91,3.38,3.82,3.97,5.00,5.59,,,,,,,,,,,,,,
1799999993364055300,2027-01-15T07:59:53.364055300Z,0.29,0.44,-0.29,1.18,0.00,0.88,1.32,2.94,2.65,3.53,4.71,4.71,4.12,5.15,,,,,,,,,,,,,,
1799999993379416283,2027-01-15T07:59:53.379416283Z,-2.06,-0.44,-1.18,-1.32,0.59,2.06,1.62,2.65,3.24,4.12,3.53,4.41,3.97,4.26,,,,,,,,,,,,,,
1799999993394777266,2027-01-15T07:59:53.394777266Z,0.44,-0.88,-0.59,0.88,1.91,2.06,1.62,2.06,3.68,4.56,3.53,3.68,4.12,3.38,,,,,,,,,,,,,,
1799999993410138249,2027-01-15T07:59:53.410138249Z,-0.59,-0.88,-0.15,1.47,1.18,0.00,1.03,1.47,3.38,3.53,4.26,4.12,3.82,5.15,,,,,,,,,,,,,,
1799999993425499232,2027-01-15T07:59:53.425499232Z,-1.76,-0.44,-0.15,1.76,1.76,1.62,1.18,1.62,0.88,4.41,3.68,4.41,3.09,6.32,,,,,,,,,,,,,,
1799999993440860216,2027-01-15T07:59:53.440860216Z,-2.50,-2.21,-0.15,1.32,0.74,3.09,1.18,0.59,0.88,5.15,2.94,2.94,4.26,5.59,,,,,,,,,,,,,,
1799999993456221199,2027-01-15T07:59:53.456221199Z,0.44,-3.68,0.29,0.29,0.29,2.06,1.47,1.03,2.06,3.24,3.09,3.38,5.44,4.71,,,,,,,,,,,,,,
1799999993471582182,2027-01-15T07:59:53.471582182Z,-0.59,-2.94,-0.88,-1.18,-0.44,1.18,2.06,2.65,1.32,1.91,4.71,4.12,5.00,3.53,,,,,,,,,,,,,,
1799999993486943165,2027-01-15T07:59:53.486943165Z,-3.38,-2.06,-0.59,0.00,-0.29,0.15,1.91,2.06,2.21,4.26,3.38,4.56,4.56,5.00,,,,,,,,,,,,,,
1799999993502304148,2027-01-15T07:59:53.502304148Z,-2.06,-2.06,0.29,1.62,1.62,-0.44,1.47,2.35,2.21,3.24,2.79,3.82,4.41,5.59,,,,,,,,,,,,,,
1799999993517665131,2027-01-15T07:59:53.517665131Z,0.88,-2.35,0.88,-0.74,2.21,-1.03,1.91,2.21,0.74,-0.74,4.12,3.53,4.71,6.47,,,,,,,,,,,,,,
1799999993533026114,2027-01-15T07:59:53.533026114Z,-0.88,-0.29,0.15,-1.47,2.50,0.00,1.32,2.06,1.32,0.29,3.24,2.79,4.71,5.00,,,,,,,,,,,,,,
1799999993548387097,2027-01-15T07:59:53.548387097Z,-1.03,-1.18,0.74,-2.06,-0.15,0.88,2.35,2.65,1.76,3.38,2.65,3.68,4.41,4.26,,,,,,,,,,,,,,
1799999993563748080,2027-01-15T07:59:53.563748080Z,-3.68,-2.50,0.74,-1.91,0.15,-0.29,3.24,2.50,1.62,1.76,3.53,4.26,4.56,5.44,,,,,,,,,,,,,,
1799999993579109063,2027-01-15T07:59:53.579109063Z,-3.82,-0.44,-0.15,-0.59,2.35,1.18,4.71,0.74,1.32,2.65,4.12,3.97,3.97,5.44,,,,,,,,,,,,,,
1799999993594470047,2027-01-15T07:59:53.594470047Z,-1.76,0.29,-0.74,-0.29,0.74,1.18,3.68,0.88,2.65,3.68,4.41,5.29,3.09,4.85,,,,,,,,,,,,,,
1799999993609831030,2027-01-15T07:59:53.609831030Z,-0.88,-1.03,-0.44,0.44,0.15,0.15,3.24,-0.15,3.09,4.12,3.38,3.38,3.82,5.74,,,,,,,,,,,,,,
1799999993625192013,2027-01-15T07:59:53.625192013Z,-4.26,-2.06,0.44,0.74,0.88,-0.74,3.24,0.59,2.79,3.38,4.26,3.53,4.26,3.68,,,,,,,,,,,,,,
1799999993640552996,2027-01-15T07:59:53.640552996Z,0.59,0.15,0.29,-0.59,1.62,0.44,2.79,2.50,3.68,2.65,3.68,5.59,4.56,3.24,,,,,,,,,,,,,,
1799999993655913979,2027-01-15T07:59:53.655913979Z,-1.76,-1.03,-0.44,-0.74,2.50,1.32,2.35,2.65,2.79,3.68,3.53,3.38,3.82,3.68,,,,,,,,,,,,,,
1799999993671274962,2027-01-15T07:59:53.671274962Z,-0.74,-1.18,-0.15,0.15,1.03,1.47,1.47,2.65,2.50,4.85,3.24,2.65,3.53,3.97,,,,,,,,,,,,,,
1799999993686635945,2027-01-15T07:59:53.686635945Z,0.44,-1.03,1.03,2.65,2.65,1.76,2.06,3.24,3.24,3.24,3.53,3.97,4.12,5.29,,,,,,,,,,,,,,
1799999993701996928,2027-01-15T07:59:53.701996928Z,0.44,-1.18,-0.29,1.62,2.94,1.18,0.00,2.35,3.53,2.21,3.82,4.71,5.29,5.88,,,,,,,,,,,,,,
1799999993717357911,2027-01-15T07:59:53.717357911Z,-0.29,0.00,-0.74,-0.15,1.62,2.35,-0.44,2.79,2.50,3.24,3.53,5.15,5.59,5.44,,,,,,,,,,,,,,
1799999993732718895,2027-01-15T07:59:53.732718895Z,1.03,0.59,-0.59,2.06,2.06,1.62,1.32,2.65,3.53,3.38,3.38,6.32,3.38,5.29,,,,,,,,,,,,,,
1799999993748079878,2027-01-15T07:59:53.748079878Z,1.76,1.32,-1.03,2.35,1.62,0.88,-0.29,1.32,3.09,2.35,3.68,4.56,3.82,5.15,,,,,,,,,,,,,,
1799999993763440861,2027-01-15T07:59:53.763440861Z,0.44,1.47,-0.44,2.06,1.32,2.65,1.18,2.65,2.35,0.88,3.09,3.38,4.41,5.00,,,,,,,,,,,,,,
1799999993778801844,2027-01-15T07:59:53.778801844Z,0.44,1.03,0.44,0.74,5.00,2.50,2.35,2.50,2.06,0.74,1.76,3.09,4.41,4.41,,,,,,,,,,,,,,
1799999993794162827,2027-01-15T07:59:53.794162827Z,-0.88,-0.74,0.44,2.79,1.32,1.76,1.91,1.91,2.21,2.21,2.65,1.47,3.53,3.82,,,,,,,,,,,,,,
1799999993809523810,2027-01-15T07:59:53.809523810Z,1.03,0.15,-1.03,3.68,-3.09,1.76,2.21,1.91,3.24,2.06,3.97,1.47,4.85,4.41,,,,,,,,,,,,,,
1799999993824884793,2027-01-15T07:59:53.824884793Z,0.15,0.88,-2.21,0.59,-0.59,0.88,2.35,1.76,5.29,3.53,3.68,1.91,4.71,5.15,,,,,,,,,,,,,,
1799999993840245776,2027-01-15T07:59:53.840245776Z,0.74,1.32,-1.76,-0.59,1.32,0.29,1.76,1.18,4.12,5.29,3.38,3.24,5.44,5.00,,,,,,,,,,,,,,
1799999993855606759,2027-01-15T07:59:53.855606759Z,0.88,0.29,0.15,0.74,0.29,0.59,1.32,3.53,3.53,4.71,3.24,3.68,5.44,5.74,,,,,,,,,,,,,,
1799999993870967742,2027-01-15T07:59:53.870967742Z,1.47,-0.74,0.88,-0.15,-1.03,1.18,2.94,3.82,3.38,3.53,2.65,3.82,4.41,5.15,,,,,,,,,,,,,,
1799999993886328726,2027-01-15T07:59:53.886328726Z,-0.29,0.59,1.03,-0.88,0.88,0.44,2.94,3.53,1.32,3.97,3.53,5.00,4.71,5.00,,,,,,,,,,,,,,
1799999993901689709,2027-01-15T07:59:53.901689709Z,-0.74,1.47,0.15,1.62,1.03,1.47,2.79,3.53,2.06,3.68,4.26,4.71,5.29,5.44,,,,,,,,,,,,,,
1799999993917050692,2027-01-15T07:59:53.917050692Z,-1.32,-1.18,-0.44,1.18,0.00,2.06,2.79,3.09,2.94,3.24,4.85,4.41,5.00,7.06,,,,,,,,,,,,,,
1799999993932411675,2027-01-15T07:59:53.932411675Z,1.62,-1.18,0.59,0.15,-1.03,1.47,2.06,2.79,3.68,3.53,3.53,3.53,3.68,6.03,,,,,,,,,,,,,,
1799999993947772658,2027-01-15T07:59:53.947772658Z,1.47,0.00,0.15,-0.44,-0.59,1.62,2.21,2.79,3.97,2.65,4.56,4.56,3.24,4.56,,,,,,,,,,,,,,
1799999993963133641,2027-01-15T07:59:53.963133641Z,0.29,0.59,1.03,-0.15,-0.88,2.06,2.50,1.18,4.12,2.79,4.71,4.71,2.94,7.35,,,,,,,,,,,,,,
1799999993978494624,2027-01-15T07:59:53.978494624Z,-0.74,0.00,0.15,-2.06,-0.59,2.21,1.62,1.91,3.82,2.65,3.97,3.97,5.44,6.18,,,,,,,,,,,,,,
1799999993993855607,2027-01-15T07:59:53.993855607Z,-0.44,-0.15,0.29,-1.62,-0.15,1.91,2.21,3.09,3.68,1.91,3.53,2.50,5.44,5.29,,,,,,,,,,,,,,
1799999994009216590,2027-01-15T07:59:54.009216590Z,0.74,0.15,2.65,-0.29,0.59,1.91,1.76,2.21,1.03,3.53,2.94,2.65,4.41,6.03,,,,,,,,,,,,,,
1799999994024577573,2027-01-15T07:59:54.024577573Z,-0.15,-0.44,3.09,1.18,0.88,2.35,1.18,2.21,2.06,4.12,5.00,4.26,4.85,5.15,,,,,,,,,,,,,,
1799999994039938557,2027-01-15T07:59:54.039938557Z,-0.44,-0.44,1.76,0.74,1.03,2.21,1.76,1.76,3.38,4.41,4.56,3.82,5.00,3.82,,,,,,,,,,,,,,
1799999994055299540,2027-01-15T07:59:54.055299540Z,-0.88,-0.88,1.32,1.18,0.74,1.62,2.94,1.18,2.21,3.53,3.68,4.41,3.53,2.79,,,,,,,,,,,,,,
1799999994070660523,2027-01-15T07:59:54.070660523Z,2.21,-2.21,-0.29,1.18,2.06,1.18,3.38,2.79,1.76,2.79,3.38,4.12,3.97,4.71,,,,,,,,,,,,,,
1799999994086021506,2027-01-15T07:59:54.086021506Z,-1.62,-1.76,-0.88,0.44,3.09,1.18,3.53,1.76,2.21,3.38,3.24,2.79,3.53,5.15,,,,,,,,,,,,,,
1799999994101382489,2027-01-15T07:59:54.101382489Z,-2.35,-0.74,-1.18,1.32,0.88,1.47,3.82,2.21,2.50,3.38,3.24,3.53,3.82,4.85,,,,,,,,,,,,,,
1799999994116743472,2027-01-15T07:59:54.116743472Z,-3.24,-1.03,-0.88,1.91,0.15,1.03,1.03,1.47,1.47,2.06,2.35,3.68,5.00,3.97,,,,,,,,,,,,,,
1799999994132104455,2027-01-15T07:59:54.132104455Z,-3.09,-2.50,-0.74,0.88,-1.03,0.44,0.00,1.03,2.65,3.09,4.12,4.85,4.41,3.97,,,,,,,,,,,,,,
1799999994147465438,2027-01-15T07:59:54.147465438Z,-3.24,-2.65,-0.74,1.47,0.59,1.32,1.03,1.91,3.38,3.38,3.97,5.88,4.12,4.85,,,,,,,,,,,,,,
1799999994162826421,2027-01-15T07:59:54.162826421Z,-0.59,-1.91,-0.29,0.74,2.50,2.35,1.32,2.79,3.82,3.24,2.65,5.88,3.97,4.85,,,,,,,,,,,,,,
1799999994178187404,2027-01-15T07:59:54.178187404Z,-0.88,-0.88,-0.15,-1.32,2.94,2.50,0.88,2.35,1.76,4.26,2.65,5.29,4.26,4.12,,,,,,,,,,,,,,
1799999994193548388,2027-01-15T07:59:54.193548388Z,-2.65,-1.47,0.88,-1.03,3.38,1.91,1.18,3.82,2.79,2.35,2.65,5.00,4.85,4.41,,,,,,,,,,,,,,
1799999994208909371,2027-01-15T07:59:54.208909371Z,-1.91,-0.88,1.03,-0.15,3.09,0.88,1.76,3.38,1.32,2.35,3.53,3.82,3.82,5.00,,,,,,,,,,,,,,
1799999994224270354,2027-01-15T07:59:54.224270354Z,0.15,-1.62,0.00,1.47,0.59,0.29,1.62,3.24,0.44,1.62,3.53,3.97,3.97,6.47,,,,,,,,,,,,,,
1799999994239631337,2027-01-15T07:59:54.239631337Z,-0.59,-1.32,-0.29,2.50,0.00,1.18,2.35,2.35,1.03,1.76,3.38,4.71,5.00,6.62,,,,,,,,,,,,,,
1799999994254992320,2027-01-15T07:59:54.254992320Z,-1.18,-1.47,-0.74,2.35,-0.59,1.62,1.62,2.21,2.94,3.38,3.53,4.12,7.06,6.62,,,,,,,,,,,,,,
1799999994270353303,2027-01-15T07:59:54.270353303Z,-1.62,-1.47,-0.88,-0.44,-0.29,1.32,2.94,3.38,3.38,3.09,4.41,2.94,5.29,4.71,,,,,,,,,,,,,,
1799999994285714286,2027-01-15T07:59:54.285714286Z,0.44,-0.59,-0.74,-0.15,0.59,1.32,1.62,2.50,3.68,2.50,4.56,2.79,5.88,4.26,,,,,,,,,,,,,,
1799999994301075269,2027-01-15T07:59:54.301075269Z,-1.91,0.44,0.74,0.74,2.65,2.50,-0.29,2.06,3.53,0.88,4.71,5.15,4.41,4.26,,,,,,,,,,,,,,
1799999994316436252,2027-01-15T07:59:54.316436252Z,-0.44,0.00,0.29,0.59,0.74,2.35,1.47,1.76,3.53,0.74,4.85,5.59,2.65,4.12,,,,,,,,,,,,,,
1799999994331797236,2027-01-15T07:59:54.331797236Z,1.62,-1.47,-0.29,0.00,0.74,1.18,0.29,1.18,2.65,1.62,3.97,4.26,3.82,4.12,,,,,,,,,,,,,,
1799999994347158219,2027-01-15T07:59:54.347158219Z,1.47,-0.88,0.15,0.00,3.38,0.59,-0.15,1.32,1.76,4.71,2.50,3.24,4.12,4.71,,,,,,,,,,,,,,
1799999994362519202,2027-01-15T07:59:54.362519202Z,1.32,0.29,0.59,-0.44,1.47,-0.74,0.88,2.06,3.38,1.62,2.21,3.53,4.85,5.29,,,,,,,,,,,,,,
1799999994377880185,2027-01-15T07:59:54.377880185Z,0.15,1.03,0.29,-0.15,0.44,-0.59,1.18,3.09,2.50,1.32,2.65,4.41,6.18,6.03,,,,,,,,,,,,,,
1799999994393241168,2027-01-15T07:59:54.393241168Z,0.59,1.03,-0.44,-1.47,-0.88,0.00,2.50,2.94,2.21,2.65,3.38,2.65,5.00,5.29,,,,,,,,,,,,,,
1799999994408602151,2027-01-15T07:59:54.408602151Z,0.59,2.94,-0.74,-1.32,1.62,1.03,3.68,2.21,2.21,4.41,3.82,2.94,5.29,4.41,,,,,,,,,,,,,,
1799999994423963134,2027-01-15T07:59:54.423963134Z,1.76,2.79,-0.59,1.76,0.59,1.47,2.35,2.06,2.65,2.65,3.09,4.12,4.26,4.85,,,,,,,,,,,,,,
1799999994439324117,2027-01-15T07:59:54.439324117Z,0.15,2.35,1.47,2.50,0.15,1.62,1.03,1.91,2.65,2.50,1.91,4.56,4.12,3.68,,,,,,,,,,,,,,
1799999994454685100,2027-01-15T07:59:54.454685100Z,0.29,0.29,0.44,2.94,0.59,1.18,2.35,1.91,2.50,3.82,3.09,4.26,4.85,2.94,,,,,,,,,,,,,,
1799999994470046083,2027-01-15T07:59:54.470046083Z,0.74,0.15,-1.32,0.59,0.88,1.18,2.50,1.18,3.09,4.12,4.41,3.82,4.71,3.38,,,,,,,,,,,,,,
1799999994485407067,2027-01-15T07:59:54.485407067Z,-0.29,1.18,-0.59,0.59,1.18,1.76,2.65,0.88,2.06,4.85,4.26,4.56,5.29,4.71,,,,,,,,,,,,,,
1799999994500768050,2027-01-15T07:59:54.500768050Z,0.44,-0.15,-0.15,-0.29,0.59,2.06,1.76,1.32,2.50,3.68,5.15,5.15,5.15,5.15,,,,,,,,,,,,,,
1799999994516129033,2027-01-15T07:59:54.516129033Z,0.00,1.47,0.00,-1.18,-0.74,1.76,2.21,2.94,1.76,3.09,4.12,5.74,4.26,4.56,,,,,,,,,,,,,,
1799999994531490016,2027-01-15T07:59:54.531490016Z,-0.44,2.06,0.29,0.00,-0.15,1.03,2.50,3.97,2.50,2.06,4.85,6.32,3.68,4.12,,,,,,,,,,,,,,
1799999994546850999,2027-01-15T07:59:54.546850999Z,-0.44,0.44,-0.15,0.74,0.74,1.76,2.65,3.82,5.29,1.32,6.18,5.74,4.71,4.85,,,,,,,,,,,,,,
1799999994562211982,2027-01-15T07:59:54.562211982Z,0.59,-1.47,0.74,2.06,0.59,2.79,2.35,2.65,3.97,1.62,4.71,5.88,5.15,4.56,,,,,,,,,,,,,,
1799999994577572965,2027-01-15T07:59:54.577572965Z,0.74,-1.47,1.18,2.65,1.03,2.79,2.21,1.47,3.38,4.12,3.53,3.68,3.82,4.85,,,,,,,,,,,,,,
1799999994592933948,2027-01-15T07:59:54.592933948Z,0.74,-1.62,-0.44,1.47,-1.47,1.91,2.06,1.91,4.26,5.29,4.56,2.50,3.68,5.74,,,,,,,,,,,,,,
1799999994608294931,2027-01-15T07:59:54.608294931Z,-0.59,-1.18,0.44,1.03,-2.50,0.44,1.76,1.62,3.82,4.41,4.56,2.06,3.68,6.47,,,,,,,,,,,,,,
1799999994623655914,2027-01-15T07:59:54.623655914Z,-0.59,-0.88,0.74,1.32,-1.47,0.00,1.47,3.53,2.79,4.26,3.53,2.94,5.15,6.76,,,,,,,,,,,,,,
1799999994639016898,2027-01-15T07:59:54.639016898Z,0.00,-1.76,0.00,0.44,1.32,0.59,2.35,4.71,3.09,4.41,3.97,3.38,3.82,5.74,,,,,,,,,,,,,,
1799999994654377881,2027-01-15T07:59:54.654377881Z,-1.18,-2.21,0.44,0.44,1.18,0.29,1.62,2.94,2.94,4.71,3.24,3.82,2.35,4.85,,,,,,,,,,,,,,
1799999994669738864,2027-01-15T07:59:54.669738864Z,-0.29,-1.76,1.03,-0.44,1.62,0.29,1.62,2.94,2.65,4.71,2.79,3.82,5.00,5.15,,,,,,,,,,,,,,
1799999994685099847,2027-01-15T07:59:54.685099847Z,0.15,-1.62,0.74,-2.06,1.32,0.15,0.74,2.65,3.09,3.97,3.53,5.00,6.32,4.85,,,,,,,,,,,,,,
1799999994700460830,2027-01-15T07:59:54.700460830Z,0.15,-1.47,0.44,-0.74,0.29,0.15,0.74,2.65,3.68,2.79,3.53,4.12,5.74,4.26,,,,,,,,,,,,,,
1799999994715821813,2027-01-15T07:59:54.715821813Z,0.59,-1.47,0.44,0.59,0.74,2.21,2.06,2.35,3.38,2.21,3.82,3.24,5.74,3.53,,,,,,,,,,,,,,
1799999994731182796,2027-01-15T07:59:54.731182796Z,-2.79,-1.91,-0.29,2.06,1.62,2.50,2.50,0.59,2.35,1.91,3.97,5.00,4.41,3.38,,,,,,,,,,,,,,
1799999994746543779,2027-01-15T07:59:54.746543779Z,-1.32,-1.18,0.88,0.88,1.32,1.03,3.09,0.74,2.65,3.53,2.94,3.38,3.24,4.56,,,,,,,,,,,,,,
1799999994761904762,2027-01-15T07:59:54.761904762Z,-1.18,-0.15,0.15,0.74,1.03,0.00,2.79,1.91,2.79,3.53,1.76,3.53,3.38,4.71,,,,,,,,,,,,,,
1799999994777265746,2027-01-15T07:59:54.777265746Z,-1.47,-0.15,-0.44,0.15,1.91,0.44,2.50,2.79,1.47,1.32,2.35,4.71,4.85,3.82,,,,,,,,,,,,,,
1799999994792626729,2027-01-15T07:59:54.792626729Z,-3.97,-0.15,1.76,0.29,1.91,1.32,0.74,3.38,1.76,2.79,4.85,4.71,5.74,5.00,,,,,,,,,,,,,,
1799999994807987712,2027-01-15T07:59:54.807987712Z,-0.29,-1.03,-0.29,1.03,2.06,0.88,-0.44,3.82,0.88,4.12,3.53,3.53,5.15,5.00,,,,,,,,,,,,,,
1799999994823348695,2027-01-15T07:59:54.823348695Z,-0.74,-0.29,-0.15,0.74,1.76,0.74,0.15,3.53,1.47,4.41,2.79,2.94,4.12,4.26,,,,,,,,,,,,,,
1799999994838709678,2027-01-15T07:59:54.838709678Z,-0.74,0.15,-0.44,0.44,1.62,2.50,0.88,3.38,2.65,4.26,3.68,4.12,3.68,5.00,,,,,,,,,,,,,,
1799999994854070661,2027-01-15T07:59:54.854070661Z,-1.32,-1.76,-1.76,-0.15,1.03,1.76,2.06,2.79,1.18,5.00,3.38,4.85,4.41,7.06,,,,,,,,,,,,,,
1799999994869431644,2027-01-15T07:59:54.869431644Z,0.15,-1.62,-1.76,0.59,2.35,1.03,0.88,2.94,2.06,4.26,3.24,3.97,5.29,6.47,,,,,,,,,,,,,,
1799999994884792627,2027-01-15T07:59:54.884792627Z,0.29,0.44,-0.88,0.59,2.94,1.62,0.15,2.50,2.94,2.94,2.65,1.91,6.47,4.71,,,,,,,,,,,,,,
1799999994900153610,2027-01-15T07:59:54.900153610Z,-0.15,0.88,-0.74,0.88,-0.88,2.35,0.29,1.32,4.12,4.12,3.82,1.62,4.85,3.82,,,,,,,,,,,,,,
1799999994915514593,2027-01-15T07:59:54.915514593Z,-0.88,0.88,-0.29,0.88,-0.29,2.35,2.50,0.74,3.38,2.65,5.15,3.09,4.56,4.26,,,,,,,,,,,,,,
1799999994930875577,2027-01-15T07:59:54.930875577Z,-0.88,0.59,0.00,-0.44,1.18,1.18,1.47,1.76,2.06,2.06,5.00,3.53,3.97,4.56,,,,,,,,,,,,,,
1799999994946236560,2027-01-15T07:59:54.946236560Z,0.00,0.88,0.29,0.74,0.29,1.03,2.50,2.65,1.76,3.82,5.59,3.82,4.26,6.76,,,,,,,,,,,,,,
1799999994961597543,2027-01-15T07:59:54.961597543Z,0.00,1.47,0.88,0.00,1.03,1.62,3.68,2.50,0.74,1.18,3.68,4.56,4.41,5.74,,,,,,,,,,,,,,
1799999994976958526,2027-01-15T07:59:54.976958526Z,0.88,0.88,0.74,-0.29,2.06,2.65,2.94,2.21,1.76,1.32,3.24,4.12,4.41,4.12,,,,,,,,,,,,,,
1799999994992319509,2027-01-15T07:59:54.992319509Z,-0.29,-0.29,0.88,0.44,3.38,2.79,3.38,1.62,3.68,3.24,3.09,3.24,4.85,4.85,,,,,,,,,,,,,,
1799999995007680492,2027-01-15T07:59:55.007680492Z,0.29,-0.29,0.29,-0.15,1.18,2.65,3.68,2.35,3.38,2.94,3.38,2.65,5.00,4.12,,,,,,,,,,,,,,
1799999995023041475,2027-01-15T07:59:55.023041475Z,-1.03,-0.59,0.00,-0.29,0.44,2.65,2.79,3.82,2.79,4.26,1.18,3.38,3.38,3.82,,,,,,,,,,,,,,
1799999995038402458,2027-01-15T07:59:55.038402458Z,-0.15,-1.32,0.44,-0.74,1.32,2.65,1.03,3.24,2.94,1.47,1.18,4.41,4.41,4.56,,,,,,,,,,,,,,
1799999995053763441,2027-01-15T07:59:55.053763441Z,-0.74,-0.44,1.18,-0.29,1.47,2.06,2.35,3.24,3.38,1.62,1.76,3.68,3.68,4.71,,,,,,,,,,,,,,
1799999995069124424,2027-01-15T07:59:55.069124424Z,0.44,-0.15,0.88,0.59,0.74,2.65,2.65,2.79,2.65,2.50,3.53,3.68,3.24,4.41,,,,,,,,,,,,,,
1799999995084485408,2027-01-15T07:59:55.084485408Z,-2.21,0.59,-0.29,1.47,-0.44,1.32,3.82,2.65,1.91,2.35,4.12,3.09,2.94,4.85,,,,,,,,,,,,,,
1799999995099846391,2027-01-15T07:59:55.099846391Z,-0.29,0.59,-0.59,3.38,-2.50,0.29,2.50,1.91,2.50,3.09,2.79,5.15,5.59,5.00,,,,,,,,,,,,,,
1799999995115207374,2027-01-15T07:59:55.115207374Z,-0.29,0.59,-0.74,1.47,0.29,0.88,1.91,2.50,3.24,3.24,3.24,5.00,4.56,5.29,,,,,,,,,,,,,,
1799999995130568357,2027-01-15T07:59:55.130568357Z,0.15,1.62,0.29,-0.15,2.35,0.88,1.91,1.32,3.97,4.41,3.53,3.82,4.41,5.29,,,,,,,,,,,,,,
1799999995145929340,2027-01-15T07:59:55.145929340Z,0.59,-1.03,0.59,1.03,2.06,1.03,1.62,0.29,3.38,5.44,3.09,5.00,5.74,5.15,,,,,,,,,,,,,,
1799999995161290323,2027-01-15T07:59:55.161290323Z,1.32,-2.35,0.15,2.06,1.76,1.91,2.65,-0.44,2.50,5.00,3.24,3.68,3.68,5.00,,,,,,,,,,,,,,
1799999995176651306,2027-01-15T07:59:55.176651306Z,2.21,-0.59,0.44,-0.15,-0.44,2.06,2.35,0.29,2.94,4.12,3.97,4.85,3.68,6.18,,,,,,,,,,,,,,
1799999995192012289,2027-01-15T07:59:55.192012289Z,-2.35,1.32,0.44,-0.59,-1.62,0.88,1.18,3.68,4.12,2.65,3.97,6.62,3.97,5.00,,,,,,,,,,,,,,
1799999995207373272,2027-01-15T07:59:55.207373272Z,-0.59,1.03,0.88,0.29,1.03,-0.59,1.32,3.24,3.09,2.35,5.00,4.56,4.85,4.41,,,,,,,,,,,,,,
1799999995222734255,2027-01-15T07:59:55.222734255Z,-0.74,-0.88,1.18,-0.59,2.06,0.88,1.47,2.06,2.06,0.88,4.71,3.38,5.74,4.56,,,,,,,,,,,,,,
1799999995238095239,2027-01-15T07:59:55.238095239Z,-0.29,-0.88,0.74,0.15,2.50,1.47,1.91,2.79,1.76,1.47,4.41,2.94,3.24,4.71,,,,,,,,,,,,,,
1799999995253456222,2027-01-15T07:59:55.253456222Z,0.00,-2.06,0.59,1.03,0.88,1.18,1.18,1.47,2.21,5.15,4.85,4.56,2.65,3.38,,,,,,,,,,,,,,
1799999995268817205,2027-01-15T07:59:55.268817205Z,-2.21,-1.91,-0.29,1.18,1.47,1.62,1.32,0.74,2.79,4.12,5.00,4.12,4.26,4.12,,,,,,,,,,,,,,
1799999995284178188,2027-01-15T07:59:55.284178188Z,-0.88,-1.91,-0.15,1.76,0.74,1.18,1.62,0.44,3.97,0.29,4.56,3.24,6.47,5.29,,,,,,,,,,,,,,
1799999995299539171,2027-01-15T07:59:55.299539171Z,-1.76,-1.76,-0.15,2.35,1.91,1.47,2.35,1.32,2.79,2.79,3.97,3.09,6.18,4.71,,,,,,,,,,,,,,
1799999995314900154,2027-01-15T07:59:55.314900154Z,0.44,-0.59,-0.88,2.21,1.62,2.06,3.53,1.32,1.91,5.88,4.12,2.94,4.26,5.15,,,,,,,,,,,,,,
1799999995330261137,2027-01-15T07:59:55.330261137Z,-1.03,-1.18,-1.18,1.03,-0.15,1.32,1.18,1.62,2.65,3.53,5.00,3.68,4.85,6.03,,,,,,,,,,,,,,
1799999995345622120,2027-01-15T07:59:55.345622120Z,-2.35,-1.47,0.00,-0.59,1.18,1.18,0.59,2.79,1.91,3.09,3.68,5.44,5.15,6.18,,,,,,,,,,,,,,
1799999995360983103,2027-01-15T07:59:55.360983103Z,1.03,0.15,0.74,-0.15,-0.74,1.03,1.32,3.09,2.79,2.79,3.53,4.12,4.26,7.35,,,,,,,,,,,,,,
1799999995376344087,2027-01-15T07:59:55.376344087Z,-2.35,0.74,0.15,0.00,-0.74,1.62,1.47,2.35,1.62,3.82,3.82,5.15,3.82,5.59,,,,,,,,,,,,,,
1799999995391705070,2027-01-15T07:59:55.391705070Z,-1.03,-1.32,0.15,0.59,1.62,0.88,2.35,1.76,2.79,4.85,3.09,4.26,4.56,4.56,,,,,,,,,,,,,,
1799999995407066053,2027-01-15T07:59:55.407066053Z,-0.29,-1.76,-1.47,0.29,3.53,1.03,2.35,2.21,3.68,3.97,2.65,2.35,5.00,3.09,,,,,,,,,,,,,,
1799999995422427036,2027-01-15T07:59:55.422427036Z,0.00,-1.91,-0.59,0.29,1.76,1.62,0.44,2.06,2.35,3.53,3.53,3.82,5.00,3.82,,,,,,,,,,,,,,
1799999995437788019,2027-01-15T07:59:55.437788019Z,-0.29,-1.03,-0.15,0.44,1.47,2.06,-0.29,0.88,2.35,3.82,4.12,3.53,5.44,4.41,,,,,,,,,,,,,,
1799999995453149002,2027-01-15T07:59:55.453149002Z,1.32,-0.74,0.00,0.15,0.88,0.59,-1.62,1.32,2.50,3.97,4.12,2.65,4.71,4.12,,,,,,,,,,,,,,
1799999995468509985,2027-01-15T07:59:55.468509985Z,0.15,0.44,0.59,0.29,1.47,1.62,0.74,2.35,3.09,4.56,3.38,2.65,3.24,6.32,,,,,,,,,,,,,,
1799999995483870968,2027-01-15T07:59:55.483870968Z,0.59,0.88,-0.15,1.76,2.35,1.91,2.06,2.94,2.21,3.53,2.79,3.68,5.29,5.74,,,,,,,,,,,,,,
1799999995499231951,2027-01-15T07:59:55.499231951Z,-0.15,-0.59,0.00,0.59,1.62,0.88,0.59,3.68,1.03,3.24,2.50,3.97,4.26,4.71,,,,,,,,,,,,,,
1799999995514592934,2027-01-15T07:59:55.514592934Z,-0.59,0.00,-1.18,0.88,0.29,3.24,-0.15,2.50,1.62,3.68,2.21,4.26,3.24,4.41,,,,,,,,,,,,,,
1799999995529953918,2027-01-15T07:59:55.529953918Z,0.29,0.29,-0.44,1.18,0.88,3.82,0.44,1.32,2.35,3.24,2.50,3.53,3.97,4.71,,,,,,,,,,,,,,
1799999995545314901,2027-01-15T07:59:55.545314901Z,0.15,0.88,-0.29,-0.44,1.47,2.50,2.50,1.91,2.65,4.41,2.79,2.21,3.82,5.44,,,,,,,,,,,,,,
1799999995560675884,2027-01-15T07:59:55.560675884Z,0.29,1.76,-0.29,0.88,1.18,1.62,0.44,2.21,2.35,2.79,2.94,3.38,4.71,5.15,,,,,,,,,,,,,,
1799999995576036867,2027-01-15T07:59:55.576036867Z,-0.44,1.91,0.44,0.59,0.74,1.18,0.29,2.79,2.94,1.76,2.79,4.56,4.71,4.56,,,,,,,,,,,,,,
1799999995591397850,2027-01-15T07:59:55.591397850Z,-0.88,1.76,0.59,-1.32,-0.29,0.59,2.50,3.24,4.26,2.94,2.94,5.44,3.97,5.74,,,,,,,,,,,,,,
1799999995606758833,2027-01-15T07:59:55.606758833Z,-1.62,2.21,1.03,0.44,0.88,1.32,3.97,2.65,4.41,2.06,3.53,5.29,3.82,6.03,,,,,,,,,,,,,,
1799999995622119816,2027-01-15T07:59:55.622119816Z,-1.91,-0.88,0.59,1.91,2.50,1.03,3.38,2.50,4.85,1.32,3.82,4.26,3.24,5.29,,,,,,,,,,,,,,
1799999995637480799,2027-01-15T07:59:55.637480799Z,-0.59,-2.50,-0.74,0.29,1.91,-0.15,1.76,3.38,4.71,2.79,3.97,5.29,3.97,6.18,,,,,,,,,,,,,,
1799999995652841782,2027-01-15T07:59:55.652841782Z,-0.29,-2.65,0.59,-0.88,1.76,1.03,2.79,3.68,2.79,2.35,3.82,4.85,5.88,5.44,,,,,,,,,,,,,,
1799999995668202765,2027-01-15T07:59:55.668202765Z,-1.47,-1.18,0.00,0.15,1.62,1.03,2.21,4.12,2.21,2.35,4.26,4.56,4.56,4.56,,,,,,,,,,,,,,
1799999995683563749,2027-01-15T07:59:55.683563749Z,-2.35,1.32,-0.44,0.59,0.88,0.74,2.94,4.41,3.24,2.06,4.12,5.00,4.71,4.56,,,,,,,,,,,,,,
1799999995698924732,2027-01-15T07:59:55.698924732Z,-0.59,-0.44,0.29,0.59,1.03,1.32,4.41,2.94,3.53,2.79,4.56,4.56,5.44,4.56,,,,,,,,,,,,,,
1799999995714285715,2027-01-15T07:59:55.714285715Z,-0.59,0.15,-0.74,-0.29,-0.29,2.06,4.71,2.79,3.38,4.85,5.15,5.29,4.56,4.41,,,,,,,,,,,,,,
1799999995729646698,2027-01-15T07:59:55.729646698Z,0.29,-0.15,0.00,0.00,0.00,2.79,3.38,2.50,3.24,3.24,3.82,6.76,3.38,6.03,,,,,,,,,,,,,,
1799999995745007681,2027-01-15T07:59:55.745007681Z,-0.59,-0.59,0.00,0.29,1.91,3.53,2.35,2.65,2.94,3.97,3.97,5.00,4.85,6.32,,,,,,,,,,,,,,
1799999995760368664,2027-01-15T07:59:55.760368664Z,-1.32,-0.74,-0.29,-0.29,0.29,3.82,1.76,2.79,3.53,3.97,3.82,4.26,4.12,4.26,,,,,,,,,,,,,,
1799999995775729647,2027-01-15T07:59:55.775729647Z,1.76,-1.03,-0.15,-0.74,0.74,1.91,2.06,0.29,2.65,3.24,4.12,3.38,3.38,4.26,,,,,,,,,,,,,,
1799999995791090630,2027-01-15T07:59:55.791090630Z,0.15,-0.44,-0.59,-0.74,0.29,0.59,2.50,2.21,1.76,2.94,4.26,3.68,3.53,4.26,,,,,,,,,,,,,,
1799999995806451613,2027-01-15T07:59:55.806451613Z,0.29,-0.88,-0.74,0.15,-0.74,1.32,2.94,3.24,2.79,3.53,3.82,4.26,3.53,3.97,,,,,,,,,,,,,,
1799999995821812597,2027-01-15T07:59:55.821812597Z,0.59,-1.32,-1.47,0.29,0.00,1.62,1.47,2.50,1.76,2.35,3.68,4.41,4.12,5.74,,,,,,,,,,,,,,
1799999995837173580,2027-01-15T07:59:55.837173580Z,2.06,-0.15,-0.59,-0.15,-0.15,1.18,1.32,2.94,1.47,1.03,3.38,5.00,4.41,7.06,,,,,,,,,,,,,,
1799999995852534563,2027-01-15T07:59:55.852534563Z,-1.62,-1.03,1.03,-0.44,0.59,1.03,1.47,2.21,1.76,1.03,2.21,6.18,5.59,7.21,,,,,,,,,,,,,,
1799999995867895546,2027-01-15T07:59:55.867895546Z,-0.74,-1.32,1.62,0.15,1.32,1.91,1.76,2.21,1.32,3.38,2.65,5.15,5.00,5.74,,,,,,,,,,,,,,
1799999995883256529,2027-01-15T07:59:55.883256529Z,1.03,-2.06,1.03,-0.59,1.03,2.06,3.24,2.79,1.18,2.79,3.38,4.56,3.97,5.59,,,,,,,,,,,,,,
1799999995898617512,2027-01-15T07:59:55.898617512Z,0.44,-1.47,1.62,-0.15,-1.03,1.76,2.21,3.53,2.06,3.68,4.26,6.03,3.24,3.38,,,,,,,,,,,,,,
1799999995913978495,2027-01-15T07:59:55.913978495Z,-1.32,-1.18,0.59,0.44,0.15,1.62,-0.44,2.35,3.24,3.97,4.26,5.00,5.44,3.82,,,,,,,,,,,,,,
1799999995929339478,2027-01-15T07:59:55.929339478Z,1.03,-1.76,0.00,1.03,0.29,0.44,0.29,1.62,2.50,2.65,4.12,3.82,5.59,4.85,,,,,,,,,,,,,,
1799999995944700461,2027-01-15T07:59:55.944700461Z,1.18,-2.94,0.59,0.44,0.59,1.32,1.91,0.88,1.32,2.35,2.50,2.94,4.41,3.97,,,,,,,,,,,,,,
1799999995960061444,2027-01-15T07:59:55.960061444Z,-0.15,-1.03,0.88,0.74,0.44,2.06,2.35,2.06,2.06,1.91,3.38,2.35,5.00,5.74,,,,,,,,,,,,,,
1799999995975422428,2027-01-15T07:59:55.975422428Z,0.44,0.44,-1.03,1.47,0.59,1.32,0.15,2.79,1.03,1.62,4.12,3.24,3.97,5.00,,,,,,,,,,,,,,
1799999995990783411,2027-01-15T07:59:55.990783411Z,0.59,0.59,-1.47,1.47,1.62,1.47,0.74,2.65,2.94,4.12,3.24,3.82,2.79,4.26,,,,,,,,,,,,,,
1799999996006144394,2027-01-15T07:59:56.006144394Z,0.44,1.47,-0.59,0.44,2.06,0.88,1.62,3.53,2.79,5.59,4.12,5.44,3.82,2.79,,,,,,,,,,,,,,
1799999996021505377,2027-01-15T07:59:56.021505377Z,-0.15,1.18,-0.29,0.44,0.00,0.44,2.79,1.62,2.21,5.59,3.82,3.24,4.12,2.50,,,,,,,,,,,,,,
1799999996036866360,2027-01-15T07:59:56.036866360Z,-0.15,1.32,0.74,1.62,0.74,1.32,2.50,0.15,4.26,3.68,4.41,2.65,5.00,6.03,,,,,,,,,,,,,,
1799999996052227343,2027-01-15T07:59:56.052227343Z,0.29,-1.32,-0.15,2.79,1.32,2.79,3.53,1.03,3.38,3.24,3.24,2.94,4.85,5.88,,,,,,,,,,,,,,
1799999996067588326,2027-01-15T07:59:56.067588326Z,-0.74,0.29,0.44,2.21,1.47,2.35,3.24,3.24,3.24,3.53,3.68,3.82,5.29,5.00,,,,,,,,,,,,,,
1799999996082949309,2027-01-15T07:59:56.082949309Z,0.00,1.76,1.32,0.59,0.74,1.62,0.88,2.06,3.38,3.38,4.12,3.68,5.88,4.41,,,,,,,,,,,,,,
1799999996098310292,2027-01-15T07:59:56.098310292Z,1.03,1.18,0.74,-0.15,0.00,0.44,1.47,2.50,3.68,3.09,3.38,3.53,5.88,4.71,,,,,,,,,,,,,,
1799999996113671275,2027-01-15T07:59:56.113671275Z,-0.15,-1.03,0.15,0.88,-0.29,0.88,2.21,1.91,2.65,2.79,3.53,4.41,5.88,5.00,,,,,,,,,,,,,,
1799999996129032259,2027-01-15T07:59:56.129032259Z,-0.44,0.15,-0.44,2.06,0.59,1.32,2.06,0.59,2.50,4.56,3.38,2.94,5.15,6.03,,,,,,,,,,,,,,
1799999996144393242,2027-01-15T07:59:56.144393242Z,-0.15,0.15,-0.15,2.94,2.65,2.06,1.03,1.62,1.76,2.94,3.38,2.94,5.00,4.71,,,,,,,,,,,,,,
1799999996159754225,2027-01-15T07:59:56.159754225Z,1.03,-1.32,-0.44,2.50,2.06,2.06,1.91,1.76,2.65,2.21,4.12,3.38,5.29,3.24,,,,,,,,,,,,,,
1799999996175115208,2027-01-15T07:59:56.175115208Z,0.88,-0.74,-0.59,2.06,-0.74,1.18,2.35,2.35,2.79,3.24,3.09,4.12,5.15,2.21,,,,,,,,,,,,,,
1799999996190476191,2027-01-15T07:59:56.190476191Z,-0.29,-0.15,0.44,0.74,-1.76,-0.29,1.76,2.65,3.09,2.65,2.94,3.97,3.97,3.82,,,,,,,,,,,,,,
1799999996205837174,2027-01-15T07:59:56.205837174Z,0.00,-1.03,0.15,-0.15,1.47,1.62,1.47,2.94,3.38,0.44,5.00,2.50,5.15,4.85,,,,,,,,,,,,,,
1799999996221198157,2027-01-15T07:59:56.221198157Z,0.59,-1.18,-0.15,0.88,0.59,1.76,1.18,3.53,2.65,1.47,4.56,2.06,6.03,4.85,,,,,,,,,,,,,,
1799999996236559140,2027-01-15T07:59:56.236559140Z,0.00,-0.74,1.03,-0.59,0.29,1.03,1.47,3.53,1.76,3.09,4.12,3.24,5.74,4.41,,,,,,,,,,,,,,
1799999996251920123,2027-01-15T07:59:56.251920123Z,-1.47,-0.15,1.03,-2.35,1.32,0.00,1.62,3.68,2.94,3.38,3.38,5.44,5.15,5.59,,,,,,,,,,,,,,
1799999996267281106,2027-01-15T07:59:56.267281106Z,-0.15,0.15,0.74,-0.15,0.74,0.88,1.03,2.94,3.53,0.44,3.24,4.56,3.68,6.62,,,,,,,,,,,,,,
1799999996282642090,2027-01-15T07:59:56.282642090Z,-0.15,0.00,1.03,0.15,-0.59,1.91,0.44,1.91,2.79,1.62,3.53,3.82,2.50,6.62,,,,,,,,,,,,,,
1799999996298003073,2027-01-15T07:59:56.298003073Z,1.32,-0.29,1.91,0.59,1.47,2.35,0.88,1.76,3.97,2.94,3.09,4.12,3.82,5.29,,,,,,,,,,,,,,
1799999996313364056,2027-01-15T07:59:56.313364056Z,0.29,-0.15,1.32,0.44,2.21,2.50,2.21,1.62,3.68,2.50,2.50,4.12,5.59,3.97,,,,,,,,,,,,,,
1799999996328725039,2027-01-15T07:59:56.328725039Z,-2.35,-0.59,0.29,0.00,1.91,2.79,1.03,1.91,2.65,3.09,3.53,3.38,5.00,4.26,,,,,,,,,,,,,,
1799999996344086022,2027-01-15T07:59:56.344086022Z,-4.41,-1.18,1.32,-0.15,3.68,2.06,0.74,2.65,2.94,3.97,3.53,3.38,3.82,5.15,,,,,,,,,,,,,,
1799999996359447005,2027-01-15T07:59:56.359447005Z,-2.50,-0.59,1.91,-0.29,2.94,1.62,0.59,0.88,1.91,4.71,3.09,4.56,3.82,4.85,,,,,,,,,,,,,,
1799999996374807988,2027-01-15T07:59:56.374807988Z,-1.62,0.00,1.18,-0.29,2.65,1.18,1.18,1.91,1.91,5.00,3.53,5.88,4.41,5.00,,,,,,,,,,,,,,
1799999996390168971,2027-01-15T07:59:56.390168971Z,-2.06,0.44,0.29,-0.59,2.79,0.74,0.88,2.21,4.12,4.12,2.65,3.68,5.00,7.21,,,,,,,,,,,,,,
1799999996405529954,2027-01-15T07:59:56.405529954Z,-2.79,0.00,-2.21,-0.59,2.35,0.29,0.88,1.32,3.82,4.85,5.00,2.94,4.71,7.06,,,,,,,,,,,,,,
1799999996420890938,2027-01-15T07:59:56.420890938Z,-1.03,-1.32,-2.21,-1.32,2.21,-0.15,1.32,0.29,0.74,4.71,5.59,3.68,4.26,5.29,,,,,,,,,,,,,,
1799999996436251921,2027-01-15T07:59:56.436251921Z,-1.47,-1.18,-1.03,-1.62,2.06,-0.29,1.18,1.47,0.00,3.82,5.74,5.44,3.53,6.18,,,,,,,,,,,,,,
1799999996451612904,2027-01-15T07:59:56.451612904Z,2.35,-0.74,0.15,-0.44,0.88,1.91,2.35,2.94,0.00,3.68,4.12,6.47,3.68,6.03,,,,,,,,,,,,,,
1799999996466973887,2027-01-15T07:59:56.466973887Z,-0.74,-1.62,-1.18,-0.44,-0.59,1.76,2.35,2.21,2.79,3.97,4.12,4.85,3.68,4.85,,,,,,,,,,,,,,
1799999996482334870,2027-01-15T07:59:56.482334870Z,-1.62,-2.21,-1.91,0.44,0.88,0.59,3.24,1.32,3.24,4.41,3.53,3.97,3.24,4.12,,,,,,,,,,,,,,
1799999996497695853,2027-01-15T07:59:56.497695853Z,-1.62,-2.94,-0.44,-0.74,-0.88,0.59,2.94,1.91,3.38,5.00,3.09,3.38,3.82,2.94,,,,,,,,,,,,,,
1799999996513056836,2027-01-15T07:59:56.513056836Z,-1.32,-2.79,-0.88,-0.74,-3.24,1.47,2.79,3.09,3.09,4.41,1.62,3.68,3.97,2.35,,,,,,,,,,,,,,
1799999996528417819,2027-01-15T07:59:56.528417819Z,-0.59,-1.18,-0.15,1.91,-1.76,1.91,3.82,3.68,3.24,2.50,3.53,3.09,4.26,4.41,,,,,,,,,,,,,,
1799999996543778802,2027-01-15T07:59:56.543778802Z,0.59,0.15,-0.88,1.76,-0.15,2.79,1.18,2.79,1.62,2.79,5.00,3.38,4.26,5.15,,,,,,,,,,,,,,
1799999996559139785,2027-01-15T07:59:56.559139785Z,0.29,2.35,-0.29,2.21,2.21,1.91,0.15,1.47,1.03,2.06,3.09,3.82,3.68,5.00,,,,,,,,,,,,,,
1799999996574500769,2027-01-15T07:59:56.574500769Z,1.18,-0.15,0.29,1.76,2.06,1.47,1.91,2.50,1.32,2.06,2.65,4.56,3.38,4.56,,,,,,,,,,,,,,
1799999996589861752,2027-01-15T07:59:56.589861752Z,1.03,-0.44,0.44,1.91,0.59,1.03,2.06,2.21,1.91,4.12,1.91,5.29,2.94,3.53,,,,,,,,,,,,,,
1799999996605222735,2027-01-15T07:59:56.605222735Z,-0.29,1.32,0.00,2.21,0.88,1.76,1.76,2.06,4.41,2.94,2.50,4.56,2.65,4.41,,,,,,,,,,,,,,
1799999996620583718,2027-01-15T07:59:56.620583718Z,-0.88,0.59,-0.44,1.47,2.06,1.47,3.09,2.50,5.00,2.65,2.79,3.97,4.26,6.32,,,,,,,,,,,,,,
1799999996635944701,2027-01-15T07:59:56.635944701Z,-0.88,-0.29,-0.88,0.29,2.06,1.32,3.24,2.65,4.71,3.97,3.38,4.12,5.29,5.15,,,,,,,,,,,,,,
1799999996651305684,2027-01-15T07:59:56.651305684Z,0.44,0.74,-1.32,0.15,1.76,1.91,3.24,2.21,4.56,4.12,2.65,3.68,3.82,3.68,,,,,,,,,,,,,,
1799999996666666667,2027-01-15T07:59:56.666666667Z,0.15,1.62,-0.59,0.00,1.18,1.03,2.65,1.76,4.85,2.35,1.91,3.38,3.38,3.68,,,,,,,,,,,,,,
1799999996682027650,2027-01-15T07:59:56.682027650Z,0.00,0.44,0.15,1.18,2.35,0.44,1.47,3.09,3.09,-1.03,2.79,3.68,4.85,3.97,,,,,,,,,,,,,,
1799999996697388633,2027-01-15T07:59:56.697388633Z,-0.59,0.74,-0.15,1.62,1.18,0.59,1.47,3.97,1.47,1.03,2.35,3.68,5.00,3.09,,,,,,,,,,,,,,
1799999996712749616,2027-01-15T07:59:56.712749616Z,1.03,0.44,-0.29,0.88,0.00,1.62,1.91,2.65,0.88,4.41,1.62,3.24,4.85,2.79,,,,,,,,,,,,,,
1799999996728110600,2027-01-15T07:59:56.728110600Z,-0.15,-0.15,0.74,0.59,0.44,1.03,1.62,0.88,1.76,4.26,5.00,3.53,5.15,3.97,,,,,,,,,,,,,,
1799999996743471583,2027-01-15T07:59:56.743471583Z,1.47,-0.74,1.03,1.47,1.32,1.62,2.06,0.59,2.50,3.97,5.59,3.68,5.00,5.59,,,,,,,,,,,,,,
1799999996758832566,2027-01-15T07:59:56.758832566Z,-0.88,0.44,-0.29,0.88,1.91,2.06,2.65,2.94,3.97,2.94,5.74,3.53,4.41,6.47,,,,,,,,,,,,,,
1799999996774193549,2027-01-15T07:59:56.774193549Z,-2.06,0.74,0.00,-0.44,1.47,0.88,2.35,2.65,5.00,2.21,5.88,2.79,3.24,4.26,,,,,,,,,,,,,,
1799999996789554532,2027-01-15T07:59:56.789554532Z,-1.32,0.88,0.29,0.74,-0.15,-0.44,2.06,1.47,3.82,2.21,4.26,3.24,3.68,3.82,,,,,,,,,,,,,,
1799999996804915515,2027-01-15T07:59:56.804915515Z,0.15,1.03,-0.15,1.76,0.00,0.29,3.09,1.32,2.06,2.94,3.09,3.09,4.12,4.85,,,,,,,,,,,,,,
1799999996820276498,2027-01-15T07:59:56.820276498Z,-0.74,-0.74,1.03,-0.15,0.44,1.03,2.21,1.91,2.79,3.68,3.24,3.97,4.26,5.00,,,,,,,,,,,,,,
1799999996835637481,2027-01-15T07:59:56.835637481Z,0.59,-1.18,1.76,1.03,-0.15,2.50,3.09,3.68,3.82,2.35,2.79,4.56,5.00,6.18,,,,,,,,,,,,,,
1799999996850998464,2027-01-15T07:59:56.850998464Z,-0.44,-1.03,-1.91,2.21,0.29,2.35,3.38,2.94,2.94,2.94,3.97,3.09,6.03,6.47,,,,,,,,,,,,,,
1799999996866359448,2027-01-15T07:59:56.866359448Z,0.00,-1.18,-1.91,1.62,0.88,2.65,2.35,2.06,2.94,3.68,3.53,3.82,5.44,6.32,,,,,,,,,,,,,,
1799999996881720431,2027-01-15T07:59:56.881720431Z,0.15,-1.18,-0.74,1.03,1.03,2.50,2.79,2.94,3.82,3.09,2.21,5.00,4.85,6.32,,,,,,,,,,,,,,
1799999996897081414,2027-01-15T07:59:56.897081414Z,,-1.47,0.74,-0.15,-0.74,1.91,3.09,3.38,3.24,2.94,4.26,5.88,5.88,4.26,,,,,,,,,,,,,,
1799999996912442397,2027-01-15T07:59:56.912442397Z,0.44,-1.03,2.65,0.00,-0.88,1.32,2.06,1.32,2.50,2.79,4.71,5.15,5.44,4.26,,,,,,,,,,,,,,
1799999996927803380,2027-01-15T07:59:56.927803380Z,-1.62,-1.62,0.74,0.15,0.88,1.91,-0.59,1.62,2.35,2.94,3.53,4.71,4.85,4.41,,,,,,,,,,,,,,
1799999996943164363,2027-01-15T07:59:56.943164363Z,-1.32,-0.44,0.59,-0.59,0.59,1.91,0.44,1.03,3.38,2.06,4.41,3.82,3.82,5.44,,,,,,,,,,,,,,
1799999996958525346,2027-01-15T07:59:56.958525346Z,-1.32,0.59,-0.15,-1.47,-0.44,1.47,2.06,1.32,3.97,3.38,4.12,3.82,5.15,6.32,,,,,,,,,,,,,,
1799999996973886329,2027-01-15T07:59:56.973886329Z,-0.29,-0.59,-1.03,-0.15,0.00,2.50,1.91,2.21,3.68,5.59,3.82,4.41,5.88,5.88,,,,,,,,,,,,,,
1799999996989247312,2027-01-15T07:59:56.989247312Z,-0.88,-1.32,-0.15,1.18,1.32,2.35,1.03,2.21,3.97,4.12,5.00,3.97,6.03,6.03,,,,,,,,,,,,,,
1799999997004608295,2027-01-15T07:59:57.004608295Z,-3.53,-1.62,0.59,0.44,1.32,0.88,1.18,2.35,2.35,4.12,5.29,4.85,4.71,6.18,,,,,,,,,,,,,,
1799999997019969279,2027-01-15T07:59:57.019969279Z,1.03,-1.03,1.03,0.59,0.29,1.18,1.76,2.65,0.44,4.26,4.56,4.56,3.53,5.88,,,,,,,,,,,,,,
1799999997035330262,2027-01-15T07:59:57.035330262Z,-1.47,0.15,1.03,-0.59,0.74,1.91,1.76,1.76,1.18,3.68,3.97,3.82,3.53,5.44,,,,,,,,,,,,,,
1799999997050691245,2027-01-15T07:59:57.050691245Z,-3.24,0.44,-1.03,0.74,2.94,1.91,2.35,1.76,2.21,3.68,3.68,4.12,5.29,5.00,,,,,,,,,,,,,,
1799999997066052228,2027-01-15T07:59:57.066052228Z,-0.74,0.44,0.44,0.88,2.50,1.91,1.18,2.94,2.06,3.68,4.12,4.71,5.74,4.12,,,,,,,,,,,,,,
1799999997081413211,2027-01-15T07:59:57.081413211Z,-1.03,0.59,1.47,-0.74,2.50,1.62,-0.44,1.03,2.35,1.62,2.94,3.24,3.53,2.79,,,,,,,,,,,,,,
1799999997096774194,2027-01-15T07:59:57.096774194Z,-0.88,0.44,1.03,1.32,2.65,-0.59,0.00,1.91,2.21,1.32,1.91,3.97,3.68,2.21,,,,,,,,,,,,,,
1799999997112135177,2027-01-15T07:59:57.112135177Z,-1.47,-1.03,-0.29,0.88,1.62,-1.47,0.29,3.09,1.62,2.21,4.71,4.71,3.68,4.85,,,,,,,,,,,,,,
1799999997127496160,2027-01-15T07:59:57.127496160Z,0.88,-0.44,0.15,0.29,0.44,0.29,0.44,2.65,1.91,2.35,4.56,3.68,3.82,5.59,,,,,,,,,,,,,,
1799999997142857143,2027-01-15T07:59:57.142857143Z,1.62,-0.59,0.15,0.15,1.62,1.91,1.47,1.32,3.09,3.09,3.82,4.71,4.12,4.41,,,,,,,,,,,,,,
1799999997158218126,2027-01-15T07:59:57.158218126Z,1.32,-0.74,-0.59,1.76,2.94,1.91,0.15,1.76,2.65,3.09,1.76,4.85,5.15,3.24,,,,,,,,,,,,,,
1799999997173579110,2027-01-15T07:59:57.173579110Z,0.15,0.59,-0.44,1.18,2.21,1.18,-0.88,2.50,2.06,2.21,3.82,3.97,4.56,4.71,,,,,,,,,,,,,,
1799999997188940093,2027-01-15T07:59:57.188940093Z,1.62,0.74,0.29,0.59,1.62,0.00,0.15,2.65,2.50,2.65,4.71,2.35,3.82,5.15,,,,,,,,,,,,,,
1799999997204301076,2027-01-15T07:59:57.204301076Z,-0.59,-0.29,0.15,0.74,-0.15,-0.29,1.32,2.79,2.50,4.71,3.53,3.53,2.65,4.85,,,,,,,,,,,,,,
1799999997219662059,2027-01-15T07:59:57.219662059Z,0.88,-0.88,1.03,1.18,-0.88,0.44,2.35,2.94,2.94,4.71,4.12,4.56,3.82,3.09,,,,,,,,,,,,,,
1799999997235023042,2027-01-15T07:59:57.235023042Z,1.62,0.44,1.18,0.88,4.85,1.03,2.21,3.68,3.97,3.97,2.65,5.74,3.82,3.97,,,,,,,,,,,,,,
1799999997250384025,2027-01-15T07:59:57.250384025Z,-0.88,1.18,1.03,0.74,4.41,1.32,2.94,4.12,3.09,3.09,1.03,6.18,3.38,6.18,,,,,,,,,,,,,,
1799999997265745008,2027-01-15T07:59:57.265745008Z,1.18,1.03,-1.62,0.44,3.09,1.62,2.06,2.35,2.79,3.24,1.47,6.03,4.41,6.03,,,,,,,,,,,,,,
1799999997281105991,2027-01-15T07:59:57.281105991Z,-0.74,-0.74,-1.91,0.74,0.29,1.76,1.62,1.62,4.41,2.79,4.71,4.85,4.71,4.71,,,,,,,,,,,,,,
1799999997296466974,2027-01-15T07:59:57.296466974Z,0.74,-0.29,-1.03,1.32,-0.29,-0.15,1.76,2.21,5.44,2.21,3.68,3.38,4.26,4.85,,,,,,,,,,,,,,
1799999997311827957,2027-01-15T07:59:57.311827957Z,-0.15,-1.18,-0.15,1.03,1.32,0.74,2.21,1.18,3.53,2.21,2.35,2.79,4.26,5.74,,,,,,,,,,,,,,
1799999997327188941,2027-01-15T07:59:57.327188941Z,-2.35,-1.32,0.74,0.44,1.62,2.21,2.21,1.32,3.09,2.94,2.94,2.94,3.24,5.15,,,,,,,,,,,,,,
1799999997342549924,2027-01-15T07:59:57.342549924Z,-1.62,-0.74,-0.59,0.29,1.32,2.21,1.76,3.24,2.21,3.97,2.50,4.26,3.82,4.85,,,,,,,,,,,,,,
1799999997357910907,2027-01-15T07:59:57.357910907Z,1.03,-0.44,-1.03,0.44,1.47,1.91,1.91,2.50,2.94,3.97,3.68,4.56,5.44,6.32,,,,,,,,,,,,,,
1799999997373271890,2027-01-15T07:59:57.373271890Z,-0.59,0.74,-0.44,0.15,2.06,1.47,2.21,1.47,3.38,4.12,2.50,3.68,5.74,6.18,,,,,,,,,,,,,,
1799999997388632873,2027-01-15T07:59:57.388632873Z,-1.18,-1.47,1.18,-1.03,2.06,0.59,2.35,1.32,2.65,4.26,2.65,3.82,5.44,4.85,,,,,,,,,,,,,,
1799999997403993856,2027-01-15T07:59:57.403993856Z,-1.03,-1.91,0.15,-0.88,0.29,0.00,1.32,2.21,0.74,3.53,4.56,3.97,5.59,3.97,,,,,,,,,,,,,,
1799999997419354839,2027-01-15T07:59:57.419354839Z,1.62,-1.47,0.29,0.29,0.15,1.32,3.24,2.79,2.50,2.35,3.53,3.82,5.59,2.79,,,,,,,,,,,,,,
1799999997434715822,2027-01-15T07:59:57.434715822Z,-1.03,-2.65,1.47,1.32,0.44,2.21,4.12,4.26,2.50,3.38,2.50,4.26,5.74,3.53,,,,,,,,,,,,,,
1799999997450076805,2027-01-15T07:59:57.450076805Z,-2.65,-1.62,0.15,1.76,1.18,1.32,4.26,4.12,2.21,2.35,2.79,3.97,5.88,4.26,,,,,,,,,,,,,,
1799999997465437789,2027-01-15T07:59:57.465437789Z,-1.62,0.29,0.15,0.88,2.35,1.18,3.82,1.76,1.76,2.50,4.85,4.26,4.56,5.44,,,,,,,,,,,,,,
1799999997480798772,2027-01-15T07:59:57.480798772Z,-1.32,-0.59,-0.15,-0.59,1.91,2.06,2.06,0.74,1.91,2.65,4.56,4.26,3.38,5.88,,,,,,,,,,,,,,
1799999997496159755,2027-01-15T07:59:57.496159755Z,0.29,-1.03,1.47,0.88,1.47,1.32,1.62,1.47,2.94,2.65,4.26,5.15,2.79,5.59,,,,,,,,,,,,,,
1799999997511520738,2027-01-15T07:59:57.511520738Z,,-1.32,2.35,0.74,1.32,1.91,1.18,1.62,2.06,2.50,3.53,3.97,3.97,6.91,,,,,,,,,,,,,,
1799999997526881721,2027-01-15T07:59:57.526881721Z,,-2.21,1.03,0.15,1.47,1.76,0.44,2.06,1.18,1.91,5.00,3.09,5.29,7.21,,,,,,,,,,,,,,
1799999997542242704,2027-01-15T07:59:57.542242704Z,,-0.88,-0.15,1.03,0.88,1.18,1.03,2.21,1.62,1.91,4.41,3.38,3.68,5.88,,,,,,,,,,,,,,
1799999997557603687,2027-01-15T07:59:57.557603687Z,,0.15,-0.29,2.50,1.91,2.35,2.21,2.65,3.24,2.94,3.24,2.65,2.94,4.85,,,,,,,,,,,,,,
1799999997572964670,2027-01-15T07:59:57.572964670Z,,0.29,-1.03,1.18,2.06,1.62,1.62,1.62,2.79,2.50,3.68,4.12,3.68,6.03,,,,,,,,,,,,,,
1799999997588325653,2027-01-15T07:59:57.588325653Z,,-1.47,-1.18,-0.29,0.00,1.76,0.88,1.76,2.21,3.09,3.38,5.00,4.85,4.85,,,,,,,,,,,,,,
1799999997603686636,2027-01-15T07:59:57.603686636Z,,-1.76,-1.91,-0.74,-0.59,2.21,1.03,1.18,1.47,3.38,3.68,3.38,5.44,4.12,,,,,,,,,,,,,,
1799999997619047620,2027-01-15T07:59:57.619047620Z,,-1.18,-0.74,2.35,0.15,2.21,1.18,0.59,1.03,3.53,3.97,1.62,4.85,3.82,,,,,,,,,,,,,,
1799999997634408603,2027-01-15T07:59:57.634408603Z,-3.68,-0.74,0.29,1.32,-2.35,3.38,1.18,1.62,2.21,4.71,4.26,2.94,4.41,5.15,,,,,,,,,,,,,,
1799999997649769586,2027-01-15T07:59:57.649769586Z,-3.68,-0.74,-1.18,0.88,-1.91,1.32,0.88,2.21,2.35,3.82,2.50,3.82,4.71,5.00,,,,,,,,,,,,,,
1799999997665130569,2027-01-15T07:59:57.665130569Z,,-0.88,-0.74,-0.74,-0.29,0.59,1.76,2.65,3.24,2.65,1.76,3.68,4.12,4.41,,,,,,,,,,,,,,
1799999997680491552,2027-01-15T07:59:57.680491552Z,,0.74,0.59,0.59,3.68,1.76,2.65,2.06,3.68,1.32,3.53,3.82,4.71,5.44,,,,,,,,,,,,,,
1799999997695852535,2027-01-15T07:59:57.695852535Z,-3.97,1.03,1.18,0.44,1.91,3.24,2.21,3.09,4.12,2.50,4.41,4.12,5.29,5.29,,,,,,,,,,,,,,
1799999997711213518,2027-01-15T07:59:57.711213518Z,-3.97,-0.44,0.29,1.32,0.74,2.94,3.09,1.91,2.50,3.24,5.29,5.15,5.15,4.85,,,,,,,,,,,,,,
1799999997726574501,2027-01-15T07:59:57.726574501Z,,-0.15,0.00,2.21,-0.59,1.91,2.94,1.76,2.06,4.56,5.15,5.00,5.15,4.41,,,,,,,,,,,,,,
1799999997741935484,2027-01-15T07:59:57.741935484Z,,1.76,0.00,0.00,0.00,2.21,3.09,2.35,2.35,3.09,4.12,6.76,5.59,4.71,,,,,,,,,,,,,,
1799999997757296467,2027-01-15T07:59:57.757296467Z,,0.88,0.15,-0.59,-0.88,2.94,3.09,1.76,2.21,3.24,4.26,6.03,4.71,5.59,,,,,,,,,,,,,,
1799999997772657451,2027-01-15T07:59:57.772657451Z,,0.44,0.44,-0.74,-0.29,3.09,2.21,3.38,1.62,4.12,4.12,4.56,4.12,3.09,,,,,,,,,,,,,,
1799999997788018434,2027-01-15T07:59:57.788018434Z,,0.00,0.74,0.59,1.91,2.65,2.65,2.79,1.47,3.53,4.12,4.26,4.26,3.82,,,,,,,,,,,,,,
1799999997803379417,2027-01-15T07:59:57.803379417Z,,-0.59,0.29,1.76,4.12,2.94,3.53,1.62,2.35,3.82,3.97,3.09,5.29,5.44,,,,,,,,,,,,,,
1799999997818740400,2027-01-15T07:59:57.818740400Z,,0.59,-0.15,1.18,2.35,1.18,3.53,2.06,4.12,3.53,3.68,2.79,4.85,6.32,,,,,,,,,,,,,,
1799999997834101383,2027-01-15T07:59:57.834101383Z,,0.74,0.88,-1.03,-0.88,0.15,1.91,3.38,4.56,3.53,4.41,2.35,5.74,6.62,,,,,,,,,,,,,,
1799999997849462366,2027-01-15T07:59:57.849462366Z,,0.88,1.76,1.03,0.74,1.62,1.47,3.24,3.82,4.41,3.24,3.38,5.59,5.88,,,,,,,,,,,,,,
1799999997864823349,2027-01-15T07:59:57.864823349Z,,1.62,0.00,1.32,0.15,1.62,1.76,4.12,2.50,3.09,1.62,4.12,4.71,4.85,,,,,,,,,,,,,,
1799999997880184332,2027-01-15T07:59:57.880184332Z,,-0.74,-0.59,1.32,-1.47,1.18,2.06,3.53,2.35,1.91,2.50,3.82,4.85,4.71,,,,,,,,,,,,,,
1799999997895545315,2027-01-15T07:59:57.895545315Z,,0.29,-0.44,-1.32,-1.47,0.00,1.76,3.09,3.09,3.53,3.53,4.12,4.41,4.85,,,,,,,,,,,,,,
1799999997910906299,2027-01-15T07:59:57.910906299Z,,2.50,1.03,0.29,-1.03,0.44,0.88,3.38,3.82,3.97,4.26,5.00,3.53,3.38,,,,,,,,,,,,,,
1799999997926267282,2027-01-15T07:59:57.926267282Z,,0.44,0.44,1.91,-0.59,0.74,1.47,2.94,3.97,3.53,2.79,6.18,3.97,3.09,,,,,,,,,,,,,,
1799999997941628265,2027-01-15T07:59:57.941628265Z,,-0.59,-0.44,0.88,-0.15,1.03,1.18,2.21,3.53,2.35,3.53,5.29,4.41,5.59,,,,,,,,,,,,,,
1799999997956989248,2027-01-15T07:59:57.956989248Z,,0.15,-2.21,1.62,-1.76,1.32,0.88,3.09,2.79,2.50,3.82,3.24,4.85,7.35,,,,,,,,,,,,,,
1799999997972350231,2027-01-15T07:59:57.972350231Z,,0.59,-1.76,1.03,-0.15,-0.29,0.29,2.35,2.94,4.12,3.82,3.38,4.41,6.62,,,,,,,,,,,,,,
1799999997987711214,2027-01-15T07:59:57.987711214Z,,-0.74,-0.29,-0.15,1.47,-1.18,1.18,1.76,3.68,2.65,3.53,2.65,3.38,5.59,,,,,,,,,,,,,,
1799999998003072197,2027-01-15T07:59:58.003072197Z,,-0.88,0.15,-0.29,1.18,-0.44,2.06,2.65,2.79,2.35,3.24,2.94,4.56,4.71,,,,,,,,,,,,,,
1799999998018433180,2027-01-15T07:59:58.018433180Z,-3.82,-2.21,1.47,0.00,1.03,1.03,2.06,1.62,2.94,4.41,2.50,3.53,4.12,4.26,,,,,,,,,,,,,,
1799999998033794163,2027-01-15T07:59:58.033794163Z,-3.68,-2.06,0.88,-0.29,1.62,1.91,1.62,1.47,2.79,3.09,2.79,5.15,2.35,3.53,,,,,,,,,,,,,,
1799999998049155146,2027-01-15T07:59:58.049155146Z,-4.12,-1.18,0.29,-0.44,2.06,2.50,1.32,1.62,3.38,2.06,5.29,5.59,3.97,3.38,,,,,,,,,,,,,,
1799999998064516130,2027-01-15T07:59:58.064516130Z,-4.41,-1.62,0.44,-0.15,1.18,0.59,1.91,2.35,3.38,0.59,3.97,5.15,5.29,2.65,,,,,,,,,,,,,,
1799999998079877113,2027-01-15T07:59:58.079877113Z,-4.12,-0.74,0.74,1.32,2.06,-0.15,2.35,1.47,2.21,1.91,3.68,2.65,5.00,4.71,,,,,,,,,,,,,,
1799999998095238096,2027-01-15T07:59:58.095238096Z,,-0.74,0.15,0.44,2.35,0.00,1.32,1.76,2.94,3.09,5.00,0.88,3.97,4.41,,,,,,,,,,,,,,
1799999998110599079,2027-01-15T07:59:58.110599079Z,,0.59,-0.29,-1.18,1.18,0.74,1.03,1.91,4.41,4.12,3.68,2.21,3.97,5.44,,,,,,,,,,,,,,
1799999998125960062,2027-01-15T07:59:58.125960062Z,-3.82,-0.15,0.00,-1.03,0.29,1.18,2.06,2.35,2.50,4.26,2.94,3.68,4.26,5.88,,,,,,,,,,,,,,
1799999998141321045,2027-01-15T07:59:58.141321045Z,-3.82,-0.59,-0.88,-1.47,1.32,1.76,1.91,3.24,0.59,2.94,4.26,4.12,5.15,5.29,,,,,,,,,,,,,,
1799999998156682028,2027-01-15T07:59:58.156682028Z,-4.85,-0.74,-0.44,-1.62,1.76,0.88,2.94,4.85,1.76,1.91,3.53,5.29,4.71,5.00,,,,,,,,,,,,,,
1799999998172043011,2027-01-15T07:59:58.172043011Z,-3.53,-1.47,0.15,-0.74,2.94,1.76,2.50,2.35,2.79,2.06,1.76,4.41,5.15,4.26,,,,,,,,,,,,,,
1799999998187403994,2027-01-15T07:59:58.187403994Z,-4.12,0.29,1.32,0.29,3.53,1.76,1.03,2.50,2.94,4.71,1.62,4.26,5.00,3.97,,,,,,,,,,,,,,
1799999998202764977,2027-01-15T07:59:58.202764977Z,-4.26,-0.15,0.29,1.18,1.32,1.62,3.38,2.50,2.94,1.62,3.09,2.35,4.12,4.12,,,,,,,,,,,,,,
1799999998218125961,2027-01-15T07:59:58.218125961Z,-4.12,1.03,0.59,1.03,3.09,1.76,1.18,0.59,2.06,1.18,3.09,1.47,4.12,6.32,,,,,,,,,,,,,,
1799999998233486944,2027-01-15T07:59:58.233486944Z,,0.59,0.74,1.32,2.35,1.62,-0.44,1.18,0.74,2.35,1.76,2.50,4.56,6.03,,,,,,,,,,,,,,
1799999998248847927,2027-01-15T07:59:58.248847927Z,,-0.74,0.88,2.06,0.15,1.91,0.59,2.50,2.79,5.00,2.50,4.56,5.59,6.76,,,,,,,,,,,,,,
1799999998264208910,2027-01-15T07:59:58.264208910Z,,-0.74,1.32,0.88,1.03,0.88,1.03,2.50,3.53,3.82,5.15,4.41,4.26,6.03,,,,,,,,,,,,,,
1799999998279569893,2027-01-15T07:59:58.279569893Z,,-0.44,0.29,0.74,1.18,1.32,1.18,2.35,3.24,3.38,5.59,4.56,2.94,4.12,,,,,,,,,,,,,,
1799999998294930876,2027-01-15T07:59:58.294930876Z,,-0.29,-0.15,2.06,2.94,1.91,1.18,2.06,3.09,3.82,5.44,3.97,3.68,3.82,,,,,,,,,,,,,,
1799999998310291859,2027-01-15T07:59:58.310291859Z,-4.26,-0.88,0.44,0.44,0.44,1.76,2.35,2.06,2.21,3.82,4.26,3.68,4.41,3.97,,,,,,,,,,,,,,
1799999998325652842,2027-01-15T07:59:58.325652842Z,-4.71,-1.03,-0.29,0.00,0.00,1.32,2.06,1.03,2.06,3.68,2.79,3.68,3.38,5.88,,,,,,,,,,,,,,
1799999998341013825,2027-01-15T07:59:58.341013825Z,,-0.59,-0.44,0.44,2.06,1.91,2.79,-0.29,3.53,3.24,3.97,3.82,4.71,5.44,,,,,,,,,,,,,,
1799999998356374808,2027-01-15T07:59:58.356374808Z,,-1.32,0.88,2.50,1.03,1.62,3.24,0.44,3.38,2.94,4.41,4.12,4.41,5.00,,,,,,,,,,,,,,
1799999998371735792,2027-01-15T07:59:58.371735792Z,,-0.59,1.47,3.24,0.00,1.03,2.94,2.06,4.56,1.91,3.82,6.32,4.71,4.85,,,,,,,,,,,,,,
1799999998387096775,2027-01-15T07:59:58.387096775Z,,0.74,0.44,2.50,-0.74,0.59,2.94,4.41,3.97,2.35,2.65,6.32,4.71,4.12,,,,,,,,,,,,,,
1799999998402457758,2027-01-15T07:59:58.402457758Z,,-0.29,0.59,0.00,-1.47,0.29,1.76,3.97,2.50,2.65,3.68,5.15,5.00,3.09,,,,,,,,,,,,,,
1799999998417818741,2027-01-15T07:59:58.417818741Z,,0.15,1.03,-0.44,-0.74,2.06,1.76,3.24,2.50,4.41,4.12,2.65,5.59,3.09,,,,,,,,,,,,,,
1799999998433179724,2027-01-15T07:59:58.433179724Z,,1.03,-0.44,1.32,0.44,2.35,1.47,2.21,3.38,4.12,4.12,3.97,5.29,3.82,,,,,,,,,,,,,,
1799999998448540707,2027-01-15T07:59:58.448540707Z,,0.44,-1.91,2.06,1.32,1.47,1.32,2.06,2.50,2.94,4.71,4.71,4.26,4.26,,,,,,,,,,,,,,
1799999998463901690,2027-01-15T07:59:58.463901690Z,,-0.15,-1.76,2.06,2.35,0.44,0.29,2.50,3.24,3.09,3.97,5.00,4.12,4.85,,,,,,,,,,,,,,
1799999998479262673,2027-01-15T07:59:58.479262673Z,,1.03,-1.32,1.03,1.18,1.03,1.32,2.50,3.24,1.03,4.41,6.18,4.41,6.03,,,,,,,,,,,,,,
1799999998494623656,2027-01-15T07:59:58.494623656Z,,1.32,-0.88,1.03,0.74,1.03,2.50,3.38,1.91,1.03,3.68,5.44,5.00,5.15,,,,,,,,,,,,,,
1799999998509984640,2027-01-15T07:59:58.509984640Z,,0.59,-0.88,0.29,-0.44,0.59,1.62,3.97,3.53,2.35,3.09,4.56,5.59,5.59,,,,,,,,,,,,,,
1799999998525345623,2027-01-15T07:59:58.525345623Z,,-1.91,-1.03,0.88,0.00,-0.15,2.65,2.65,4.12,3.82,2.65,5.15,3.82,5.88,,,,,,,,,,,,,,
1799999998540706606,2027-01-15T07:59:58.540706606Z,,-1.18,0.74,2.06,1.91,0.74,2.06,2.06,3.68,5.15,0.88,2.94,3.82,5.15,,,,,,,,,,,,,,
1799999998556067589,2027-01-15T07:59:58.556067589Z,,-0.44,0.44,2.06,1.32,1.18,1.32,1.76,4.41,4.26,2.21,3.09,3.68,5.00,,,,,,,,,,,,,,
1799999998571428572,2027-01-15T07:59:58.571428572Z,-3.97,-1.62,-0.59,0.74,0.59,0.88,-0.29,0.88,5.44,3.82,3.38,4.12,4.41,5.44,,,,,,,,,,,,,,
1799999998586789555,2027-01-15T07:59:58.586789555Z,-3.82,-2.50,-0.29,-1.32,1.03,0.88,2.79,1.91,3.53,3.53,6.32,3.68,5.15,5.59,,,,,,,,,,,,,,
1799999998602150538,2027-01-15T07:59:58.602150538Z,,-1.91,0.59,-0.88,1.03,-0.15,3.24,2.21,2.35,3.09,4.41,3.24,4.41,3.82,,,,,,,,,,,,,,
1799999998617511521,2027-01-15T07:59:58.617511521Z,-3.82,-1.76,0.29,-1.32,0.29,0.74,2.50,1.32,2.06,3.97,3.24,3.09,4.71,3.53,,,,,,,,,,,,,,
1799999998632872504,2027-01-15T07:59:58.632872504Z,-3.97,-1.47,-0.29,-1.18,1.18,1.76,1.62,0.88,2.21,4.56,4.71,4.12,4.12,4.12,,,,,,,,,,,,,,
1799999998648233487,2027-01-15T07:59:58.648233487Z,-3.82,-2.50,-0.29,-0.15,1.32,2.06,1.91,2.94,2.50,3.53,3.82,4.56,3.38,4.12,,,,,,,,,,,,,,
1799999998663594471,2027-01-15T07:59:58.663594471Z,,-1.62,-0.15,-0.59,0.44,1.03,0.88,3.53,2.06,2.94,3.09,4.12,3.97,4.41,,,,,,,,,,,,,,
1799999998678955454,2027-01-15T07:59:58.678955454Z,,-0.15,0.88,-0.74,1.03,1.62,0.44,2.94,1.03,1.91,3.09,2.79,4.56,5.74,,,,,,,,,,,,,,
1799999998694316437,2027-01-15T07:59:58.694316437Z,-4.41,-2.35,1.32,0.15,3.09,1.32,1.47,1.62,0.74,2.65,3.82,3.97,4.56,5.44,,,,,,,,,,,,,,
1799999998709677420,2027-01-15T07:59:58.709677420Z,-4.12,-1.47,1.62,0.29,3.53,1.32,1.76,1.03,1.32,3.53,3.38,4.85,3.82,4.71,,,,,,,,,,,,,,
1799999998725038403,2027-01-15T07:59:58.725038403Z,,0.00,1.47,-0.29,1.32,0.15,2.21,0.88,1.91,2.35,4.41,3.97,3.97,4.56,,,,,,,,,,,,,,
1799999998740399386,2027-01-15T07:59:58.740399386Z,,-0.29,0.59,0.29,0.88,1.18,2.79,1.47,2.06,2.94,4.71,3.38,4.41,3.68,,,,,,,,,,,,,,
1799999998755760369,2027-01-15T07:59:58.755760369Z,,-1.03,0.88,0.44,0.88,2.06,2.50,2.65,0.88,2.79,5.44,2.35,5.29,1.91,,,,,,,,,,,,,,
1799999998771121352,2027-01-15T07:59:58.771121352Z,-3.53,-1.03,1.03,0.15,0.15,2.06,2.94,3.24,1.91,3.68,3.97,3.53,4.85,5.00,,,,,,,,,,,,,,
1799999998786482335,2027-01-15T07:59:58.786482335Z,-3.82,-0.59,0.59,0.44,0.59,2.65,2.65,2.94,3.09,2.65,3.09,2.79,4.26,6.18,,,,,,,,,,,,,,
1799999998801843318,2027-01-15T07:59:58.801843318Z,-3.82,-0.29,0.15,0.15,1.18,2.79,1.76,2.79,2.65,0.59,3.53,2.21,4.85,5.59,,,,,,,,,,,,,,
1799999998817204302,2027-01-15T07:59:58.817204302Z,,-1.18,0.00,0.29,1.76,2.35,2.06,3.09,2.06,1.32,3.53,3.38,4.26,6.03,,,,,,,,,,,,,,
1799999998832565285,2027-01-15T07:59:58.832565285Z,,-0.15,0.88,1.18,3.68,2.06,2.21,2.65,1.32,3.24,4.41,3.82,4.26,5.74,,,,,,,,,,,,,,
1799999998847926268,2027-01-15T07:59:58.847926268Z,,0.00,0.88,0.59,2.79,1.91,3.09,2.65,1.03,3.82,3.68,4.12,3.53,5.44,,,,,,,,,,,,,,
1799999998863287251,2027-01-15T07:59:58.863287251Z,,0.59,0.15,0.00,2.65,2.21,3.38,1.62,1.62,4.56,4.12,4.41,3.53,5.74,,,,,,,,,,,,,,
1799999998878648234,2027-01-15T07:59:58.878648234Z,,0.88,0.29,0.59,1.62,1.18,1.76,1.91,3.09,3.38,3.53,3.53,4.85,4.56,,,,,,,,,,,,,,
1799999998894009217,2027-01-15T07:59:58.894009217Z,,0.88,-0.59,0.88,1.03,0.59,1.47,2.35,2.50,3.82,3.97,3.68,4.71,3.82,,,,,,,,,,,,,,
1799999998909370200,2027-01-15T07:59:58.909370200Z,-4.71,-0.15,-0.88,1.32,-1.47,1.47,1.91,1.76,2.06,2.94,5.74,5.29,4.26,2.50,,,,,,,,,,,,,,
1799999998924731183,2027-01-15T07:59:58.924731183Z,-4.71,-0.29,-0.74,0.88,-2.50,0.88,2.79,1.62,2.65,3.53,5.00,4.85,4.56,3.82,,,,,,,,,,,,,,
1799999998940092166,2027-01-15T07:59:58.940092166Z,,0.74,-1.03,1.76,-1.62,1.18,1.47,2.06,3.97,2.65,3.97,3.82,4.71,5.00,,,,,,,,,,,,,,
1799999998955453150,2027-01-15T07:59:58.955453150Z,,0.29,-1.32,1.03,0.29,2.06,1.03,3.24,3.82,2.94,3.09,3.68,4.85,4.12,,,,,,,,,,,,,,
1799999998970814133,2027-01-15T07:59:58.970814133Z,,1.18,-0.59,-0.74,0.59,1.62,1.32,2.79,3.53,3.97,3.68,4.41,4.71,4.41,,,,,,,,,,,,,,
1799999998986175116,2027-01-15T07:59:58.986175116Z,,2.35,-0.74,0.59,-0.29,1.18,1.91,1.03,3.97,2.94,3.68,3.24,4.12,5.29,,,,,,,,,,,,,,
1799999999001536099,2027-01-15T07:59:59.001536099Z,,1.18,-0.59,2.65,-0.15,1.32,3.09,2.79,4.26,2.94,3.68,3.24,4.12,5.88,,,,,,,,,,,,,,
1799999999016897082,2027-01-15T07:59:59.016897082Z,,0.74,-0.15,1.18,-0.44,2.21,3.53,3.24,3.82,2.94,3.53,3.38,5.15,5.44,,,,,,,,,,,,,,
1799999999032258065,2027-01-15T07:59:59.032258065Z,,0.74,0.00,-0.29,0.44,2.79,2.06,2.21,3.24,4.12,2.65,3.97,6.18,5.74,,,,,,,,,,,,,,
1799999999047619048,2027-01-15T07:59:59.047619048Z,,1.18,0.59,0.29,0.74,2.35,1.32,1.76,2.94,4.71,2.50,4.12,5.00,4.85,,,,,,,,,,,,,,
1799999999062980031,2027-01-15T07:59:59.062980031Z,,-0.59,-0.15,0.88,2.06,0.44,1.18,1.76,2.94,0.88,3.38,3.38,2.94,4.26,,,,,,,,,,,,,,
1799999999078341014,2027-01-15T07:59:59.078341014Z,,-0.88,-0.59,0.44,-0.15,0.44,3.09,2.65,3.09,0.88,2.65,4.56,4.41,5.29,,,,,,,,,,,,,,
1799999999093701997,2027-01-15T07:59:59.093701997Z,,-0.59,-0.44,-0.15,-1.76,1.18,2.65,4.26,2.21,2.79,1.47,4.12,5.00,6.18,,,,,,,,,,,,,,
1799999999109062981,2027-01-15T07:59:59.109062981Z,-3.97,0.29,1.47,0.44,-1.03,1.32,0.74,4.26,2.06,4.12,3.24,3.24,5.00,4.85,,,,,,,,,,,,,,
1799999999124423964,2027-01-15T07:59:59.124423964Z,-4.12,-0.44,0.44,1.18,0.00,1.03,1.32,2.79,2.50,3.68,3.97,3.97,3.38,5.15,,,,,,,,,,,,,,
1799999999139784947,2027-01-15T07:59:59.139784947Z,-3.97,-1.32,-1.03,0.88,1.18,1.62,1.47,1.32,3.24,4.56,2.21,4.41,4.56,5.74,,,,,,,,,,,,,,
1799999999155145930,2027-01-15T07:59:59.155145930Z,-4.26,-1.76,-2.06,0.74,1.47,1.91,2.94,1.62,3.53,4.41,2.06,6.03,5.74,5.88,,,,,,,,,,,,,,
1799999999170506913,2027-01-15T07:59:59.170506913Z,-3.68,-1.76,-1.62,0.29,2.06,1.47,2.79,1.62,4.41,4.12,2.35,5.88,5.44,5.44,,,,,,,,,,,,,,
1799999999185867896,2027-01-15T07:59:59.185867896Z,-3.68,-1.76,0.88,-0.74,2.65,1.76,0.88,0.74,4.26,2.79,3.38,3.97,4.71,3.97,,,,,,,,,,,,,,
1799999999201228879,2027-01-15T07:59:59.201228879Z,,-1.47,1.18,0.15,1.62,2.94,0.29,1.32,4.26,4.85,2.50,3.38,3.53,3.82,,,,,,,,,,,,,,
1799999999216589862,2027-01-15T07:59:59.216589862Z,,-1.62,1.32,0.44,1.03,2.50,0.88,2.35,3.53,5.15,3.53,4.56,2.94,4.85,,,,,,,,,,,,,,
1799999999231950845,2027-01-15T07:59:59.231950845Z,,-2.35,0.59,0.44,0.88,2.06,1.76,1.76,1.18,3.68,3.53,5.29,4.12,4.12,,,,,,,,,,,,,,
1799999999247311828,2027-01-15T07:59:59.247311828Z,,-2.21,0.59,-0.29,1.47,0.59,1.62,1.18,1.32,4.26,2.06,3.97,4.71,3.82,,,,,,,,,,,,,,
1799999999262672812,2027-01-15T07:59:59.262672812Z,,-1.32,0.88,0.74,1.76,0.00,0.88,0.74,1.47,3.97,1.91,2.65,3.82,4.26,,,,,,,,,,,,,,
1799999999278033795,2027-01-15T07:59:59.278033795Z,,-1.03,0.29,1.76,2.21,1.47,0.29,2.50,2.35,3.09,3.09,4.85,4.12,5.15,,,,,,,,,,,,,,
1799999999293394778,2027-01-15T07:59:59.293394778Z,,0.29,1.18,-0.15,1.32,1.91,0.44,3.09,1.62,2.65,3.82,6.03,4.56,6.32,,,,,,,,,,,,,,
1799999999308755761,2027-01-15T07:59:59.308755761Z,,-0.59,0.29,0.15,0.15,1.32,2.35,3.09,1.62,2.06,2.79,5.15,4.71,7.79,,,,,,,,,,,,,,
1799999999324116744,2027-01-15T07:59:59.324116744Z,,-0.74,0.00,0.88,0.44,1.47,2.06,2.65,2.35,3.38,2.79,4.71,4.41,5.88,,,,,,,,,,,,,,
1799999999339477727,2027-01-15T07:59:59.339477727Z,,-0.88,-0.59,0.29,0.74,0.15,2.35,1.32,2.06,1.76,2.94,4.12,5.15,6.03,,,,,,,,,,,,,,
1799999999354838710,2027-01-15T07:59:59.354838710Z,,0.00,-0.44,0.00,0.59,-0.29,0.44,0.74,1.62,1.76,4.12,3.68,5.88,5.59,,,,,,,,,,,,,,
1799999999370199693,2027-01-15T07:59:59.370199693Z,,1.32,0.74,0.29,1.18,1.47,1.32,0.88,1.47,2.35,4.85,4.41,4.41,4.56,,,,,,,,,,,,,,
1799999999385560676,2027-01-15T07:59:59.385560676Z,,-0.15,1.18,0.44,1.76,2.79,2.50,1.91,2.35,2.65,3.53,4.85,5.44,4.12,,,,,,,,,,,,,,
1799999999400921659,2027-01-15T07:59:59.400921659Z,,-0.44,1.18,0.29,2.94,2.79,1.47,2.94,1.91,2.35,5.88,4.56,5.88,5.59,,,,,,,,,,,,,,
1799999999416282643,2027-01-15T07:59:59.416282643Z,,0.00,0.59,1.03,1.76,1.76,1.62,3.82,1.32,2.65,5.44,4.12,5.44,5.59,,,,,,,,,,,,,,
1799999999431643626,2027-01-15T07:59:59.431643626Z,,0.59,0.15,2.06,1.03,1.18,0.44,1.62,1.03,2.94,4.26,4.12,3.53,5.00,,,,,,,,,,,,,,
1799999999447004609,2027-01-15T07:59:59.447004609Z,,1.62,-0.29,1.91,1.18,1.32,0.15,0.59,3.97,3.38,2.06,2.94,2.65,4.85,,,,,,,,,,,,,,
1799999999462365592,2027-01-15T07:59:59.462365592Z,,1.91,-1.03,1.76,1.03,2.06,1.32,0.29,4.71,4.41,3.24,3.53,2.35,4.56,,,,,,,,,,,,,,
1799999999477726575,2027-01-15T07:59:59.477726575Z,,2.06,-1.32,1.18,-0.29,2.35,2.06,1.32,5.29,3.68,3.53,5.59,3.82,3.97,,,,,,,,,,,,,,
1799999999493087558,2027-01-15T07:59:59.493087558Z,,1.18,-1.03,0.29,0.15,1.47,2.94,3.97,3.53,3.38,3.82,5.59,4.85,4.56,,,,,,,,,,,,,,
1799999999508448541,2027-01-15T07:59:59.508448541Z,,-0.59,-0.44,0.00,0.44,0.00,1.76,4.26,1.91,2.79,3.97,5.15,5.44,5.00,,,,,,,,,,,,,,
1799999999523809524,2027-01-15T07:59:59.523809524Z,,-1.47,0.74,0.29,1.91,0.00,1.32,3.68,1.32,3.38,3.09,4.56,4.85,4.85,,,,,,,,,,,,,,
1799999999539170507,2027-01-15T07:59:59.539170507Z,,-1.18,0.15,0.00,2.79,1.18,1.76,2.35,1.91,2.65,4.41,4.26,2.65,5.74,,,,,,,,,,,,,,
1799999999554531491,2027-01-15T07:59:59.554531491Z,,-0.29,0.29,-0.59,2.35,0.15,1.91,2.35,3.97,3.68,3.09,4.56,3.68,5.29,,,,,,,,,,,,,,
1799999999569892474,2027-01-15T07:59:59.569892474Z,-3.68,-0.59,-0.29,0.15,1.18,0.15,3.09,2.21,4.26,3.97,2.50,4.41,3.97,5.29,,,,,,,,,,,,,,
1799999999585253457,2027-01-15T07:59:59.585253457Z,-3.68,-0.44,-0.74,1.76,1.47,1.91,2.50,1.76,4.12,3.97,3.09,3.97,3.97,5.74,,,,,,,,,,,,,,
1799999999600614440,2027-01-15T07:59:59.600614440Z,-3.68,-0.29,-0.15,1.91,1.18,2.06,2.21,2.94,3.82,3.24,3.68,3.82,4.12,6.03,,,,,,,,,,,,,,
1799999999615975423,2027-01-15T07:59:59.615975423Z,-3.68,-0.88,-0.44,0.15,1.76,2.79,0.59,3.09,3.09,3.09,3.82,4.26,3.97,3.82,,,,,,,,,,,,,,
1799999999631336406,2027-01-15T07:59:59.631336406Z,-3.82,-0.44,-0.44,1.91,1.47,4.26,1.62,3.09,2.79,2.94,2.94,5.29,4.26,3.97,,,,,,,,,,,,,,
1799999999646697389,2027-01-15T07:59:59.646697389Z,-3.82,-0.44,-1.03,1.76,1.32,2.21,2.35,3.53,3.24,3.68,2.79,4.71,4.12,5.15,,,,,,,,,,,,,,
1799999999662058372,2027-01-15T07:59:59.662058372Z,,-0.74,-0.29,0.59,1.76,0.74,2.21,3.53,3.53,4.41,3.97,3.97,4.12,4.56,,,,,,,,,,,,,,
1799999999677419355,2027-01-15T07:59:59.677419355Z,,-1.76,1.18,-0.44,0.74,1.62,3.82,1.91,2.35,5.15,4.26,4.26,4.71,4.71,,,,,,,,,,,,,,
1799999999692780338,2027-01-15T07:59:59.692780338Z,,-1.18,1.62,-1.32,1.03,1.32,2.79,1.91,2.50,4.85,3.24,4.41,5.88,3.24,,,,,,,,,,,,,,
1799999999708141322,2027-01-15T07:59:59.708141322Z,-4.85,0.00,0.00,-0.88,0.88,0.59,1.62,1.62,2.65,3.82,3.53,3.97,5.74,3.38,,,,,,,,,,,,,,
1799999999723502305,2027-01-15T07:59:59.723502305Z,-4.71,0.00,-0.74,-1.91,2.50,-0.44,1.91,1.62,2.50,3.97,6.47,3.68,4.71,4.26,,,,,,,,,,,,,,
1799999999738863288,2027-01-15T07:59:59.738863288Z,-4.71,-0.15,-1.62,-1.03,1.62,-0.74,2.21,1.76,3.38,2.79,4.85,3.09,4.85,4.41,,,,,,,,,,,,,,
1799999999754224271,2027-01-15T07:59:59.754224271Z,-3.53,-0.44,0.00,1.18,0.29,-0.15,2.94,1.18,3.97,3.24,3.97,3.68,5.00,4.71,,,,,,,,,,,,,,
1799999999769585254,2027-01-15T07:59:59.769585254Z,-4.41,-0.88,0.88,-0.74,1.18,1.47,3.09,0.00,5.00,3.53,3.38,2.79,4.12,5.29,,,,,,,,,,,,,,
1799999999784946237,2027-01-15T07:59:59.784946237Z,-4.56,-1.03,2.06,-0.29,2.21,2.35,3.24,0.88,2.94,3.53,3.38,2.94,3.68,5.15,,,,,,,,,,,,,,
1799999999800307220,2027-01-15T07:59:59.800307220Z,-5.44,-0.88,-1.47,0.29,1.18,0.59,2.65,2.65,1.32,2.94,4.41,6.03,4.56,4.26,,,,,,,,,,,,,,
1799999999815668203,2027-01-15T07:59:59.815668203Z,-4.85,-0.74,-1.47,0.00,0.44,0.44,1.32,1.91,3.09,2.21,3.38,4.71,5.29,3.68,,,,,,,,,,,,,,
1799999999831029186,2027-01-15T07:59:59.831029186Z,,0.00,0.00,-0.15,1.32,0.74,1.18,0.29,1.91,1.32,3.97,2.94,5.44,4.12,,,,,,,,,,,,,,
1799999999846390169,2027-01-15T07:59:59.846390169Z,-3.82,-1.18,1.32,1.03,1.32,2.94,2.06,1.32,1.76,2.35,5.00,3.09,4.71,4.71,,,,,,,,,,,,,,
1799999999861751153,2027-01-15T07:59:59.861751153Z,-3.82,-1.32,0.88,0.88,1.76,2.65,1.91,3.09,0.74,2.06,4.12,3.82,5.15,4.56,,,,,,,,,,,,,,
1799999999877112136,2027-01-15T07:59:59.877112136Z,-4.41,-1.18,-0.88,0.00,1.47,1.47,2.06,2.94,0.00,1.03,3.38,2.65,5.44,6.32,,,,,,,,,,,,,,
1799999999892473119,2027-01-15T07:59:59.892473119Z,,-0.44,-0.74,0.29,0.44,1.91,2.35,3.68,0.74,1.76,3.68,2.06,4.71,6.76,,,,,,,,,,,,,,
1799999999907834102,2027-01-15T07:59:59.907834102Z,,-0.88,0.29,0.74,-0.74,2.65,2.79,3.82,0.88,2.79,4.41,5.88,4.41,5.88,,,,,,,,,,,,,,
1799999999923195085,2027-01-15T07:59:59.923195085Z,,-1.18,1.03,2.21,-0.15,0.74,1.18,3.38,2.06,3.97,4.26,6.62,3.82,4.71,,,,,,,,,,,,,,
1799999999938556068,2027-01-15T07:59:59.938556068Z,,-0.29,0.59,1.76,0.59,0.44,-0.74,2.94,2.65,4.56,4.12,5.59,4.41,3.82,,,,,,,,,,,,,,
1799999999953917051,2027-01-15T07:59:59.953917051Z,,1.18,0.15,-0.29,1.91,1.32,0.29,1.91,1.18,3.97,3.68,2.65,4.71,5.00,,,,,,,,,,,,,,
1799999999969278034,2027-01-15T07:59:59.969278034Z,,-0.44,-1.76,0.44,3.09,1.03,2.50,1.91,2.06,3.09,2.65,2.21,3.53,4.41,,,,,,,,,,,,,,
1799999999984639017,2027-01-15T07:59:59.984639017Z,,-1.18,0.29,1.18,0.59,0.59,1.47,2.35,2.65,2.35,2.65,2.35,2.79,3.97,,,,,,,,,,,,,,
