# spacing_uv=20.0
timestamp_ns,timestamp_iso,AF3,F7,F3,FC5,T7,P7,O1,O2,P8,T8,FC6,F4,F8,AF4,AF3_q,F7_q,F3_q,FC5_q,T7_q,P7_q,O1_q,O2_q,P8_q,T8_q,FC6_q,F4_q,F8_q,AF4_q
1799999990000000000,2027-01-15T07:59:50.000000000Z,,,,,,,,,,,,,,,,,,,,,,,,,,,,
1799999990008326395,2027-01-15T07:59:50.008326395Z,-1.91,-1.18,-1.32,-2.06,1.18,0.59,,2.35,,,,,3.82,7.35,,,,,,,,,,,,,,
1799999990016652790,2027-01-15T07:59:50.016652790Z,-1.47,-0.74,0.44,-1.47,-0.15,1.62,2.35,2.94,1.47,4.71,4.26,7.35,4.26,6.47,,,,,,,,,,,,,,
1799999990024979185,2027-01-15T07:59:50.024979185Z,1.03,-0.59,1.91,-0.15,-0.74,2.79,2.35,3.53,2.21,3.24,3.97,6.18,4.12,5.29,,,,,,,,,,,,,,
1799999990033305579,2027-01-15T07:59:50.033305579Z,-0.59,-1.32,-0.74,-0.44,0.15,1.91,2.79,2.65,2.94,2.50,3.68,5.44,3.24,4.56,,,,,,,,,,,,,,
1799999990041631974,2027-01-15T07:59:50.041631974Z,-0.29,-2.21,-3.68,-1.47,-0.15,0.59,2.21,1.18,3.24,4.26,4.12,4.12,3.24,4.26,,,,,,,,,,,,,,
1799999990049958369,2027-01-15T07:59:50.049958369Z,-0.74,-2.65,-2.06,0.44,0.88,0.29,2.79,0.74,2.79,5.74,4.26,2.94,3.68,4.41,,,,,,,,,,,,,,
1799999990058284763,2027-01-15T07:59:50.058284763Z,-0.88,-2.35,0.44,1.32,2.06,0.59,4.12,1.47,3.38,5.15,3.09,3.38,3.24,4.12,,,,,,,,,,,,,,
1799999990066611158,2027-01-15T07:59:50.066611158Z,-2.35,-2.94,-0.44,-1.76,-0.88,0.59,2.94,2.21,3.68,4.41,2.94,3.38,3.82,2.50,,,,,,,,,,,,,,
1799999990074937553,2027-01-15T07:59:50.074937553Z,-1.32,-2.79,-0.88,-0.74,-3.24,0.74,2.79,2.21,3.53,4.56,1.62,3.09,3.97,2.35,,,,,,,,,,,,,,
1799999990083263947,2027-01-15T07:59:50.083263947Z,-1.18,-2.50,0.00,1.91,-2.65,1.91,4.26,3.09,3.09,4.41,0.88,3.97,3.82,2.94,,,,,,,,,,,,,,
1799999990091590342,2027-01-15T07:59:50.091590342Z,-1.18,-3.24,0.00,1.32,-3.09,2.50,3.82,4.85,2.79,2.65,4.26,4.41,4.71,2.94,,,,,,,,,,,,,,
1799999990099916737,2027-01-15T07:59:50.099916737Z,-0.59,-1.18,-0.15,1.76,-1.76,2.21,3.38,4.26,3.38,0.88,6.03,2.94,4.71,4.85,,,,,,,,,,,,,,
1799999990108243131,2027-01-15T07:59:50.108243131Z,-0.44,2.21,-1.03,1.76,0.59,2.35,1.62,1.76,2.94,2.35,3.82,2.06,3.82,6.32,,,,,,,,,,,,,,
1799999990116569526,2027-01-15T07:59:50.116569526Z,0.15,2.94,-1.18,1.76,2.35,3.24,-0.44,0.44,1.03,4.56,4.56,3.82,3.38,6.76,,,,,,,,,,,,,,
1799999990124895921,2027-01-15T07:59:50.124895921Z,-0.74,1.76,0.15,2.65,2.79,3.09,0.15,1.76,0.15,2.06,5.59,4.71,3.97,7.06,,,,,,,,,,,,,,
1799999990133222315,2027-01-15T07:59:50.133222315Z,-0.44,1.18,0.74,2.50,2.06,1.62,1.18,2.50,1.32,-0.44,2.65,3.68,4.26,4.85,,,,,,,,,,,,,,
1799999990141548710,2027-01-15T07:59:50.141548710Z,1.03,-0.59,-0.15,1.62,2.06,0.29,0.74,1.91,1.32,2.21,0.44,4.12,3.68,2.65,,,,,,,,,,,,,,
1799999990149875105,2027-01-15T07:59:50.149875105Z,-1.03,-1.62,0.00,0.74,2.35,1.03,2.06,2.50,1.18,4.85,1.62,5.59,2.94,3.53,,,,,,,,,,,,,,
1799999990158201499,2027-01-15T07:59:50.158201499Z,-0.59,-0.59,0.88,0.88,0.44,1.62,2.79,2.65,2.35,3.68,1.91,5.59,2.79,4.85,,,,,,,,,,,,,,
1799999990166527894,2027-01-15T07:59:50.166527894Z,0.88,0.88,1.18,2.21,-0.44,1.03,1.76,1.76,2.65,3.97,2.21,4.71,2.79,4.41,,,,,,,,,,,,,,
1799999990174854289,2027-01-15T07:59:50.174854289Z,-1.18,1.47,0.15,2.94,1.62,1.76,1.32,1.91,2.94,4.41,3.38,4.26,2.06,4.26,,,,,,,,,,,,,,
1799999990183180683,2027-01-15T07:59:50.183180683Z,-2.35,1.91,-0.88,2.06,1.76,2.65,2.21,2.79,5.00,2.35,2.65,4.26,2.65,4.56,,,,,,,,,,,,,,
1799999990191507078,2027-01-15T07:59:50.191507078Z,-0.88,0.59,-0.44,0.59,2.06,1.32,3.24,2.50,5.15,2.65,2.79,3.97,4.85,6.47,,,,,,,,,,,,,,
1799999990199833473,2027-01-15T07:59:50.199833473Z,0.29,-0.29,-0.44,0.15,2.35,1.32,3.38,2.65,4.71,3.97,3.38,3.82,5.29,6.32,,,,,,,,,,,,,,
1799999990208159867,2027-01-15T07:59:50.208159867Z,0.44,-1.03,-1.91,0.29,2.06,2.35,3.24,3.09,3.68,3.68,3.97,4.26,4.71,3.68,,,,,,,,,,,,,,
1799999990216486262,2027-01-15T07:59:50.216486262Z,1.18,0.00,-1.32,0.74,-1.18,1.76,2.06,2.21,3.97,4.26,3.24,4.41,5.00,2.50,,,,,,,,,,,,,,
1799999990224812657,2027-01-15T07:59:50.224812657Z,-0.29,1.62,-0.44,0.00,0.44,1.03,2.65,1.32,5.00,4.26,2.06,3.38,3.38,3.53,,,,,,,,,,,,,,
1799999990233139051,2027-01-15T07:59:50.233139051Z,-0.74,2.06,-0.74,-0.15,3.24,1.03,2.79,1.76,5.15,2.06,1.18,3.09,2.94,4.26,,,,,,,,,,,,,,
1799999990241465446,2027-01-15T07:59:50.241465446Z,-0.15,0.44,0.15,0.74,3.09,0.59,1.47,2.65,3.53,-1.18,2.35,3.97,4.85,3.97,,,,,,,,,,,,,,
1799999990249791841,2027-01-15T07:59:50.249791841Z,0.00,-0.44,0.88,1.62,1.18,0.00,0.88,3.68,1.76,-1.91,3.82,3.68,5.44,3.68,,,,,,,,,,,,,,
1799999990258118235,2027-01-15T07:59:50.258118235Z,0.44,0.74,-0.15,2.06,0.74,0.15,1.76,4.56,0.88,1.47,2.79,3.24,4.26,3.68,,,,,,,,,,,,,,
1799999990266444630,2027-01-15T07:59:50.266444630Z,0.59,2.06,-1.32,1.47,1.62,0.88,2.06,4.71,0.59,4.56,1.03,3.97,4.85,2.94,,,,,,,,,,,,,,
1799999990274771025,2027-01-15T07:59:50.274771025Z,1.91,1.62,-0.88,0.59,0.74,1.76,1.47,3.82,0.88,4.26,1.62,3.82,5.59,2.21,,,,,,,,,,,,,,
1799999990283097419,2027-01-15T07:59:50.283097419Z,0.00,0.00,0.29,0.44,-1.18,2.35,1.62,2.06,1.32,4.41,2.79,2.79,5.00,2.65,,,,,,,,,,,,,,
1799999990291423814,2027-01-15T07:59:50.291423814Z,-0.15,-1.47,1.32,1.03,0.00,1.47,1.62,-0.29,1.47,5.74,3.24,2.35,4.85,3.38,,,,,,,,,,,,,,
1799999990299750209,2027-01-15T07:59:50.299750209Z,1.32,-0.88,1.62,0.44,2.21,0.00,1.32,-0.29,1.91,4.26,5.44,3.82,5.59,4.56,,,,,,,,,,,,,,
1799999990308076603,2027-01-15T07:59:50.308076603Z,2.06,0.15,1.03,1.18,1.32,0.88,1.62,1.76,2.35,2.21,7.21,4.85,5.29,6.47,,,,,,,,,,,,,,
1799999990316402998,2027-01-15T07:59:50.316402998Z,0.15,0.44,0.00,1.62,1.91,2.50,2.65,3.24,3.24,3.53,5.74,3.53,4.41,6.76,,,,,,,,,,,,,,
1799999990324729393,2027-01-15T07:59:50.324729393Z,0.15,0.44,-0.59,0.88,2.50,2.06,2.79,3.09,4.41,2.94,5.00,2.79,4.26,6.03,,,,,,,,,,,,,,
1799999990333055787,2027-01-15T07:59:50.333055787Z,-0.59,-0.74,-0.44,-1.62,0.15,0.59,1.91,2.21,5.88,0.88,6.47,3.82,3.68,4.56,,,,,,,,,,,,,,
1799999990341382182,2027-01-15T07:59:50.341382182Z,-0.74,0.74,0.59,-0.44,0.15,0.74,1.91,2.35,5.00,1.76,6.47,3.82,2.79,3.38,,,,,,,,,,,,,,
1799999990349708577,2027-01-15T07:59:50.349708577Z,-1.76,2.65,0.88,1.91,1.03,0.00,2.50,2.65,2.50,1.47,3.53,4.26,2.94,3.09,,,,,,,,,,,,,,
1799999990358034971,2027-01-15T07:59:50.358034971Z,-0.44,1.03,0.00,2.50,-0.29,-1.03,2.35,1.18,1.91,2.21,1.76,3.24,4.12,3.97,,,,,,,,,,,,,,
1799999990366361366,2027-01-15T07:59:50.366361366Z,-0.44,0.15,-0.88,0.88,-0.88,-1.47,3.09,0.15,2.94,4.12,3.68,1.91,4.71,5.44,,,,,,,,,,,,,,
1799999990374687761,2027-01-15T07:59:50.374687761Z,-0.15,1.18,-0.15,0.59,0.74,0.44,3.38,1.32,2.21,3.82,3.97,3.09,4.12,6.18,,,,,,,,,,,,,,
1799999990383014155,2027-01-15T07:59:50.383014155Z,0.15,-0.74,1.91,0.44,1.03,2.65,1.76,3.24,2.35,2.50,2.06,5.59,3.82,4.85,,,,,,,,,,,,,,
1799999990391340550,2027-01-15T07:59:50.391340550Z,-0.15,-2.50,2.65,-0.74,-0.15,2.50,1.62,3.38,3.97,2.65,2.21,5.74,4.26,3.82,,,,,,,,,,,,,,
1799999990399666945,2027-01-15T07:59:50.399666945Z,-0.44,-0.74,1.62,0.00,-0.44,1.62,3.82,2.94,3.97,2.06,3.68,3.82,5.00,5.00,,,,,,,,,,,,,,
1799999990407993339,2027-01-15T07:59:50.407993339Z,-0.44,0.29,0.59,2.21,-0.15,2.06,5.15,3.82,3.53,2.35,4.12,2.65,5.74,7.35,,,,,,,,,,,,,,
1799999990416319734,2027-01-15T07:59:50.416319734Z,-0.59,-1.18,-1.47,2.65,-0.59,2.21,3.53,4.26,3.09,3.68,3.53,3.24,6.18,7.94,,,,,,,,,,,,,,
1799999990424646129,2027-01-15T07:59:50.424646129Z,-2.50,-2.65,-3.82,1.47,0.29,2.50,1.91,2.65,2.50,3.68,3.68,3.53,6.47,5.88,,,,,,,,,,,,,,
1799999990432972523,2027-01-15T07:59:50.432972523Z,-0.88,-2.21,-2.35,1.76,1.91,3.24,2.21,0.88,2.79,3.24,3.53,2.79,5.88,5.88,,,,,,,,,,,,,,
1799999990441298918,2027-01-15T07:59:50.441298918Z,-0.44,-0.59,-0.74,1.03,0.74,2.50,2.79,2.94,3.38,3.38,3.24,5.00,4.85,6.32,,,,,,,,,,,,,,
1799999990449625313,2027-01-15T07:59:50.449625313Z,1.03,-1.18,-0.74,0.29,1.03,1.91,2.79,4.26,4.12,3.09,2.21,6.18,4.85,6.32,,,,,,,,,,,,,,
1799999990457951707,2027-01-15T07:59:50.457951707Z,0.74,-2.06,1.91,-0.15,1.62,1.91,3.68,2.65,4.12,2.65,2.50,4.85,5.59,6.76,,,,,,,,,,,,,,
1799999990466278102,2027-01-15T07:59:50.466278102Z,0.88,-0.74,3.24,0.00,-1.91,1.32,3.09,1.18,2.94,3.82,5.44,4.85,6.32,4.26,,,,,,,,,,,,,,
1799999990474604497,2027-01-15T07:59:50.474604497Z,0.44,-0.44,2.21,0.15,-2.21,1.18,1.76,0.88,1.62,3.09,5.88,5.88,5.88,1.91,,,,,,,,,,,,,,
1799999990482930891,2027-01-15T07:59:50.482930891Z,-1.91,-1.47,1.32,0.00,1.18,1.32,0.59,1.32,1.91,1.91,3.24,5.15,4.85,4.41,,,,,,,,,,,,,,
1799999990491257286,2027-01-15T07:59:50.491257286Z,-2.35,-2.21,1.62,-0.29,1.03,2.06,-1.18,2.06,3.09,2.94,3.38,3.68,4.56,6.91,,,,,,,,,,,,,,
1799999990499583681,2027-01-15T07:59:50.499583681Z,-0.88,-1.76,0.74,0.29,-0.59,2.06,-1.32,1.62,2.79,3.53,5.00,3.68,4.85,5.44,,,,,,,,,,,,,,
1799999990507910075,2027-01-15T07:59:50.507910075Z,-0.44,-0.59,-0.44,0.29,0.59,1.18,1.18,0.44,2.65,1.47,4.41,4.26,4.26,5.00,,,,,,,,,,,,,,
1799999990516236470,2027-01-15T07:59:50.516236470Z,-0.29,0.59,-0.15,-0.88,1.62,1.91,3.09,0.74,3.82,1.91,3.68,4.41,3.38,6.32,,,,,,,,,,,,,,
1799999990524562865,2027-01-15T07:59:50.524562865Z,-2.35,1.32,0.44,-2.35,-0.74,2.50,2.06,2.21,4.85,5.15,3.97,4.26,3.53,6.47,,,,,,,,,,,,,,
1799999990532889259,2027-01-15T07:59:50.532889259Z,-0.74,0.88,-0.29,-1.62,-2.79,1.18,1.18,2.50,4.85,5.59,4.41,3.68,5.59,6.18,,,,,,,,,,,,,,
1799999990541215654,2027-01-15T07:59:50.541215654Z,-0.29,-1.03,-1.47,1.03,-1.47,1.32,2.06,1.76,3.68,4.41,4.56,3.38,7.35,6.47,,,,,,,,,,,,,,
1799999990549542049,2027-01-15T07:59:50.549542049Z,-1.18,-2.06,-1.18,2.35,1.32,3.68,1.91,2.06,2.94,4.85,3.68,4.56,6.03,5.88,,,,,,,,,,,,,,
1799999990557868443,2027-01-15T07:59:50.557868443Z,-1.18,-0.88,0.88,0.74,2.79,3.24,0.15,2.79,4.12,4.12,4.12,5.29,4.71,5.29,,,,,,,,,,,,,,
1799999990566194838,2027-01-15T07:59:50.566194838Z,-1.76,-1.62,0.59,-0.44,1.32,0.88,1.18,2.35,2.35,4.12,5.88,3.82,5.88,6.18,,,,,,,,,,,,,,
1799999990574521233,2027-01-15T07:59:50.574521233Z,-2.94,-2.21,0.59,0.44,1.18,0.59,2.06,1.91,1.32,4.41,5.29,4.85,4.71,6.18,,,,,,,,,,,,,,
1799999990582847627,2027-01-15T07:59:50.582847627Z,0.88,-0.59,2.35,2.06,0.29,1.62,1.32,1.91,1.18,3.53,3.82,6.32,3.38,5.15,,,,,,,,,,,,,,
1799999990591174022,2027-01-15T07:59:50.591174022Z,0.59,0.59,1.47,0.59,-1.18,1.76,0.74,2.79,0.74,3.97,4.56,3.82,4.85,5.74,,,,,,,,,,,,,,
1799999990599500417,2027-01-15T07:59:50.599500417Z,-3.68,1.18,-0.29,-2.50,0.15,1.91,1.91,2.50,1.18,3.68,4.41,2.35,3.53,5.88,,,,,,,,,,,,,,
1799999990607826811,2027-01-15T07:59:50.607826811Z,-1.76,0.00,-0.74,-0.88,2.21,1.91,2.94,0.88,1.76,3.24,3.53,3.68,3.53,5.15,,,,,,,,,,,,,,
1799999990616153206,2027-01-15T07:59:50.616153206Z,-1.18,-1.03,-1.03,3.38,3.82,1.76,2.50,1.32,1.32,3.97,3.09,5.29,6.62,4.56,,,,,,,,,,,,,,
1799999990624479601,2027-01-15T07:59:50.624479601Z,-1.03,0.44,-1.03,2.06,4.56,1.91,1.62,2.94,2.21,3.97,3.82,5.15,7.06,4.26,,,,,,,,,,,,,,
1799999990632805996,2027-01-15T07:59:50.632805996Z,-1.03,1.18,0.44,-1.91,2.94,2.50,1.32,2.94,2.79,3.38,4.56,3.97,4.41,4.85,,,,,,,,,,,,,,
1799999990641132390,2027-01-15T07:59:50.641132390Z,-0.59,-0.59,1.91,-1.47,0.88,1.91,0.88,2.79,1.62,3.09,4.85,3.53,3.24,4.12,,,,,,,,,,,,,,
1799999990649458785,2027-01-15T07:59:50.649458785Z,-0.29,0.59,2.50,1.18,1.62,0.88,0.00,2.06,1.47,1.91,3.53,3.24,3.97,1.91,,,,,,,,,,,,,,
1799999990657785180,2027-01-15T07:59:50.657785180Z,-0.15,1.91,1.47,1.62,3.68,1.32,-1.18,0.00,2.79,0.44,1.91,3.09,3.97,0.74,,,,,,,,,,,,,,
1799999990666111574,2027-01-15T07:59:50.666111574Z,-1.62,0.00,0.00,0.59,4.26,0.88,-0.74,0.44,3.38,1.18,1.91,4.12,3.24,1.91,,,,,,,,,,,,,,
1799999990674437969,2027-01-15T07:59:50.674437969Z,-1.18,-1.18,-0.59,1.03,2.35,-1.47,1.18,3.09,1.76,2.50,2.50,4.85,3.09,3.38,,,,,,,,,,,,,,
1799999990682764364,2027-01-15T07:59:50.682764364Z,-0.88,-0.44,-0.29,1.32,0.15,-2.65,0.74,4.56,0.44,2.21,3.09,4.56,3.82,4.71,,,,,,,,,,,,,,
1799999990691090758,2027-01-15T07:59:50.691090758Z,-0.74,-0.44,0.15,0.44,0.29,-0.59,0.00,2.65,0.74,2.35,5.15,3.68,3.97,6.03,,,,,,,,,,,,,,
1799999990699417153,2027-01-15T07:59:50.699417153Z,-0.74,-0.44,0.29,-0.15,1.18,1.32,0.44,1.47,2.21,2.50,4.56,3.68,3.68,5.59,,,,,,,,,,,,,,
1799999990707743548,2027-01-15T07:59:50.707743548Z,1.62,-0.74,0.00,0.15,1.62,2.65,1.62,1.76,4.12,3.09,2.21,5.15,4.12,3.68,,,,,,,,,,,,,,
1799999990716069942,2027-01-15T07:59:50.716069942Z,2.06,-0.88,-0.15,1.76,2.94,1.91,0.44,1.76,3.53,3.82,1.62,6.03,5.15,2.94,,,,,,,,,,,,,,
1799999990724396337,2027-01-15T07:59:50.724396337Z,0.29,-0.29,-0.74,2.50,3.53,1.03,-0.44,1.76,1.47,3.09,1.76,3.97,5.00,3.24,,,,,,,,,,,,,,
1799999990732722732,2027-01-15T07:59:50.732722732Z,0.15,0.29,-0.88,0.88,2.35,1.18,-1.18,2.79,1.47,1.32,3.97,3.38,4.71,4.12,,,,,,,,,,,,,,
1799999990741049126,2027-01-15T07:59:50.741049126Z,2.06,1.03,0.00,-0.15,1.03,1.32,-1.47,3.53,3.09,1.47,5.88,3.82,4.26,5.44,,,,,,,,,,,,,,
1799999990749375521,2027-01-15T07:59:50.749375521Z,2.94,1.18,0.15,1.03,1.62,0.44,-1.18,2.79,2.94,3.53,5.15,2.65,4.41,6.03,,,,,,,,,,,,,,
1799999990757701916,2027-01-15T07:59:50.757701916Z,0.59,0.29,0.44,0.88,2.06,-0.59,0.29,2.06,1.76,4.56,3.53,1.18,3.82,4.85,,,,,,,,,,,,,,
1799999990766028310,2027-01-15T07:59:50.766028310Z,0.29,-0.59,1.03,-0.15,-0.44,-0.88,2.50,2.79,2.06,3.97,3.09,1.62,1.91,3.97,,,,,,,,,,,,,,
1799999990774354705,2027-01-15T07:59:50.774354705Z,0.15,-1.18,0.15,0.00,-2.50,0.00,3.38,3.82,3.24,4.85,3.68,4.12,2.21,3.97,,,,,,,,,,,,,,
1799999990782681100,2027-01-15T07:59:50.782681100Z,0.44,-1.32,-0.74,0.88,-0.88,0.74,2.21,2.94,3.09,5.44,4.26,6.62,5.00,2.94,,,,,,,,,,,,,,
1799999990791007494,2027-01-15T07:59:50.791007494Z,0.74,-0.74,1.18,1.91,1.03,1.18,1.18,2.50,2.35,4.56,4.56,5.29,5.29,2.79,,,,,,,,,,,,,,
1799999990799333889,2027-01-15T07:59:50.799333889Z,2.35,0.29,2.65,1.62,2.21,1.91,1.76,4.12,3.68,3.68,3.82,3.82,2.50,4.41,,,,,,,,,,,,,,
1799999990807660284,2027-01-15T07:59:50.807660284Z,2.35,1.32,1.18,0.00,5.59,1.03,2.94,5.00,5.29,2.94,1.91,5.88,2.79,5.29,,,,,,,,,,,,,,
1799999990815986678,2027-01-15T07:59:50.815986678Z,-0.88,1.18,-0.59,0.74,4.41,1.32,3.38,3.97,3.09,3.09,0.59,6.47,3.82,6.18,,,,,,,,,,,,,,
1799999990824313073,2027-01-15T07:59:50.824313073Z,1.18,1.03,-1.32,1.32,3.09,1.62,2.50,2.65,1.62,3.24,1.47,6.03,3.82,6.47,,,,,,,,,,,,,,
1799999990832639468,2027-01-15T07:59:50.832639468Z,1.47,0.15,-2.50,0.00,0.15,1.91,1.62,1.62,3.38,3.24,2.79,4.41,4.71,5.59,,,,,,,,,,,,,,
1799999990840965862,2027-01-15T07:59:50.840965862Z,-0.74,-0.74,-1.91,-0.88,0.74,0.59,1.18,1.32,6.03,2.21,2.79,5.88,6.32,3.68,,,,,,,,,,,,,,
1799999990849292257,2027-01-15T07:59:50.849292257Z,-0.59,-1.18,-1.18,1.18,0.29,0.88,1.62,1.32,6.47,2.06,5.59,5.29,4.12,2.65,,,,,,,,,,,,,,
1799999990857618652,2027-01-15T07:59:50.857618652Z,0.59,0.15,-1.76,2.65,-0.59,0.29,2.06,2.21,4.71,2.65,5.74,2.94,3.68,3.68,,,,,,,,,,,,,,
1799999990865945046,2027-01-15T07:59:50.865945046Z,-0.29,-0.29,-1.03,1.32,-0.59,-1.18,2.06,2.50,3.97,2.35,2.06,1.03,5.44,5.74,,,,,,,,,,,,,,
1799999990874271441,2027-01-15T07:59:50.874271441Z,-0.59,-2.35,0.74,-0.44,1.76,0.00,2.06,0.88,4.56,1.91,1.62,1.32,5.15,6.76,,,,,,,,,,,,,,
1799999990882597836,2027-01-15T07:59:50.882597836Z,-2.94,-1.76,1.62,-0.29,2.50,2.21,2.35,0.59,3.53,2.35,4.26,3.53,3.38,5.88,,,,,,,,,,,,,,
1799999990890924230,2027-01-15T07:59:50.890924230Z,-2.35,0.15,1.18,0.59,0.44,2.35,2.35,2.35,1.91,3.09,3.38,4.56,2.35,4.41,,,,,,,,,,,,,,
1799999990899250625,2027-01-15T07:59:50.899250625Z,-2.35,-0.29,0.15,1.47,1.32,1.76,2.06,3.09,2.21,3.68,1.32,2.50,3.24,3.97,,,,,,,,,,,,,,
1799999990907577020,2027-01-15T07:59:50.907577020Z,-2.79,-1.76,-1.03,1.03,2.50,2.65,2.06,2.94,2.65,4.26,1.32,2.21,4.56,5.29,,,,,,,,,,,,,,
1799999990915903414,2027-01-15T07:59:50.915903414Z,-0.74,-1.47,-1.62,-0.29,1.32,2.21,1.76,3.38,1.76,4.56,3.09,5.44,4.56,6.32,,,,,,,,,,,,,,
1799999990924229809,2027-01-15T07:59:50.924229809Z,-0.44,0.29,-1.18,0.15,1.47,1.18,1.32,3.09,2.50,4.41,4.85,6.62,4.26,6.18,,,,,,,,,,,,,,
1799999990932556204,2027-01-15T07:59:50.932556204Z,0.74,0.74,-0.44,1.47,2.06,1.03,2.06,2.06,3.82,3.82,4.26,3.68,5.74,6.32,,,,,,,,,,,,,,
1799999990940882598,2027-01-15T07:59:50.940882598Z,-1.76,0.74,-0.44,0.15,2.06,1.62,2.50,1.03,3.38,4.12,1.47,2.94,5.88,6.18,,,,,,,,,,,,,,
1799999990949208993,2027-01-15T07:59:50.949208993Z,-1.18,0.74,0.88,-1.03,2.06,0.88,2.35,1.32,2.65,4.56,1.76,3.82,5.44,5.74,,,,,,,,,,,,,,
1799999990957535388,2027-01-15T07:59:50.957535388Z,-1.91,-2.21,2.35,-0.74,1.91,-0.59,2.35,1.47,1.18,4.26,4.71,5.74,4.41,4.71,,,,,,,,,,,,,,
1799999990965861782,2027-01-15T07:59:50.965861782Z,-3.24,-3.53,1.18,-1.32,0.88,-0.44,1.32,0.88,1.32,2.35,5.00,4.71,5.00,3.24,,,,,,,,,,,,,,
1799999990974188177,2027-01-15T07:59:50.974188177Z,0.88,-0.59,-1.32,-1.32,-0.59,0.44,0.44,2.35,0.59,1.76,3.82,3.24,6.03,2.35,,,,,,,,,,,,,,
1799999990982514572,2027-01-15T07:59:50.982514572Z,-0.15,-0.59,-1.18,-0.74,-0.74,1.32,2.79,4.12,1.47,2.35,3.09,2.79,6.03,2.65,,,,,,,,,,,,,,
1799999990990840966,2027-01-15T07:59:50.990840966Z,-0.44,-3.24,1.47,0.74,1.03,2.35,5.29,4.56,3.68,2.94,2.79,4.26,5.00,3.09,,,,,,,,,,,,,,
1799999990999167361,2027-01-15T07:59:50.999167361Z,-2.06,-3.38,2.50,2.50,0.44,2.79,4.12,4.56,3.09,3.68,2.21,5.15,5.00,3.68,,,,,,,,,,,,,,
1799999991007493756,2027-01-15T07:59:51.007493756Z,,-1.76,1.32,3.09,-0.59,2.06,2.50,4.26,0.88,3.38,2.21,4.12,6.18,3.97,,,,,,,,,,,,,,
1799999991015820150,2027-01-15T07:59:51.015820150Z,-2.50,-0.74,0.15,2.35,1.32,0.88,4.26,3.68,2.21,1.76,2.94,3.09,6.32,3.24,,,,,,,,,,,,,,
1799999991024146545,2027-01-15T07:59:51.024146545Z,,-0.88,-1.03,1.18,2.79,0.59,5.88,3.68,3.97,1.62,3.53,3.97,5.29,4.26,,,,,,,,,,,,,,
1799999991032472940,2027-01-15T07:59:51.032472940Z,-2.06,-0.59,-1.47,0.15,1.76,1.62,4.41,2.21,1.76,3.38,3.97,5.29,4.56,6.62,,,,,,,,,,,,,,
1799999991040799334,2027-01-15T07:59:51.040799334Z,-1.18,0.74,0.29,-0.15,1.91,2.35,2.21,0.44,0.00,3.38,5.29,4.85,3.82,7.06,,,,,,,,,,,,,,
1799999991049125729,2027-01-15T07:59:51.049125729Z,-1.47,0.59,1.47,-0.74,2.06,2.35,1.03,0.74,2.21,1.76,5.88,3.82,2.94,4.85,,,,,,,,,,,,,,
1799999991057452124,2027-01-15T07:59:51.057452124Z,-3.53,-1.62,-0.44,-0.59,1.32,2.06,1.47,1.47,3.97,1.32,4.41,3.09,2.35,4.12,,,,,,,,,,,,,,
1799999991065778518,2027-01-15T07:59:51.065778518Z,0.29,-1.03,1.47,1.32,1.47,1.03,1.62,1.47,2.50,3.09,3.68,5.15,2.79,6.03,,,,,,,,,,,,,,
1799999991074104913,2027-01-15T07:59:51.074104913Z,-0.88,-1.32,2.50,1.62,1.32,1.91,1.47,1.62,2.35,3.53,3.82,5.74,3.97,6.91,,,,,,,,,,,,,,
1799999991082431308,2027-01-15T07:59:51.082431308Z,-0.59,-2.50,2.06,-0.44,1.18,2.94,0.59,1.91,2.06,1.91,2.94,2.94,5.88,6.47,,,,,,,,,,,,,,
1799999991090757702,2027-01-15T07:59:51.090757702Z,-0.29,-1.32,-1.03,-0.44,0.88,1.32,-0.15,1.62,0.00,1.18,4.41,1.76,5.29,7.50,,,,,,,,,,,,,,
1799999991099084097,2027-01-15T07:59:51.099084097Z,-0.44,-2.06,-1.03,1.03,1.47,0.59,0.44,2.50,0.44,2.21,6.76,3.97,4.56,7.21,,,,,,,,,,,,,,
1799999991107410492,2027-01-15T07:59:51.107410492Z,-1.91,-2.06,1.03,1.18,1.18,1.62,1.91,2.21,2.94,1.76,5.59,4.26,3.97,4.85,,,,,,,,,,,,,,
1799999991115736886,2027-01-15T07:59:51.115736886Z,,0.15,0.74,0.59,0.15,2.35,2.21,1.76,3.53,1.91,2.79,2.21,3.09,4.26,,,,,,,,,,,,,,
1799999991124063281,2027-01-15T07:59:51.124063281Z,-1.91,0.44,-1.47,1.76,1.91,2.50,1.76,2.79,2.35,3.82,1.91,2.21,2.35,5.74,,,,,,,,,,,,,,
1799999991132389676,2027-01-15T07:59:51.132389676Z,-0.59,-0.74,-1.76,3.68,3.82,2.35,2.21,2.79,2.79,3.24,3.68,3.53,2.50,5.88,,,,,,,,,,,,,,
1799999991140716070,2027-01-15T07:59:51.140716070Z,-0.74,0.00,-0.29,3.24,2.79,1.32,2.06,0.74,3.24,1.03,4.71,4.41,3.97,5.74,,,,,,,,,,,,,,
1799999991149042465,2027-01-15T07:59:51.149042465Z,-0.88,1.32,-0.29,0.00,0.88,0.74,1.18,0.59,2.65,2.21,3.38,5.15,5.15,6.47,,,,,,,,,,,,,,
1799999991157368860,2027-01-15T07:59:51.157368860Z,-1.03,0.15,-1.91,-2.35,-0.74,1.47,0.44,2.79,2.94,5.00,2.65,5.74,4.85,5.88,,,,,,,,,,,,,,
1799999991165695254,2027-01-15T07:59:51.165695254Z,0.59,-2.65,-2.65,-1.62,-1.47,2.35,0.59,2.35,2.21,4.41,3.38,5.00,4.71,4.12,,,,,,,,,,,,,,
1799999991174021649,2027-01-15T07:59:51.174021649Z,-0.59,-3.82,-1.91,0.00,-0.44,2.50,1.47,-0.29,0.59,1.91,3.53,3.24,5.74,2.94,,,,,,,,,,,,,,
1799999991182348044,2027-01-15T07:59:51.182348044Z,-1.03,-1.18,-1.18,1.18,0.44,1.76,1.32,-0.59,0.74,2.65,3.82,1.47,5.74,3.24,,,,,,,,,,,,,,
1799999991190674438,2027-01-15T07:59:51.190674438Z,0.15,-0.29,-0.15,2.65,-0.88,2.79,1.32,1.62,2.06,4.85,4.26,1.76,4.26,4.71,,,,,,,,,,,,,,
1799999991199000833,2027-01-15T07:59:51.199000833Z,-0.88,-0.74,0.29,1.32,-2.35,3.53,1.18,1.62,2.21,4.71,4.26,2.94,4.41,5.15,,,,,,,,,,,,,,
1799999991207327228,2027-01-15T07:59:51.207327228Z,-1.03,-0.29,-0.44,-1.18,-4.26,2.79,-0.15,1.03,2.79,3.82,3.53,4.12,4.71,5.00,,,,,,,,,,,,,,
1799999991215653622,2027-01-15T07:59:51.215653622Z,0.29,-0.29,-1.91,-0.74,-1.91,0.29,0.88,2.79,2.65,3.82,1.76,4.12,3.97,4.26,,,,,,,,,,,,,,
1799999991223980017,2027-01-15T07:59:51.223980017Z,-0.15,-1.32,-2.06,0.15,2.21,-0.88,2.94,3.53,2.79,1.91,1.18,3.09,4.26,4.41,,,,,,,,,,,,,,
1799999991232306412,2027-01-15T07:59:51.232306412Z,-2.06,-1.76,-0.15,-0.15,3.53,0.88,3.24,2.21,3.68,0.88,2.06,3.68,4.41,4.41,,,,,,,,,,,,,,
1799999991240632806,2027-01-15T07:59:51.240632806Z,0.29,0.00,1.91,0.59,2.65,3.24,1.91,1.03,3.68,1.47,3.24,4.71,4.41,4.71,,,,,,,,,,,,,,
1799999991248959201,2027-01-15T07:59:51.248959201Z,-0.44,2.35,2.35,1.18,3.82,3.82,1.91,2.06,3.53,1.91,4.71,3.97,4.85,5.88,,,,,,,,,,,,,,
1799999991257285596,2027-01-15T07:59:51.257285596Z,-0.88,1.76,0.88,0.29,3.82,2.79,2.94,4.26,4.56,1.47,5.29,3.82,5.59,5.74,,,,,,,,,,,,,,
1799999991265611991,2027-01-15T07:59:51.265611991Z,-1.47,-0.44,-0.44,0.15,1.03,2.06,2.65,3.68,4.12,2.50,4.12,4.71,6.03,4.26,,,,,,,,,,,,,,
1799999991273938385,2027-01-15T07:59:51.273938385Z,0.59,-0.74,-0.15,1.91,-1.32,2.79,2.65,0.44,1.62,4.41,4.12,4.71,5.15,4.85,,,,,,,,,,,,,,
1799999991282264780,2027-01-15T07:59:51.282264780Z,-0.44,0.00,0.74,2.50,-1.47,3.53,3.53,0.00,0.74,4.56,6.03,5.15,4.71,5.59,,,,,,,,,,,,,,
1799999991290591175,2027-01-15T07:59:51.290591175Z,-0.29,-0.15,0.29,1.47,-1.03,2.65,3.38,3.09,2.79,3.82,6.32,5.74,5.44,4.26,,,,,,,,,,,,,,
1799999991298917569,2027-01-15T07:59:51.298917569Z,1.03,-0.15,-0.74,1.32,-0.15,0.88,2.21,3.38,3.53,4.71,4.26,4.85,5.29,3.53,,,,,,,,,,,,,,
1799999991307243964,2027-01-15T07:59:51.307243964Z,0.59,0.44,0.00,0.88,0.88,1.03,2.65,0.74,1.76,4.41,2.94,5.74,4.71,5.15,,,,,,,,,,,,,,
1799999991315570359,2027-01-15T07:59:51.315570359Z,-0.88,2.06,0.00,-0.59,-0.88,3.09,3.53,1.76,1.18,2.21,4.26,7.21,5.59,6.03,,,,,,,,,,,,,,
1799999991323896753,2027-01-15T07:59:51.323896753Z,-1.32,0.88,0.15,-1.18,-1.62,2.94,3.09,2.94,2.21,3.24,4.71,6.03,4.71,5.29,,,,,,,,,,,,,,
1799999991332223148,2027-01-15T07:59:51.332223148Z,-0.59,-1.32,1.62,-0.29,0.44,3.09,1.62,2.94,3.09,5.15,3.68,3.97,2.65,3.38,,,,,,,,,,,,,,
1799999991340549543,2027-01-15T07:59:51.340549543Z,-0.29,0.44,0.88,0.15,1.76,4.12,1.62,2.79,0.88,3.68,3.68,5.74,3.24,1.47,,,,,,,,,,,,,,
1799999991348875937,2027-01-15T07:59:51.348875937Z,1.62,1.47,-0.15,-0.44,0.44,2.35,1.62,3.24,-0.15,2.35,5.00,5.00,5.00,2.21,,,,,,,,,,,,,,
1799999991357202332,2027-01-15T07:59:51.357202332Z,,-0.88,0.74,0.59,1.91,1.76,2.79,2.79,1.91,3.38,4.12,3.09,5.74,5.00,,,,,,,,,,,,,,
1799999991365528727,2027-01-15T07:59:51.365528727Z,1.62,-2.21,0.74,2.94,6.18,3.82,4.41,1.18,4.12,5.00,2.79,2.94,4.85,7.21,,,,,,,,,,,,,,
1799999991373855121,2027-01-15T07:59:51.373855121Z,0.74,-0.59,-0.59,2.79,4.85,3.24,5.00,0.44,4.26,3.97,3.68,3.38,4.85,7.50,,,,,,,,,,,,,,
1799999991382181516,2027-01-15T07:59:51.382181516Z,0.88,1.91,-0.74,0.00,-1.03,-0.44,4.12,2.06,3.68,2.21,4.56,2.35,5.15,6.32,,,,,,,,,,,,,,
1799999991390507911,2027-01-15T07:59:51.390507911Z,1.03,2.35,0.29,-1.76,-1.62,-1.62,2.79,3.82,3.97,3.24,3.68,2.21,4.85,5.15,,,,,,,,,,,,,,
1799999991398834305,2027-01-15T07:59:51.398834305Z,1.18,-0.15,1.32,-0.88,1.47,1.18,1.32,3.38,5.00,5.15,4.41,2.79,5.59,5.59,,,,,,,,,,,,,,
1799999991407160700,2027-01-15T07:59:51.407160700Z,0.00,-0.74,1.91,0.00,0.74,2.79,0.29,2.79,4.85,4.41,5.00,2.21,6.47,7.35,,,,,,,,,,,,,,
1799999991415487095,2027-01-15T07:59:51.415487095Z,0.15,1.91,1.62,-0.15,-0.59,1.47,0.00,3.24,3.38,3.53,2.79,2.65,5.59,7.35,,,,,,,,,,,,,,
1799999991423813489,2027-01-15T07:59:51.423813489Z,1.62,2.94,1.62,1.18,0.15,0.44,1.62,3.82,2.21,4.41,1.32,4.12,4.41,5.00,,,,,,,,,,,,,,
1799999991432139884,2027-01-15T07:59:51.432139884Z,1.47,1.47,0.88,2.35,0.15,1.91,3.09,4.41,2.35,3.68,2.21,4.71,4.71,3.38,,,,,,,,,,,,,,
1799999991440466279,2027-01-15T07:59:51.440466279Z,-0.59,-0.88,-0.44,1.32,-0.29,1.18,2.06,3.53,2.35,1.91,1.62,4.12,5.00,4.71,,,,,,,,,,,,,,
1799999991448792673,2027-01-15T07:59:51.448792673Z,0.29,-1.03,-0.44,0.74,-1.47,0.29,2.06,3.09,2.35,1.91,2.50,3.82,4.85,5.15,,,,,,,,,,,,,,
1799999991457119068,2027-01-15T07:59:51.457119068Z,0.59,1.18,0.29,-0.88,-2.65,0.74,2.21,2.65,3.09,2.65,4.85,3.97,3.97,4.71,,,,,,,,,,,,,,
1799999991465445463,2027-01-15T07:59:51.465445463Z,0.59,2.65,-0.29,-3.09,-1.03,0.15,0.88,3.38,4.12,3.68,5.44,4.85,3.68,5.29,,,,,,,,,,,,,,
1799999991473771857,2027-01-15T07:59:51.473771857Z,0.29,2.65,0.44,-0.74,0.00,0.15,0.74,4.12,4.26,5.00,4.12,4.56,3.68,3.82,,,,,,,,,,,,,,
1799999991482098252,2027-01-15T07:59:51.482098252Z,0.44,2.35,1.91,3.09,-0.74,0.88,1.32,3.38,3.68,4.71,2.94,5.00,3.24,2.06,,,,,,,,,,,,,,
1799999991490424647,2027-01-15T07:59:51.490424647Z,0.00,1.18,1.03,2.21,-0.59,0.74,1.62,1.76,3.53,3.97,3.09,6.76,3.68,2.50,,,,,,,,,,,,,,
1799999991498751041,2027-01-15T07:59:51.498751041Z,-0.29,-0.59,-0.88,-0.15,-0.15,0.15,1.62,2.21,4.41,2.79,2.79,6.76,4.41,3.97,,,,,,,,,,,,,,
1799999991507077436,2027-01-15T07:59:51.507077436Z,-0.74,-1.03,-0.44,0.88,-0.15,1.03,1.62,2.65,4.12,1.47,1.76,4.12,4.41,5.74,,,,,,,,,,,,,,
1799999991515403831,2027-01-15T07:59:51.515403831Z,-0.44,-0.44,-0.29,2.21,0.00,1.91,1.03,2.06,3.09,2.35,3.53,2.94,4.41,7.35,,,,,,,,,,,,,,
1799999991523730225,2027-01-15T07:59:51.523730225Z,0.44,-0.15,-3.09,1.18,-1.18,1.47,0.44,3.09,2.06,3.82,5.74,3.82,5.29,7.79,,,,,,,,,,,,,,
1799999991532056620,2027-01-15T07:59:51.532056620Z,-2.21,0.44,-3.82,0.88,-2.79,0.88,0.74,3.24,2.06,3.53,3.82,3.53,4.85,7.21,,,,,,,,,,,,,,
1799999991540383015,2027-01-15T07:59:51.540383015Z,0.00,1.03,-0.59,1.47,-1.47,0.74,0.44,1.62,2.79,4.12,1.62,2.79,3.68,6.47,,,,,,,,,,,,,,
1799999991548709409,2027-01-15T07:59:51.548709409Z,0.44,1.03,0.88,1.18,1.47,-0.44,-0.15,1.03,3.68,5.00,3.53,2.65,3.68,5.88,,,,,,,,,,,,,,
1799999991557035804,2027-01-15T07:59:51.557035804Z,0.29,-0.44,-0.88,0.15,2.06,-2.06,0.74,1.91,3.97,2.65,4.85,2.35,3.53,5.44,,,,,,,,,,,,,,
1799999991565362199,2027-01-15T07:59:51.565362199Z,0.00,-0.88,-0.59,-0.74,1.18,-0.44,2.06,2.65,3.24,2.35,3.24,2.94,4.56,5.44,,,,,,,,,,,,,,
1799999991573688593,2027-01-15T07:59:51.573688593Z,-0.88,-0.88,0.29,-0.29,1.18,0.74,2.21,2.65,2.79,2.65,2.79,3.38,4.56,4.71,,,,,,,,,,,,,,
1799999991582014988,2027-01-15T07:59:51.582014988Z,-2.50,-2.65,2.21,0.00,-0.29,0.74,1.91,2.35,2.79,4.41,1.91,3.09,4.12,3.38,,,,,,,,,,,,,,
1799999991590341383,2027-01-15T07:59:51.590341383Z,-3.82,-4.12,1.03,-1.18,1.03,0.88,2.21,1.62,3.53,4.56,2.35,3.53,2.06,4.12,,,,,,,,,,,,,,
1799999991598667777,2027-01-15T07:59:51.598667777Z,-4.12,-1.32,0.15,-0.29,3.24,2.65,1.62,0.88,2.79,3.82,3.24,5.15,2.21,5.15,,,,,,,,,,,,,,
1799999991606994172,2027-01-15T07:59:51.606994172Z,-3.24,0.15,0.59,0.15,2.65,3.09,0.88,1.62,2.21,2.35,3.68,6.76,2.79,3.53,,,,,,,,,,,,,,
1799999991615320567,2027-01-15T07:59:51.615320567Z,-0.59,-1.91,0.74,-0.88,0.88,1.91,1.62,2.06,3.68,1.76,5.44,6.03,3.24,1.62,,,,,,,,,,,,,,
1799999991623646961,2027-01-15T07:59:51.623646961Z,0.00,-2.21,-0.15,-1.03,0.88,1.47,1.32,1.91,4.56,1.47,6.76,4.41,4.41,2.50,,,,,,,,,,,,,,
1799999991631973356,2027-01-15T07:59:51.631973356Z,-1.62,-0.44,0.00,-0.15,2.06,1.47,0.44,2.65,3.24,0.15,5.00,5.00,5.59,3.82,,,,,,,,,,,,,,
1799999991640299751,2027-01-15T07:59:51.640299751Z,-3.09,-0.29,0.88,0.88,1.62,0.29,1.91,2.35,1.76,-0.59,2.06,6.03,6.62,3.68,,,,,,,,,,,,,,
1799999991648626145,2027-01-15T07:59:51.648626145Z,0.88,-1.18,1.32,1.76,1.18,-0.88,3.97,0.74,2.21,0.59,2.35,4.26,5.88,4.71,,,,,,,,,,,,,,
1799999991656952540,2027-01-15T07:59:51.656952540Z,1.18,-1.62,0.59,1.32,2.35,-0.59,2.65,1.03,2.65,2.94,5.00,0.88,3.97,5.44,,,,,,,,,,,,,,
1799999991665278935,2027-01-15T07:59:51.665278935Z,-0.59,-0.74,-0.44,-0.44,2.79,0.74,-0.29,2.94,2.94,4.71,6.03,0.00,3.38,4.12,,,,,,,,,,,,,,
1799999991673605329,2027-01-15T07:59:51.673605329Z,-1.18,1.03,-0.74,-1.18,1.18,1.18,-0.59,2.94,3.97,4.12,4.12,2.21,3.97,4.26,,,,,,,,,,,,,,
1799999991681931724,2027-01-15T07:59:51.681931724Z,-1.76,0.59,0.00,-1.03,0.29,0.29,2.21,1.18,5.00,3.24,2.35,2.65,3.82,6.47,,,,,,,,,,,,,,
1799999991690258119,2027-01-15T07:59:51.690258119Z,-3.38,-0.88,0.15,-1.03,0.29,1.18,2.06,2.35,2.50,4.26,2.94,3.68,4.26,5.88,,,,,,,,,,,,,,
1799999991698584513,2027-01-15T07:59:51.698584513Z,-3.38,-0.59,0.00,-1.03,0.29,1.76,1.18,3.24,0.59,4.71,3.82,4.12,4.56,5.29,,,,,,,,,,,,,,
1799999991706910908,2027-01-15T07:59:51.706910908Z,-4.12,-0.29,-0.88,-1.76,1.62,1.32,2.50,5.15,0.29,2.79,5.59,5.88,5.29,6.18,,,,,,,,,,,,,,
1799999991715237303,2027-01-15T07:59:51.715237303Z,-1.76,-2.06,-2.06,-2.50,2.94,1.32,4.12,3.38,1.03,0.00,5.44,5.15,5.15,4.56,,,,,,,,,,,,,,
1799999991723563697,2027-01-15T07:59:51.723563697Z,-1.76,-1.76,-0.44,-1.62,2.35,0.74,3.68,3.53,2.35,1.03,3.09,4.56,4.12,4.71,,,,,,,,,,,,,,
1799999991731890092,2027-01-15T07:59:51.731890092Z,-2.50,-0.74,2.06,-0.44,2.50,1.47,1.62,2.94,3.68,3.97,0.00,3.97,4.71,6.18,,,,,,,,,,,,,,
1799999991740216487,2027-01-15T07:59:51.740216487Z,0.74,-0.44,1.91,0.59,3.82,2.79,0.88,1.32,3.38,4.85,-1.32,4.56,6.18,4.26,,,,,,,,,,,,,,
1799999991748542881,2027-01-15T07:59:51.748542881Z,-0.15,0.44,0.74,0.59,3.53,2.06,1.62,2.06,2.35,4.26,0.29,4.41,5.29,1.76,,,,,,,,,,,,,,
1799999991756869276,2027-01-15T07:59:51.756869276Z,-0.59,0.29,0.00,0.00,2.79,0.59,1.32,3.82,2.21,4.26,3.09,3.68,3.68,3.82,,,,,,,,,,,,,,
1799999991765195671,2027-01-15T07:59:51.765195671Z,-4.41,-1.18,-0.44,0.74,2.35,1.18,2.21,2.65,3.38,3.24,4.41,3.82,4.12,6.76,,,,,,,,,,,,,,
1799999991773522065,2027-01-15T07:59:51.773522065Z,-3.24,-0.15,0.44,2.06,0.88,2.50,4.41,0.88,3.09,1.03,3.09,2.35,4.56,6.32,,,,,,,,,,,,,,
1799999991781848460,2027-01-15T07:59:51.781848460Z,-1.47,2.50,1.32,1.18,1.91,2.21,3.38,0.74,1.18,-0.74,2.21,0.00,3.68,5.59,,,,,,,,,,,,,,
1799999991790174855,2027-01-15T07:59:51.790174855Z,-0.15,1.91,1.18,-0.29,4.85,1.03,-0.74,0.44,0.59,1.18,2.50,1.18,4.12,6.03,,,,,,,,,,,,,,
1799999991798501249,2027-01-15T07:59:51.798501249Z,-0.29,-1.18,0.29,0.44,3.53,1.32,-2.21,0.74,1.32,4.56,1.47,4.41,5.29,5.74,,,,,,,,,,,,,,
1799999991806827644,2027-01-15T07:59:51.806827644Z,-0.59,-0.88,-0.15,2.21,0.00,2.35,0.59,1.91,1.18,5.00,1.76,5.59,5.59,6.03,,,,,,,,,,,,,,
1799999991815154039,2027-01-15T07:59:51.815154039Z,-0.15,-0.74,0.88,2.06,0.15,1.91,1.47,2.50,2.79,4.41,3.53,4.12,5.29,6.91,,,,,,,,,,,,,,
1799999991823480433,2027-01-15T07:59:51.823480433Z,2.50,-0.74,1.62,0.88,1.03,1.18,1.03,2.94,3.53,4.12,4.41,3.97,5.15,6.03,,,,,,,,,,,,,,
1799999991831806828,2027-01-15T07:59:51.831806828Z,1.76,0.00,1.32,-0.44,0.88,0.74,1.18,2.50,4.26,2.94,5.59,5.29,4.12,4.56,,,,,,,,,,,,,,
1799999991840133223,2027-01-15T07:59:51.840133223Z,1.47,-0.29,-0.88,1.91,2.06,0.88,0.74,0.74,3.97,3.09,5.88,5.15,2.35,5.00,,,,,,,,,,,,,,
1799999991848459617,2027-01-15T07:59:51.848459617Z,-0.15,-1.62,-1.03,2.21,2.06,1.62,1.18,1.62,3.09,3.82,5.29,3.97,1.76,3.82,,,,,,,,,,,,,,
1799999991856786012,2027-01-15T07:59:51.856786012Z,-0.29,-0.74,0.74,1.03,2.79,2.35,1.47,3.24,2.94,3.97,6.03,3.53,4.26,3.09,,,,,,,,,,,,,,
1799999991865112407,2027-01-15T07:59:51.865112407Z,-0.15,0.88,0.59,1.47,3.68,2.21,1.32,3.24,3.38,3.68,5.44,3.68,5.59,3.38,,,,,,,,,,,,,,
1799999991873438801,2027-01-15T07:59:51.873438801Z,0.88,0.15,-0.74,0.88,1.18,1.32,2.50,1.76,2.06,3.97,3.09,2.94,3.82,3.97,,,,,,,,,,,,,,
1799999991881765196,2027-01-15T07:59:51.881765196Z,-1.47,-2.06,-0.29,-0.59,-2.06,0.88,2.50,0.59,1.18,3.82,2.65,3.68,2.79,4.56,,,,,,,,,,,,,,
1799999991890091591,2027-01-15T07:59:51.890091591Z,-2.21,-2.21,-0.29,-0.15,-0.88,1.32,1.03,1.03,2.21,3.24,3.53,4.85,3.53,5.44,,,,,,,,,,,,,,
1799999991898417986,2027-01-15T07:59:51.898417986Z,0.74,-0.15,-0.59,0.88,2.06,1.76,2.06,1.76,3.09,3.53,2.79,3.68,4.26,6.62,,,,,,,,,,,,,,
1799999991906744380,2027-01-15T07:59:51.906744380Z,0.88,0.74,0.15,0.44,2.65,2.21,4.26,0.29,2.79,3.24,3.24,2.50,5.00,6.62,,,,,,,,,,,,,,
1799999991915070775,2027-01-15T07:59:51.915070775Z,-1.18,-1.03,-0.44,0.15,1.91,2.06,4.41,-1.47,3.68,2.50,5.00,3.97,5.00,5.00,,,,,,,,,,,,,,
1799999991923397170,2027-01-15T07:59:51.923397170Z,0.59,-2.65,-0.59,1.91,2.35,1.18,2.65,-0.74,4.12,2.65,4.71,5.59,4.56,4.12,,,,,,,,,,,,,,
1799999991931723564,2027-01-15T07:59:51.931723564Z,0.88,-1.76,1.47,4.12,1.03,1.32,1.47,1.76,3.09,3.09,3.24,5.29,3.97,4.85,,,,,,,,,,,,,,
1799999991940049959,2027-01-15T07:59:51.940049959Z,0.59,0.59,2.06,3.24,-1.32,1.03,2.94,3.53,4.56,1.91,3.82,6.32,4.71,5.00,,,,,,,,,,,,,,
1799999991948376354,2027-01-15T07:59:51.948376354Z,2.35,0.74,1.47,2.50,-0.74,0.59,3.38,3.97,5.15,1.76,2.65,6.91,5.00,4.12,,,,,,,,,,,,,,
1799999991956702748,2027-01-15T07:59:51.956702748Z,2.06,0.15,-0.44,1.18,-0.29,-0.59,1.76,4.56,2.94,2.65,1.76,6.32,4.56,3.38,,,,,,,,,,,,,,
1799999991965029143,2027-01-15T07:59:51.965029143Z,0.15,0.29,-0.88,0.74,-2.65,0.00,1.76,4.71,0.88,3.97,4.56,2.94,3.97,3.82,,,,,,,,,,,,,,
1799999991973355538,2027-01-15T07:59:51.973355538Z,0.00,-0.74,1.03,-0.44,-3.09,0.88,1.91,3.68,0.88,3.53,6.03,2.65,5.59,3.09,,,,,,,,,,,,,,
1799999991981681932,2027-01-15T07:59:51.981681932Z,-0.29,-0.29,2.21,-1.03,-0.44,1.91,1.18,2.65,2.50,3.97,3.68,3.82,6.18,2.06,,,,,,,,,,,,,,
1799999991990008327,2027-01-15T07:59:51.990008327Z,0.00,1.18,1.32,-0.44,1.91,2.94,1.76,2.06,4.12,5.15,2.35,2.94,5.29,3.09,,,,,,,,,,,,,,
1799999991998334722,2027-01-15T07:59:51.998334722Z,-0.29,1.03,-0.15,0.44,0.44,3.09,2.35,2.06,3.68,4.56,4.56,3.68,5.15,5.00,,,,,,,,,,,,,,
1799999992006661116,2027-01-15T07:59:52.006661116Z,-2.50,0.44,-1.91,2.06,-1.03,1.91,1.32,2.35,2.35,3.09,6.18,5.44,5.15,5.29,,,,,,,,,,,,,,
1799999992014987511,2027-01-15T07:59:52.014987511Z,-0.29,0.59,-2.50,2.94,1.47,0.88,0.59,2.06,2.65,2.35,4.41,5.00,4.41,3.82,,,,,,,,,,,,,,
1799999992023313906,2027-01-15T07:59:52.023313906Z,0.15,0.29,-1.62,2.21,3.82,0.44,1.62,1.62,2.50,2.21,3.09,3.82,3.68,3.38,,,,,,,,,,,,,,
1799999992031640300,2027-01-15T07:59:52.031640300Z,1.76,0.44,-1.76,1.91,2.50,0.88,0.88,2.21,2.21,2.50,4.26,3.97,3.53,5.29,,,,,,,,,,,,,,
1799999992039966695,2027-01-15T07:59:52.039966695Z,1.91,-0.15,-2.06,2.06,0.59,0.44,-0.88,2.94,3.68,3.24,5.44,5.44,4.41,6.32,,,,,,,,,,,,,,
1799999992048293090,2027-01-15T07:59:52.048293090Z,1.18,-0.15,-1.03,1.76,1.18,0.00,0.29,2.50,3.68,2.21,5.00,7.06,5.00,5.29,,,,,,,,,,,,,,
1799999992056619484,2027-01-15T07:59:52.056619484Z,0.59,1.62,-0.59,0.74,1.62,1.18,3.09,2.21,2.21,-0.15,4.12,6.62,4.71,6.03,,,,,,,,,,,,,,
1799999992064945879,2027-01-15T07:59:52.064945879Z,-0.15,1.32,-0.88,1.03,0.29,1.03,2.50,3.82,1.76,1.03,3.24,4.41,5.00,5.15,,,,,,,,,,,,,,
1799999992073272274,2027-01-15T07:59:52.073272274Z,-0.29,0.59,-0.88,1.18,-0.44,0.59,1.62,4.41,2.06,2.35,3.09,4.56,5.29,4.85,,,,,,,,,,,,,,
1799999992081598668,2027-01-15T07:59:52.081598668Z,0.15,0.15,-1.03,-0.15,-0.74,1.03,2.06,3.24,4.12,2.65,3.24,5.88,5.59,6.91,,,,,,,,,,,,,,
1799999992089925063,2027-01-15T07:59:52.089925063Z,-0.15,-2.21,-1.32,-0.15,0.88,-0.44,1.47,2.35,5.15,3.38,2.35,5.29,4.71,6.47,,,,,,,,,,,,,,
1799999992098251458,2027-01-15T07:59:52.098251458Z,0.00,-3.68,-0.74,2.06,1.03,-0.29,2.79,1.91,3.82,4.56,2.21,4.56,2.79,4.71,,,,,,,,,,,,,,
1799999992106577852,2027-01-15T07:59:52.106577852Z,0.74,-1.47,0.44,2.35,0.44,1.91,3.68,2.21,2.79,5.59,2.06,3.09,3.82,5.15,,,,,,,,,,,,,,
1799999992114904247,2027-01-15T07:59:52.114904247Z,0.44,1.18,1.76,1.47,2.06,1.62,1.76,2.35,3.38,5.44,0.44,1.62,5.44,6.03,,,,,,,,,,,,,,
1799999992123230642,2027-01-15T07:59:52.123230642Z,-1.03,0.59,1.18,2.06,2.79,-0.29,-0.15,1.76,4.71,3.82,0.44,2.06,3.68,4.71,,,,,,,,,,,,,,
1799999992131557036,2027-01-15T07:59:52.131557036Z,-1.47,-1.62,-0.59,2.06,0.59,0.74,-0.59,1.18,5.74,2.94,3.24,4.12,2.50,4.41,,,,,,,,,,,,,,
1799999992139883431,2027-01-15T07:59:52.139883431Z,-2.65,-2.50,-1.32,0.15,0.00,2.21,0.15,0.74,5.59,4.26,5.29,4.71,5.15,6.18,,,,,,,,,,,,,,
1799999992148209826,2027-01-15T07:59:52.148209826Z,-2.35,-1.91,-0.44,-1.47,1.47,1.32,1.47,0.88,4.71,4.26,5.88,3.82,6.32,6.32,,,,,,,,,,,,,,
1799999992156536220,2027-01-15T07:59:52.156536220Z,-1.91,-2.50,0.44,-1.47,1.03,-0.29,3.68,2.21,3.24,2.65,6.62,3.09,4.41,4.71,,,,,,,,,,,,,,
1799999992164862615,2027-01-15T07:59:52.164862615Z,-1.76,-3.09,0.88,-0.74,0.44,-0.15,4.56,3.24,1.32,2.65,5.59,2.65,3.53,3.38,,,,,,,,,,,,,,
1799999992173189010,2027-01-15T07:59:52.173189010Z,-1.76,-1.62,0.88,-0.29,1.47,0.44,2.79,2.21,0.88,3.97,3.24,3.24,4.41,2.50,,,,,,,,,,,,,,
1799999992181515404,2027-01-15T07:59:52.181515404Z,-0.88,-1.32,0.29,-0.88,0.59,0.15,1.03,0.15,2.50,3.82,2.50,3.68,5.29,2.79,,,,,,,,,,,,,,
1799999992189841799,2027-01-15T07:59:52.189841799Z,-1.32,-1.47,-0.29,-1.62,0.88,1.76,1.62,0.88,2.21,4.56,3.68,2.94,4.41,4.12,,,,,,,,,,,,,,
1799999992198168194,2027-01-15T07:59:52.198168194Z,0.29,-1.47,-0.15,-1.18,1.18,2.35,2.06,1.47,1.76,4.71,4.85,4.12,3.97,4.26,,,,,,,,,,,,,,
1799999992206494588,2027-01-15T07:59:52.206494588Z,0.44,-3.38,-0.29,0.44,1.76,1.76,1.32,2.06,3.53,2.65,5.15,5.59,3.09,3.68,,,,,,,,,,,,,,
1799999992214820983,2027-01-15T07:59:52.214820983Z,0.15,-3.38,-0.44,-0.15,-0.44,0.44,1.76,2.94,2.50,1.91,3.09,4.41,3.82,4.12,,,,,,,,,,,,,,
1799999992223147378,2027-01-15T07:59:52.223147378Z,-1.47,-0.15,-0.29,-1.18,0.15,0.74,1.47,4.56,0.44,3.53,1.62,2.94,4.26,4.56,,,,,,,,,,,,,,
1799999992231473772,2027-01-15T07:59:52.231473772Z,-1.47,1.32,-0.15,-1.91,1.62,1.18,0.44,5.00,1.76,2.94,2.06,3.53,4.41,4.85,,,,,,,,,,,,,,
1799999992239800167,2027-01-15T07:59:52.239800167Z,-1.18,-0.15,0.44,-1.47,1.03,1.76,-0.15,3.53,3.09,0.44,3.09,3.97,4.71,5.44,,,,,,,,,,,,,,
1799999992248126562,2027-01-15T07:59:52.248126562Z,-1.76,-1.76,1.32,-0.44,0.74,2.06,0.59,1.62,0.59,1.18,3.97,2.35,4.71,6.32,,,,,,,,,,,,,,
1799999992256452956,2027-01-15T07:59:52.256452956Z,-2.65,-3.09,1.47,0.74,3.09,1.47,1.32,1.18,-0.88,4.26,4.12,2.35,4.41,6.47,,,,,,,,,,,,,,
1799999992264779351,2027-01-15T07:59:52.264779351Z,-4.12,-2.65,1.32,1.03,5.44,0.74,2.21,1.91,1.32,4.71,3.38,4.85,4.26,5.15,,,,,,,,,,,,,,
1799999992273105746,2027-01-15T07:59:52.273105746Z,-1.76,-0.44,1.91,-0.15,4.56,0.88,1.76,1.18,2.79,2.35,3.53,5.59,4.26,3.82,,,,,,,,,,,,,,
1799999992281432140,2027-01-15T07:59:52.281432140Z,-1.62,0.00,1.91,-0.59,2.21,1.62,1.32,0.15,1.91,1.91,3.38,4.12,3.68,4.26,,,,,,,,,,,,,,
1799999992289758535,2027-01-15T07:59:52.289758535Z,-0.29,-0.74,1.47,0.00,0.44,1.18,2.65,0.44,1.47,3.24,3.24,4.12,3.53,5.59,,,,,,,,,,,,,,
1799999992298084930,2027-01-15T07:59:52.298084930Z,0.00,-0.44,1.03,0.15,-0.59,-0.59,3.09,1.32,1.91,3.09,4.71,3.97,4.26,4.56,,,,,,,,,,,,,,
1799999992306411324,2027-01-15T07:59:52.306411324Z,0.59,-0.74,0.44,-0.29,0.15,-0.59,2.35,2.06,2.21,2.21,5.74,2.79,4.85,2.35,,,,,,,,,,,,,,
1799999992314737719,2027-01-15T07:59:52.314737719Z,0.15,-0.29,0.15,0.29,1.47,2.06,1.76,1.91,1.18,2.79,5.44,2.21,5.29,1.91,,,,,,,,,,,,,,
1799999992323064114,2027-01-15T07:59:52.323064114Z,0.59,-1.03,0.88,0.59,0.88,2.21,2.50,2.79,0.74,2.94,5.44,2.35,5.29,2.35,,,,,,,,,,,,,,
1799999992331390508,2027-01-15T07:59:52.331390508Z,0.88,-2.06,2.21,-0.44,0.00,1.03,3.82,4.26,1.18,3.24,3.53,3.68,4.26,3.82,,,,,,,,,,,,,,
1799999992339716903,2027-01-15T07:59:52.339716903Z,-1.18,-0.88,1.03,-0.74,1.03,2.65,2.94,3.53,3.09,4.56,2.06,4.41,3.97,6.32,,,,,,,,,,,,,,
1799999992348043298,2027-01-15T07:59:52.348043298Z,-3.53,0.59,-0.74,0.29,0.88,3.38,1.32,1.91,3.97,4.71,3.09,2.50,4.56,6.91,,,,,,,,,,,,,,
1799999992356369692,2027-01-15T07:59:52.356369692Z,-3.24,0.15,0.00,1.47,0.15,2.79,1.62,1.62,3.53,2.50,4.12,0.88,4.85,5.29,,,,,,,,,,,,,,
1799999992364696087,2027-01-15T07:59:52.364696087Z,-2.50,-0.88,1.32,0.59,0.15,3.38,2.50,2.94,3.53,-1.18,3.24,1.91,4.85,4.85,,,,,,,,,,,,,,
1799999992373022482,2027-01-15T07:59:52.373022482Z,0.15,-1.47,0.15,-0.88,1.32,2.79,2.06,4.12,2.65,-0.88,2.79,3.38,4.71,6.03,,,,,,,,,,,,,,
1799999992381348876,2027-01-15T07:59:52.381348876Z,0.59,-1.47,-1.18,-0.59,2.65,1.47,1.91,3.82,1.32,3.24,3.24,3.38,4.41,6.91,,,,,,,,,,,,,,
1799999992389675271,2027-01-15T07:59:52.389675271Z,-0.74,-1.03,-0.44,1.03,2.79,2.21,2.21,2.65,1.76,4.26,4.12,2.79,3.97,6.18,,,,,,,,,,,,,,
1799999992398001666,2027-01-15T07:59:52.398001666Z,-1.32,-0.44,1.32,2.06,2.65,3.09,1.91,1.91,2.50,1.62,5.00,3.53,4.26,5.00,,,,,,,,,,,,,,
1799999992406328060,2027-01-15T07:59:52.406328060Z,1.18,0.29,2.79,1.03,3.97,1.91,2.21,2.65,1.03,2.79,4.85,4.41,4.56,5.00,,,,,,,,,,,,,,
1799999992414654455,2027-01-15T07:59:52.414654455Z,1.03,0.74,1.91,-0.29,4.56,1.18,3.53,3.24,0.29,5.88,3.24,4.12,3.38,5.88,,,,,,,,,,,,,,
1799999992422980850,2027-01-15T07:59:52.422980850Z,0.74,-0.15,-0.29,-0.15,2.65,2.21,4.12,2.94,1.32,5.15,2.50,3.53,2.79,6.18,,,,,,,,,,,,,,
1799999992431307244,2027-01-15T07:59:52.431307244Z,-0.88,-0.44,-0.44,0.74,1.03,2.79,3.09,2.21,2.21,2.65,4.41,4.41,3.97,5.29,,,,,,,,,,,,,,
1799999992439633639,2027-01-15T07:59:52.439633639Z,-0.74,1.03,0.74,0.74,1.76,1.62,3.09,1.18,2.79,3.38,3.53,3.53,3.97,5.44,,,,,,,,,,,,,,
1799999992447960034,2027-01-15T07:59:52.447960034Z,0.59,0.88,0.29,0.44,1.62,1.03,1.76,1.91,3.38,4.12,3.24,2.94,4.85,4.56,,,,,,,,,,,,,,
1799999992456286428,2027-01-15T07:59:52.456286428Z,0.00,0.88,-0.59,0.88,1.03,0.44,0.00,3.53,3.24,3.09,5.88,4.12,5.88,2.65,,,,,,,,,,,,,,
1799999992464612823,2027-01-15T07:59:52.464612823Z,0.29,1.03,-0.44,1.32,1.47,1.03,1.62,3.38,2.06,3.09,5.74,5.29,4.26,2.35,,,,,,,,,,,,,,
1799999992472939218,2027-01-15T07:59:52.472939218Z,0.59,-1.03,-1.32,1.18,0.15,1.32,3.68,2.94,1.47,3.38,4.85,5.88,3.53,2.94,,,,,,,,,,,,,,
1799999992481265612,2027-01-15T07:59:52.481265612Z,-4.26,-1.32,-1.03,1.32,-2.50,1.76,2.94,1.47,2.35,2.79,5.88,5.44,4.56,2.35,,,,,,,,,,,,,,
1799999992489592007,2027-01-15T07:59:52.489592007Z,0.59,0.59,0.00,1.18,-4.56,1.47,1.76,0.74,2.79,3.24,6.03,4.41,5.15,3.09,,,,,,,,,,,,,,
1799999992497918402,2027-01-15T07:59:52.497918402Z,1.32,1.62,-0.44,0.59,-2.65,0.44,2.21,2.06,3.09,4.26,4.56,4.12,4.85,5.00,,,,,,,,,,,,,,
1799999992506244797,2027-01-15T07:59:52.506244797Z,-0.88,1.18,-1.62,1.76,0.59,0.74,1.91,2.21,3.82,2.65,3.09,4.56,4.85,5.44,,,,,,,,,,,,,,
1799999992514571191,2027-01-15T07:59:52.514571191Z,-0.15,0.29,-1.91,2.79,0.29,2.06,0.88,2.06,4.71,1.32,2.65,3.82,4.56,4.85,,,,,,,,,,,,,,
1799999992522897586,2027-01-15T07:59:52.522897586Z,0.15,-0.59,-0.88,1.47,-0.59,2.21,0.59,3.68,4.26,3.38,3.38,2.79,4.56,4.71,,,,,,,,,,,,,,
1799999992531223981,2027-01-15T07:59:52.531223981Z,2.21,0.29,-0.44,-0.29,0.88,1.62,1.47,3.38,3.24,4.56,3.53,3.38,5.15,3.97,,,,,,,,,,,,,,
1799999992539550375,2027-01-15T07:59:52.539550375Z,-1.32,2.21,-0.74,-1.62,0.59,1.91,1.91,1.47,3.24,3.38,3.09,5.00,5.15,3.24,,,,,,,,,,,,,,
1799999992547876770,2027-01-15T07:59:52.547876770Z,1.03,3.24,-0.44,-1.18,-0.44,1.62,1.18,1.03,4.12,3.09,3.68,5.44,4.56,4.41,,,,,,,,,,,,,,
1799999992556203165,2027-01-15T07:59:52.556203165Z,1.47,2.35,-0.74,0.88,-0.15,0.59,0.44,1.03,3.97,2.94,4.41,2.79,3.68,6.47,,,,,,,,,,,,,,
1799999992564529559,2027-01-15T07:59:52.564529559Z,1.47,1.76,-0.59,2.94,0.00,1.32,3.09,2.35,4.26,2.94,3.53,3.24,3.97,6.32,,,,,,,,,,,,,,
1799999992572855954,2027-01-15T07:59:52.572855954Z,0.44,1.18,-0.44,2.94,-0.29,2.06,4.26,2.94,4.26,2.94,3.68,3.68,4.41,5.29,,,,,,,,,,,,,,
1799999992581182349,2027-01-15T07:59:52.581182349Z,2.06,-0.29,-0.74,0.88,-0.44,2.06,1.91,3.82,3.09,1.91,4.26,2.65,4.71,5.00,,,,,,,,,,,,,,
1799999992589508743,2027-01-15T07:59:52.589508743Z,-1.18,0.29,0.00,-0.88,-0.44,1.62,2.06,2.21,2.50,2.94,3.09,2.50,5.15,6.18,,,,,,,,,,,,,,
1799999992597835138,2027-01-15T07:59:52.597835138Z,-1.62,1.91,0.15,-1.32,0.15,2.65,3.38,2.21,3.24,5.29,1.91,5.44,6.76,6.32,,,,,,,,,,,,,,
1799999992606161533,2027-01-15T07:59:52.606161533Z,0.00,1.62,0.00,-0.15,0.88,3.53,2.06,2.94,3.68,5.29,1.91,5.44,6.47,5.29,,,,,,,,,,,,,,
1799999992614487927,2027-01-15T07:59:52.614487927Z,0.59,0.44,0.88,1.32,0.74,2.35,-0.15,1.76,2.79,3.53,2.94,2.65,3.82,4.26,,,,,,,,,,,,,,
1799999992622814322,2027-01-15T07:59:52.622814322Z,0.59,0.15,0.59,1.32,0.59,0.44,-0.74,0.88,2.21,2.21,3.97,2.21,2.65,3.53,,,,,,,,,,,,,,
1799999992631140717,2027-01-15T07:59:52.631140717Z,-2.06,-0.59,-0.88,0.44,2.21,-0.44,1.47,1.91,3.09,0.59,3.38,4.56,3.38,4.26,,,,,,,,,,,,,,
1799999992639467111,2027-01-15T07:59:52.639467111Z,0.15,-1.76,-1.47,0.15,1.76,0.29,4.71,3.24,3.68,-1.18,1.76,5.44,3.38,6.18,,,,,,,,,,,,,,
1799999992647793506,2027-01-15T07:59:52.647793506Z,0.00,-0.88,-0.44,0.44,-1.76,1.03,4.71,4.12,3.53,0.88,1.47,4.26,4.41,7.06,,,,,,,,,,,,,,
1799999992656119901,2027-01-15T07:59:52.656119901Z,-0.29,0.74,0.29,-0.29,-2.06,1.62,1.03,4.71,3.38,5.15,1.91,3.38,6.18,6.47,,,,,,,,,,,,,,
1799999992664446295,2027-01-15T07:59:52.664446295Z,-1.32,0.29,0.29,-0.15,0.00,1.47,-0.44,4.56,2.06,5.29,1.47,3.68,6.03,5.44,,,,,,,,,,,,,,
1799999992672772690,2027-01-15T07:59:52.672772690Z,-1.03,-0.44,1.76,1.03,-1.03,1.62,1.62,4.56,1.47,2.21,2.06,3.68,4.41,4.26,,,,,,,,,,,,,,
1799999992681099085,2027-01-15T07:59:52.681099085Z,-1.18,-0.15,1.76,0.88,-1.76,1.32,1.76,4.26,2.35,2.65,3.97,3.09,3.38,4.71,,,,,,,,,,,,,,
1799999992689425479,2027-01-15T07:59:52.689425479Z,-3.09,-0.44,-0.44,1.18,0.59,0.59,0.88,2.50,2.65,5.15,4.85,3.97,3.38,5.59,,,,,,,,,,,,,,
1799999992697751874,2027-01-15T07:59:52.697751874Z,0.44,-0.59,-0.74,1.32,1.47,1.03,1.32,1.76,3.24,4.56,3.97,4.41,4.56,5.59,,,,,,,,,,,,,,
1799999992706078269,2027-01-15T07:59:52.706078269Z,0.74,-1.62,-1.03,0.44,0.00,2.35,3.09,1.32,4.12,3.68,1.47,4.56,6.47,6.03,,,,,,,,,,,,,,
1799999992714404663,2027-01-15T07:59:52.714404663Z,0.59,-2.35,-3.38,0.29,0.29,2.65,3.24,0.59,3.24,5.59,0.15,6.47,5.29,6.47,,,,,,,,,,,,,,
1799999992722731058,2027-01-15T07:59:52.722731058Z,-3.38,-1.76,-2.79,1.62,1.91,1.62,2.79,2.06,3.24,5.00,2.35,6.62,5.00,5.44,,,,,,,,,,,,,,
1799999992731057453,2027-01-15T07:59:52.731057453Z,-3.97,-1.32,-0.15,0.59,3.24,0.74,2.79,2.35,4.85,2.94,4.26,4.56,5.88,5.44,,,,,,,,,,,,,,
1799999992739383847,2027-01-15T07:59:52.739383847Z,-3.38,-1.91,0.29,-1.32,3.09,0.88,2.79,0.88,6.03,2.65,3.38,5.44,5.88,5.59,,,,,,,,,,,,,,
1799999992747710242,2027-01-15T07:59:52.747710242Z,-2.35,-1.47,-0.44,-0.74,2.21,1.76,1.47,-0.15,4.26,3.53,2.65,5.88,4.26,3.97,,,,,,,,,,,,,,
1799999992756036637,2027-01-15T07:59:52.756036637Z,-2.06,-1.76,1.18,0.44,2.06,2.65,-0.29,0.29,3.24,3.68,2.65,2.94,2.94,2.35,,,,,,,,,,,,,,
1799999992764363031,2027-01-15T07:59:52.764363031Z,-0.59,-2.50,2.21,0.15,2.50,3.38,-0.74,1.18,4.85,5.00,1.76,2.21,3.53,2.94,,,,,,,,,,,,,,
1799999992772689426,2027-01-15T07:59:52.772689426Z,-0.44,-1.32,0.88,0.00,1.62,3.68,0.74,2.06,4.41,5.88,2.50,4.56,3.53,4.85,,,,,,,,,,,,,,
1799999992781015821,2027-01-15T07:59:52.781015821Z,-0.59,-0.59,0.74,0.29,0.15,2.79,1.91,2.94,2.06,5.00,4.71,5.88,2.50,5.74,,,,,,,,,,,,,,
1799999992789342215,2027-01-15T07:59:52.789342215Z,-1.76,-2.06,2.21,0.74,0.29,1.76,1.76,3.24,1.32,4.26,4.41,5.59,2.79,5.15,,,,,,,,,,,,,,
1799999992797668610,2027-01-15T07:59:52.797668610Z,-1.47,-3.53,1.18,0.88,1.62,2.21,1.47,2.79,1.91,3.53,2.35,6.18,4.85,4.26,,,,,,,,,,,,,,
1799999992805995005,2027-01-15T07:59:52.805995005Z,-1.32,-3.09,-0.88,0.29,1.62,2.06,1.62,1.47,1.18,3.38,2.35,5.29,5.74,3.24,,,,,,,,,,,,,,
1799999992814321399,2027-01-15T07:59:52.814321399Z,-1.32,-1.62,0.59,-0.44,1.47,0.00,1.62,0.74,1.32,4.56,2.06,3.09,4.12,3.82,,,,,,,,,,,,,,
1799999992822647794,2027-01-15T07:59:52.822647794Z,-1.18,-1.47,1.62,0.44,1.76,0.00,1.76,0.74,1.47,3.97,1.62,2.35,3.82,4.26,,,,,,,,,,,,,,
1799999992830974189,2027-01-15T07:59:52.830974189Z,-0.59,-1.32,-0.15,2.21,2.79,1.03,0.74,1.03,1.18,2.79,2.50,3.53,3.97,3.82,,,,,,,,,,,,,,
1799999992839300583,2027-01-15T07:59:52.839300583Z,-1.62,-0.15,0.15,1.76,2.35,1.03,-1.18,2.21,2.35,3.53,3.53,4.56,3.09,4.41,,,,,,,,,,,,,,
1799999992847626978,2027-01-15T07:59:52.847626978Z,-2.06,0.15,1.47,0.74,1.76,2.06,-0.29,3.68,3.24,3.09,4.26,5.74,4.12,5.88,,,,,,,,,,,,,,
1799999992855953373,2027-01-15T07:59:52.855953373Z,-1.32,0.74,1.18,0.15,0.88,2.50,1.62,3.09,1.91,2.06,3.97,6.91,5.88,6.91,,,,,,,,,,,,,,
1799999992864279767,2027-01-15T07:59:52.864279767Z,-0.15,0.29,0.44,-0.74,0.74,1.76,2.50,2.50,0.29,1.76,3.38,6.32,5.15,7.50,,,,,,,,,,,,,,
1799999992872606162,2027-01-15T07:59:52.872606162Z,,-1.32,0.15,-0.44,0.88,1.03,2.21,3.68,1.03,2.50,3.38,4.26,3.53,8.09,,,,,,,,,,,,,,
1799999992880932557,2027-01-15T07:59:52.880932557Z,-0.15,-1.32,0.00,0.74,-0.15,0.59,1.91,3.09,2.79,2.35,2.79,3.38,4.26,8.38,,,,,,,,,,,,,,
1799999992889258951,2027-01-15T07:59:52.889258951Z,0.15,0.15,0.59,1.62,0.00,1.03,2.06,1.47,2.79,2.21,2.21,5.00,5.44,7.06,,,,,,,,,,,,,,
1799999992897585346,2027-01-15T07:59:52.897585346Z,-0.74,-0.59,0.00,1.62,1.18,1.91,2.21,1.91,1.62,3.53,2.79,5.29,4.26,5.00,,,,,,,,,,,,,,
1799999992905911741,2027-01-15T07:59:52.905911741Z,-0.88,-2.21,-1.32,0.74,1.18,1.03,2.35,2.65,2.06,3.82,2.65,3.24,3.97,4.56,,,,,,,,,,,,,,
1799999992914238135,2027-01-15T07:59:52.914238135Z,0.00,-2.21,-0.59,-0.29,0.15,-1.03,2.50,1.18,2.65,1.32,2.94,3.24,5.88,6.76,,,,,,,,,,,,,,
1799999992922564530,2027-01-15T07:59:52.922564530Z,-0.15,-0.74,0.74,-0.44,0.29,-1.18,1.32,-0.59,1.47,-0.15,4.71,5.00,6.03,7.35,,,,,,,,,,,,,,
1799999992930890925,2027-01-15T07:59:52.930890925Z,-0.44,1.32,-0.15,0.44,1.18,0.44,-0.44,0.44,0.74,2.35,5.59,3.82,4.71,4.71,,,,,,,,,,,,,,
1799999992939217319,2027-01-15T07:59:52.939217319Z,0.15,2.21,0.74,0.29,1.18,2.50,1.32,2.06,1.91,2.50,4.41,4.41,4.41,3.82,,,,,,,,,,,,,,
1799999992947543714,2027-01-15T07:59:52.947543714Z,0.00,1.03,1.18,0.29,1.76,3.09,2.50,1.76,2.06,1.91,3.68,4.85,4.41,4.12,,,,,,,,,,,,,,
1799999992955870109,2027-01-15T07:59:52.955870109Z,0.59,-1.18,1.03,1.03,2.79,2.79,1.47,1.91,2.35,3.82,3.38,4.71,6.03,4.85,,,,,,,,,,,,,,
1799999992964196503,2027-01-15T07:59:52.964196503Z,-0.44,-1.91,0.74,0.59,2.65,1.47,1.62,4.12,2.94,3.38,4.56,2.94,6.76,5.00,,,,,,,,,,,,,,
1799999992972522898,2027-01-15T07:59:52.972522898Z,-0.44,0.00,1.91,-0.29,2.94,2.35,1.47,4.12,1.62,1.03,6.91,3.68,5.44,6.03,,,,,,,,,,,,,,
1799999992980849293,2027-01-15T07:59:52.980849293Z,0.44,1.03,1.03,0.74,2.79,2.65,0.29,2.79,0.29,1.18,7.65,5.00,4.85,6.62,,,,,,,,,,,,,,
1799999992989175687,2027-01-15T07:59:52.989175687Z,-1.03,-0.44,-0.59,2.21,1.32,1.32,1.62,3.53,0.44,3.82,5.00,5.44,5.59,5.44,,,,,,,,,,,,,,
1799999992997502082,2027-01-15T07:59:52.997502082Z,-0.74,0.15,-0.29,2.06,0.00,0.15,2.79,3.38,1.47,3.97,2.06,4.85,4.85,4.12,,,,,,,,,,,,,,
1799999993005828477,2027-01-15T07:59:53.005828477Z,-0.59,1.91,0.88,1.62,0.29,-0.15,0.15,0.59,2.06,1.62,1.76,3.53,2.79,4.41,,,,,,,,,,,,,,
1799999993014154871,2027-01-15T07:59:53.014154871Z,-0.29,1.62,0.59,2.21,1.62,0.44,-1.03,-0.44,2.79,2.35,2.94,2.06,1.32,5.74,,,,,,,,,,,,,,
1799999993022481266,2027-01-15T07:59:53.022481266Z,-1.32,1.03,-1.03,2.21,2.35,1.76,1.32,0.59,4.41,5.15,3.09,2.65,2.21,4.85,,,,,,,,,,,,,,
1799999993030807661,2027-01-15T07:59:53.030807661Z,-0.15,2.21,-1.47,1.47,1.03,2.94,1.62,-0.29,6.03,5.00,3.24,4.71,3.53,3.09,,,,,,,,,,,,,,
1799999993039134055,2027-01-15T07:59:53.039134055Z,0.00,2.50,-0.59,1.03,-0.29,3.24,1.18,0.29,5.88,3.24,3.68,3.97,3.97,3.97,,,,,,,,,,,,,,
1799999993047460450,2027-01-15T07:59:53.047460450Z,-0.15,1.47,-0.59,1.18,-0.59,2.79,2.79,2.79,5.00,2.79,3.38,2.79,4.26,5.00,,,,,,,,,,,,,,
1799999993055786845,2027-01-15T07:59:53.055786845Z,-0.15,1.03,-1.76,1.32,-0.59,2.06,3.09,3.53,4.26,4.12,3.53,5.88,3.82,4.41,,,,,,,,,,,,,,
1799999993064113239,2027-01-15T07:59:53.064113239Z,-0.15,1.32,-1.03,0.29,0.15,1.03,2.21,3.97,3.24,3.38,4.12,5.59,4.85,4.56,,,,,,,,,,,,,,
1799999993072439634,2027-01-15T07:59:53.072439634Z,-0.15,0.44,-0.44,-0.15,0.44,0.88,1.76,4.41,1.91,2.65,3.97,5.15,5.44,5.00,,,,,,,,,,,,,,
1799999993080766029,2027-01-15T07:59:53.080766029Z,-0.59,-1.47,0.74,0.00,0.29,0.00,1.03,3.68,0.44,3.38,3.82,4.56,5.44,4.71,,,,,,,,,,,,,,
1799999993089092423,2027-01-15T07:59:53.089092423Z,0.59,-2.06,0.74,1.76,1.91,-0.59,1.32,3.53,1.32,3.68,3.09,5.29,3.97,5.00,,,,,,,,,,,,,,
1799999993097418818,2027-01-15T07:59:53.097418818Z,-0.59,-1.18,1.03,0.44,3.97,1.32,1.62,2.94,1.91,3.09,2.94,3.97,2.65,5.59,,,,,,,,,,,,,,
1799999993105745213,2027-01-15T07:59:53.105745213Z,-0.74,-1.03,0.15,-1.76,2.79,1.47,1.91,1.91,1.91,2.50,4.85,4.12,2.35,6.03,,,,,,,,,,,,,,
1799999993114071607,2027-01-15T07:59:53.114071607Z,-0.15,-0.29,-0.59,-1.47,0.74,-1.03,2.06,1.47,4.26,2.06,5.15,5.44,4.12,5.59,,,,,,,,,,,,,,
1799999993122398002,2027-01-15T07:59:53.122398002Z,3.09,0.59,0.59,0.15,1.18,-1.32,1.91,2.65,5.74,3.82,2.21,4.85,5.00,4.71,,,,,,,,,,,,,,
1799999993130724397,2027-01-15T07:59:53.130724397Z,-2.21,-0.59,0.74,0.74,2.06,1.03,2.65,3.09,3.82,5.44,0.74,3.53,3.53,4.85,,,,,,,,,,,,,,
1799999993139050792,2027-01-15T07:59:53.139050792Z,-2.21,-1.32,-0.88,0.59,1.18,2.65,3.53,1.76,2.94,4.41,3.24,4.26,3.09,5.74,,,,,,,,,,,,,,
1799999993147377186,2027-01-15T07:59:53.147377186Z,-2.21,0.00,-1.32,2.06,1.32,2.50,3.82,1.18,4.85,2.65,4.41,5.29,4.56,6.03,,,,,,,,,,,,,,
1799999993155703581,2027-01-15T07:59:53.155703581Z,2.65,0.15,-0.15,2.79,2.06,1.47,2.35,1.91,5.15,2.79,2.50,3.82,5.59,5.59,,,,,,,,,,,,,,
1799999993164029976,2027-01-15T07:59:53.164029976Z,2.06,-1.03,0.15,1.76,1.18,0.74,0.88,2.06,3.09,3.82,2.35,2.65,5.00,6.03,,,,,,,,,,,,,,
1799999993172356370,2027-01-15T07:59:53.172356370Z,0.29,-0.88,-0.44,0.88,0.44,2.06,1.18,3.09,2.06,3.97,4.85,4.12,3.68,6.03,,,,,,,,,,,,,,
1799999993180682765,2027-01-15T07:59:53.180682765Z,0.74,-0.44,-0.44,-0.15,2.06,4.26,0.59,3.97,3.53,2.79,5.29,5.59,3.24,3.97,,,,,,,,,,,,,,
1799999993189009160,2027-01-15T07:59:53.189009160Z,1.62,-0.44,-0.44,1.03,1.47,4.26,1.62,2.94,2.79,2.50,2.94,5.29,4.41,2.79,,,,,,,,,,,,,,
1799999993197335554,2027-01-15T07:59:53.197335554Z,-1.62,-0.29,-0.59,1.91,1.03,3.38,2.21,3.09,2.50,2.94,2.35,4.85,4.26,3.97,,,,,,,,,,,,,,
1799999993205661949,2027-01-15T07:59:53.205661949Z,-1.32,0.29,-0.74,3.24,2.06,2.50,1.47,4.56,4.56,4.26,3.24,4.85,4.12,6.32,,,,,,,,,,,,,,
1799999993213988344,2027-01-15T07:59:53.213988344Z,-0.74,-0.44,-1.32,0.59,2.65,1.18,2.06,3.97,3.97,4.12,2.94,4.56,5.00,4.71,,,,,,,,,,,,,,
1799999993222314738,2027-01-15T07:59:53.222314738Z,0.00,-1.32,-0.74,-0.74,1.32,1.32,3.09,2.94,2.06,3.68,3.68,3.82,4.12,3.38,,,,,,,,,,,,,,
1799999993230641133,2027-01-15T07:59:53.230641133Z,0.00,-1.76,0.44,0.29,0.44,0.74,2.94,2.94,2.65,4.41,4.56,3.24,3.82,3.68,,,,,,,,,,,,,,
1799999993238967528,2027-01-15T07:59:53.238967528Z,-0.74,-1.91,1.32,0.15,0.88,0.15,3.82,3.53,3.38,5.88,5.00,3.68,4.85,4.41,,,,,,,,,,,,,,
1799999993247293922,2027-01-15T07:59:53.247293922Z,-1.47,-1.62,1.91,-1.32,1.18,1.91,4.41,1.91,2.06,6.03,4.12,4.71,5.88,5.29,,,,,,,,,,,,,,
1799999993255620317,2027-01-15T07:59:53.255620317Z,-0.29,-1.32,1.91,-1.91,1.03,2.65,3.24,0.44,1.32,4.41,2.50,4.85,6.18,3.82,,,,,,,,,,,,,,
1799999993263946712,2027-01-15T07:59:53.263946712Z,0.00,-0.88,1.18,-1.62,0.88,0.74,1.62,1.62,2.65,3.38,1.91,3.97,5.88,1.47,,,,,,,,,,,,,,
1799999993272273106,2027-01-15T07:59:53.272273106Z,0.44,0.00,1.18,-0.74,0.88,-0.88,1.03,2.35,3.68,4.26,3.68,3.97,6.03,2.79,,,,,,,,,,,,,,
1799999993280599501,2027-01-15T07:59:53.280599501Z,-0.29,0.88,0.00,-0.74,0.88,-0.29,1.47,1.32,2.50,4.12,5.29,4.56,5.74,5.29,,,,,,,,,,,,,,
1799999993288925896,2027-01-15T07:59:53.288925896Z,-5.00,0.29,-1.91,-2.50,1.76,0.15,2.35,1.47,1.91,3.38,6.18,3.97,4.26,4.26,,,,,,,,,,,,,,
1799999993297252290,2027-01-15T07:59:53.297252290Z,-1.47,-0.88,-1.76,-2.35,3.24,-0.59,2.50,2.21,3.09,3.38,7.21,3.24,3.68,2.79,,,,,,,,,,,,,,
1799999993305578685,2027-01-15T07:59:53.305578685Z,-0.59,-0.15,-0.74,0.15,2.50,-1.32,1.76,1.91,3.82,2.79,5.59,2.50,5.29,4.41,,,,,,,,,,,,,,
1799999993313905080,2027-01-15T07:59:53.313905080Z,-1.91,-0.44,-1.76,1.47,0.29,-0.59,2.94,1.47,4.12,3.09,3.97,3.82,5.00,4.71,,,,,,,,,,,,,,
1799999993322231474,2027-01-15T07:59:53.322231474Z,1.62,-0.74,0.00,0.88,-0.15,0.44,3.53,1.18,3.97,3.24,3.97,3.68,4.26,4.56,,,,,,,,,,,,,,
1799999993330557869,2027-01-15T07:59:53.330557869Z,1.47,-0.44,2.79,0.00,0.74,1.62,2.50,-0.44,4.85,3.38,3.09,1.47,4.56,6.18,,,,,,,,,,,,,,
1799999993338884264,2027-01-15T07:59:53.338884264Z,-2.94,0.00,2.06,-1.32,1.47,2.21,2.35,-1.32,5.88,2.94,1.76,2.50,3.68,6.32,,,,,,,,,,,,,,
1799999993347210658,2027-01-15T07:59:53.347210658Z,0.59,0.15,1.47,-1.76,2.65,2.06,3.38,0.59,3.68,3.53,4.12,4.85,3.24,3.97,,,,,,,,,,,,,,
1799999993355537053,2027-01-15T07:59:53.355537053Z,-0.15,-1.03,1.91,0.15,2.79,2.35,4.26,2.65,0.59,4.26,6.03,4.41,3.68,3.97,,,,,,,,,,,,,,
1799999993363863448,2027-01-15T07:59:53.363863448Z,-0.74,-2.50,0.44,1.47,0.74,2.50,4.71,2.79,1.03,3.82,5.29,5.00,3.82,5.44,,,,,,,,,,,,,,
1799999993372189842,2027-01-15T07:59:53.372189842Z,-3.97,-0.88,-2.94,0.15,-0.59,0.29,2.50,1.91,2.79,2.50,3.68,7.50,4.71,4.26,,,,,,,,,,,,,,
1799999993380516237,2027-01-15T07:59:53.380516237Z,-1.18,1.18,-3.38,-1.32,0.88,-1.18,-0.44,1.91,3.24,1.18,2.21,6.62,6.03,2.06,,,,,,,,,,,,,,
1799999993388842632,2027-01-15T07:59:53.388842632Z,-1.03,0.00,0.00,-0.15,2.06,0.44,0.00,2.21,3.53,1.03,3.09,2.94,6.32,3.38,,,,,,,,,,,,,,
1799999993397169026,2027-01-15T07:59:53.397169026Z,-1.18,-1.03,2.21,0.44,1.62,2.50,2.79,0.74,3.24,1.18,5.15,1.18,5.29,6.03,,,,,,,,,,,,,,
1799999993405495421,2027-01-15T07:59:53.405495421Z,-2.35,-0.44,1.91,-0.29,0.88,2.50,3.09,-0.74,1.47,1.47,5.29,2.65,4.41,5.15,,,,,,,,,,,,,,
1799999993413821816,2027-01-15T07:59:53.413821816Z,-3.24,-1.18,2.21,1.03,1.03,2.79,0.88,0.59,0.74,2.65,4.12,4.12,4.56,3.09,,,,,,,,,,,,,,
1799999993422148210,2027-01-15T07:59:53.422148210Z,-3.24,-1.76,1.32,2.06,1.76,3.68,0.15,3.09,2.35,3.24,5.00,4.71,5.15,4.12,,,,,,,,,,,,,,
1799999993430474605,2027-01-15T07:59:53.430474605Z,-4.12,-1.03,-0.15,0.59,2.21,3.24,1.62,3.82,1.18,2.35,5.44,5.15,5.29,6.18,,,,,,,,,,,,,,
1799999993438801000,2027-01-15T07:59:53.438801000Z,-1.62,-0.44,-0.88,-0.15,1.47,1.47,2.79,3.82,0.00,1.18,3.38,2.65,5.29,5.88,,,,,,,,,,,,,,
1799999993447127394,2027-01-15T07:59:53.447127394Z,-1.47,-1.32,-1.03,0.00,1.18,1.03,2.06,2.94,0.00,0.74,3.09,1.47,5.44,6.32,,,,,,,,,,,,,,
1799999993455453789,2027-01-15T07:59:53.455453789Z,0.88,-1.62,-1.03,-0.44,1.62,2.50,1.47,2.21,0.00,1.47,3.68,3.09,5.00,7.21,,,,,,,,,,,,,,
1799999993463780184,2027-01-15T07:59:53.463780184Z,-1.62,-0.15,-0.29,0.29,0.29,3.09,3.53,3.82,0.74,2.35,3.68,3.53,3.82,6.47,,,,,,,,,,,,,,
1799999993472106578,2027-01-15T07:59:53.472106578Z,0.44,0.59,0.44,1.91,-1.76,2.21,3.82,5.00,2.21,2.79,5.00,3.97,4.41,6.47,,,,,,,,,,,,,,
1799999993480432973,2027-01-15T07:59:53.480432973Z,0.59,-1.32,1.03,2.21,-0.74,2.06,2.06,3.53,1.47,3.24,5.15,6.47,5.00,5.88,,,,,,,,,,,,,,
1799999993488759368,2027-01-15T07:59:53.488759368Z,0.44,-2.50,1.18,2.21,1.62,1.62,0.59,2.06,1.62,4.41,3.68,8.53,3.53,4.12,,,,,,,,,,,,,,
1799999993497085762,2027-01-15T07:59:53.497085762Z,-1.47,-1.32,1.03,2.50,0.44,0.15,-0.29,1.76,2.94,4.71,3.24,6.91,3.38,3.24,,,,,,,,,,,,,,
1799999993505412157,2027-01-15T07:59:53.505412157Z,-0.15,0.88,1.18,2.06,-1.62,0.00,-1.18,2.21,2.65,3.97,4.56,4.41,5.29,4.26,,,,,,,,,,,,,,
1799999993513738552,2027-01-15T07:59:53.513738552Z,-0.44,1.62,0.59,1.32,0.59,1.18,-1.18,3.24,1.62,4.41,5.29,2.79,5.00,3.82,,,,,,,,,,,,,,
1799999993522064946,2027-01-15T07:59:53.522064946Z,-2.21,0.74,-0.29,0.44,4.26,1.76,0.00,3.38,1.62,4.56,4.26,2.21,3.38,3.09,,,,,,,,,,,,,,
1799999993530391341,2027-01-15T07:59:53.530391341Z,1.18,0.74,-1.03,-1.03,4.85,1.91,1.47,1.47,1.03,3.53,2.65,2.79,3.53,5.15,,,,,,,,,,,,,,
1799999993538717736,2027-01-15T07:59:53.538717736Z,0.88,0.74,-1.03,-0.74,2.35,2.21,3.38,0.88,1.32,2.79,2.06,3.24,3.97,6.62,,,,,,,,,,,,,,
1799999993547044130,2027-01-15T07:59:53.547044130Z,0.88,-0.74,-1.91,1.47,0.44,0.88,2.94,2.94,2.65,2.35,2.65,2.06,3.82,4.12,,,,,,,,,,,,,,
1799999993555370525,2027-01-15T07:59:53.555370525Z,-0.74,-2.35,-1.18,2.50,0.59,-0.44,0.15,2.79,3.38,2.06,2.65,1.76,3.68,1.91,,,,,,,,,,,,,,
1799999993563696920,2027-01-15T07:59:53.563696920Z,0.15,-1.32,1.32,-0.15,0.44,0.88,1.47,1.18,2.65,1.03,3.68,2.94,3.24,3.24,,,,,,,,,,,,,,
1799999993572023314,2027-01-15T07:59:53.572023314Z,0.00,-0.44,0.44,-1.03,0.74,1.62,2.94,1.18,2.65,0.88,4.41,2.79,4.56,4.26,,,,,,,,,,,,,,
1799999993580349709,2027-01-15T07:59:53.580349709Z,-0.15,0.88,-1.76,1.62,1.76,0.74,1.18,2.06,3.38,2.79,4.26,1.91,6.18,4.12,,,,,,,,,,,,,,
1799999993588676104,2027-01-15T07:59:53.588676104Z,-1.62,0.74,-0.74,2.79,0.59,2.50,1.62,2.21,3.82,3.97,2.79,2.21,4.56,5.29,,,,,,,,,,,,,,
1799999993597002498,2027-01-15T07:59:53.597002498Z,0.44,0.44,-0.44,1.03,0.88,3.97,2.94,2.06,4.12,2.65,3.82,3.38,3.97,5.15,,,,,,,,,,,,,,
1799999993605328893,2027-01-15T07:59:53.605328893Z,1.03,1.32,-1.03,0.44,3.97,1.91,2.65,2.94,4.71,1.32,5.59,5.29,4.85,3.97,,,,,,,,,,,,,,
1799999993613655288,2027-01-15T07:59:53.613655288Z,1.91,2.21,-1.47,2.06,3.38,-0.29,1.18,3.68,4.56,1.03,4.85,5.59,5.74,3.53,,,,,,,,,,,,,,
1799999993621981682,2027-01-15T07:59:53.621981682Z,-0.29,0.74,-0.88,3.09,-0.44,1.03,-0.29,3.68,3.09,1.91,2.65,3.68,6.03,4.85,,,,,,,,,,,,,,
1799999993630308077,2027-01-15T07:59:53.630308077Z,,-1.32,1.03,1.03,-2.50,1.76,-0.59,3.09,2.35,3.09,1.62,3.97,5.29,6.32,,,,,,,,,,,,,,
1799999993638634472,2027-01-15T07:59:53.638634472Z,-0.59,-1.03,1.76,-1.91,-2.50,0.29,0.29,2.21,2.94,3.24,2.79,4.85,5.29,6.62,,,,,,,,,,,,,,
1799999993646960866,2027-01-15T07:59:53.646960866Z,-1.03,0.59,0.44,-1.18,-1.62,0.59,1.18,2.21,2.06,2.94,4.41,2.94,5.74,5.74,,,,,,,,,,,,,,
1799999993655287261,2027-01-15T07:59:53.655287261Z,-0.74,1.18,0.59,1.47,0.15,2.35,1.32,3.53,1.32,3.68,6.18,2.65,5.59,6.18,,,,,,,,,,,,,,
1799999993663613656,2027-01-15T07:59:53.663613656Z,0.59,0.15,1.18,1.47,-1.03,2.35,0.00,4.12,2.94,3.82,5.29,5.74,5.15,7.21,,,,,,,,,,,,,,
1799999993671940050,2027-01-15T07:59:53.671940050Z,0.15,-0.59,0.15,0.00,-2.06,1.03,-1.32,2.65,3.53,3.82,3.82,6.18,4.41,7.50,,,,,,,,,,,,,,
1799999993680266445,2027-01-15T07:59:53.680266445Z,-1.18,0.00,-0.88,0.44,1.18,1.18,0.59,1.32,3.24,4.26,4.41,3.38,3.53,7.79,,,,,,,,,,,,,,
1799999993688592840,2027-01-15T07:59:53.688592840Z,0.29,-0.29,-1.32,-0.44,2.06,0.59,3.53,1.91,4.56,3.82,3.53,2.79,2.35,5.74,,,,,,,,,,,,,,
1799999993696919234,2027-01-15T07:59:53.696919234Z,-0.15,-1.76,-0.29,-0.59,0.88,0.59,3.53,2.21,4.26,4.71,2.94,3.09,3.09,4.71,,,,,,,,,,,,,,
1799999993705245629,2027-01-15T07:59:53.705245629Z,0.29,-3.97,0.00,0.74,0.88,2.65,3.24,1.62,3.68,5.15,3.82,2.35,5.44,5.74,,,,,,,,,,,,,,
1799999993713572024,2027-01-15T07:59:53.713572024Z,1.91,-1.76,-1.18,2.06,0.44,1.91,3.24,2.35,4.41,3.68,5.88,3.09,4.71,6.62,,,,,,,,,,,,,,
1799999993721898418,2027-01-15T07:59:53.721898418Z,-0.29,0.88,1.18,0.74,0.74,-1.03,0.59,3.38,2.94,4.12,5.59,3.68,1.76,5.00,,,,,,,,,,,,,,
1799999993730224813,2027-01-15T07:59:53.730224813Z,-0.29,1.32,4.26,0.00,-0.29,-1.03,-0.15,3.24,1.76,4.56,1.18,3.97,2.50,3.82,,,,,,,,,,,,,,
1799999993738551208,2027-01-15T07:59:53.738551208Z,1.76,0.59,2.65,0.88,-1.32,0.88,1.47,2.21,2.94,3.24,-1.03,3.53,5.59,4.41,,,,,,,,,,,,,,
1799999993746877602,2027-01-15T07:59:53.746877602Z,2.35,0.88,-0.44,1.47,-0.29,1.32,2.06,2.35,4.41,2.50,2.06,2.65,5.88,5.59,,,,,,,,,,,,,,
1799999993755203997,2027-01-15T07:59:53.755203997Z,1.18,0.15,-1.18,1.32,0.74,1.62,1.91,3.09,3.82,3.09,3.53,1.91,4.41,5.00,,,,,,,,,,,,,,
1799999993763530392,2027-01-15T07:59:53.763530392Z,-0.44,0.15,-0.29,2.06,0.15,3.09,2.06,2.35,1.76,3.68,2.35,2.06,4.12,4.26,,,,,,,,,,,,,,
1799999993771856787,2027-01-15T07:59:53.771856787Z,-0.74,1.47,0.29,1.91,0.00,2.65,1.76,2.21,0.88,3.24,3.24,2.06,3.53,5.00,,,,,,,,,,,,,,
1799999993780183181,2027-01-15T07:59:53.780183181Z,-0.88,1.03,-0.59,1.18,1.18,0.59,2.50,3.82,1.62,2.21,4.41,1.18,3.09,5.44,,,,,,,,,,,,,,
1799999993788509576,2027-01-15T07:59:53.788509576Z,-1.18,-0.59,-0.44,2.06,0.59,0.00,2.94,4.85,2.79,1.47,3.97,1.03,4.26,5.00,,,,,,,,,,,,,,
1799999993796835971,2027-01-15T07:59:53.796835971Z,-3.24,-0.15,1.76,2.06,-1.18,1.47,1.62,3.38,2.79,2.21,3.09,1.76,4.85,5.59,,,,,,,,,,,,,,
1799999993805162365,2027-01-15T07:59:53.805162365Z,-2.50,0.15,2.50,0.74,1.32,3.09,0.59,2.21,2.06,3.38,2.21,1.76,4.71,7.50,,,,,,,,,,,,,,
1799999993813488760,2027-01-15T07:59:53.813488760Z,0.15,-0.88,0.44,0.15,3.24,2.21,1.03,2.50,1.91,3.68,1.47,2.94,3.97,7.79,,,,,,,,,,,,,,
1799999993821815155,2027-01-15T07:59:53.821815155Z,0.00,-0.44,0.44,0.15,2.94,1.32,1.03,2.50,1.62,4.12,1.76,3.38,3.53,7.06,,,,,,,,,,,,,,
1799999993830141549,2027-01-15T07:59:53.830141549Z,0.15,0.44,1.91,1.47,-0.29,-0.15,2.94,2.50,1.32,4.71,3.97,3.38,3.24,4.71,,,,,,,,,,,,,,
1799999993838467944,2027-01-15T07:59:53.838467944Z,0.15,-0.29,0.59,1.32,-0.88,-0.44,4.56,2.21,2.65,4.12,5.00,3.24,5.00,2.79,,,,,,,,,,,,,,
1799999993846794339,2027-01-15T07:59:53.846794339Z,-0.15,-0.44,-0.88,-0.15,-0.88,-0.15,3.38,1.18,3.53,4.71,3.38,3.38,5.74,2.06,,,,,,,,,,,,,,
1799999993855120733,2027-01-15T07:59:53.855120733Z,0.29,-2.65,-1.32,0.59,1.03,0.44,1.47,0.74,3.38,4.56,3.53,3.68,5.44,3.09,,,,,,,,,,,,,,
1799999993863447128,2027-01-15T07:59:53.863447128Z,0.88,-3.68,-2.06,1.18,1.62,0.74,0.59,0.88,4.41,3.97,5.15,3.53,4.85,3.24,,,,,,,,,,,,,,
1799999993871773523,2027-01-15T07:59:53.871773523Z,0.29,-1.18,-1.62,-0.29,0.00,0.88,0.88,0.74,4.71,4.71,5.15,2.79,4.56,3.82,,,,,,,,,,,,,,
1799999993880099917,2027-01-15T07:59:53.880099917Z,-0.29,-0.74,-0.44,-0.88,0.15,1.47,1.18,1.18,3.09,4.85,4.56,3.38,5.15,6.47,,,,,,,,,,,,,,
1799999993888426312,2027-01-15T07:59:53.888426312Z,-2.50,-2.50,0.59,-0.29,1.91,1.91,1.03,1.32,1.76,3.97,4.26,4.71,5.00,8.09,,,,,,,,,,,,,,
1799999993896752707,2027-01-15T07:59:53.896752707Z,-2.35,-2.50,1.47,-0.88,2.50,1.62,0.44,0.74,2.35,3.24,3.68,5.88,4.12,6.03,,,,,,,,,,,,,,
1799999993905079101,2027-01-15T07:59:53.905079101Z,-3.97,-2.06,1.03,-0.44,1.32,2.50,0.15,1.32,2.35,2.94,3.38,5.15,4.12,4.26,,,,,,,,,,,,,,
1799999993913405496,2027-01-15T07:59:53.913405496Z,-5.00,-2.79,-0.88,1.32,0.44,3.38,1.03,2.21,1.32,2.94,3.97,3.68,4.85,5.88,,,,,,,,,,,,,,
1799999993921731891,2027-01-15T07:59:53.921731891Z,-0.29,-3.53,0.00,1.76,-1.18,1.03,2.35,1.62,1.47,2.50,4.85,3.97,4.85,6.47,,,,,,,,,,,,,,
1799999993930058285,2027-01-15T07:59:53.930058285Z,0.29,-2.94,2.65,0.88,-3.68,-2.50,3.53,1.32,2.50,1.62,4.56,5.59,5.00,4.41,,,,,,,,,,,,,,
1799999993938384680,2027-01-15T07:59:53.938384680Z,-1.32,-1.03,1.62,0.44,-0.74,-0.59,2.35,2.65,3.97,2.65,2.94,6.47,5.44,4.12,,,,,,,,,,,,,,
1799999993946711075,2027-01-15T07:59:53.946711075Z,2.06,0.29,1.18,0.44,1.47,0.74,1.76,2.50,3.09,3.38,1.91,6.32,6.32,4.56,,,,,,,,,,,,,,
1799999993955037469,2027-01-15T07:59:53.955037469Z,0.59,0.44,1.91,0.59,3.68,1.47,1.76,2.65,1.18,3.38,2.21,5.15,6.76,4.41,,,,,,,,,,,,,,
1799999993963363864,2027-01-15T07:59:53.963363864Z,0.15,-0.88,-0.74,0.15,1.32,1.03,2.94,3.68,1.03,2.50,2.94,5.00,5.15,5.29,,,,,,,,,,,,,,
1799999993971690259,2027-01-15T07:59:53.971690259Z,,-2.06,-2.06,-0.29,1.47,1.91,1.91,2.79,1.32,2.35,2.35,6.18,4.26,3.97,,,,,,,,,,,,,,
1799999993980016653,2027-01-15T07:59:53.980016653Z,-0.44,-2.79,0.74,-0.15,2.65,2.06,2.21,2.06,2.79,3.53,1.76,6.62,5.15,1.32,,,,,,,,,,,,,,
1799999993988343048,2027-01-15T07:59:53.988343048Z,-2.21,-2.94,0.88,-0.29,2.06,2.06,4.12,2.79,4.41,3.97,3.24,6.62,5.59,1.62,,,,,,,,,,,,,,
1799999993996669443,2027-01-15T07:59:53.996669443Z,-2.50,-2.50,-3.09,-0.44,1.32,2.94,3.38,3.38,3.82,3.09,3.97,7.50,5.15,4.56,,,,,,,,,,,,,,
1799999994004995837,2027-01-15T07:59:54.004995837Z,0.59,-1.76,-3.53,0.15,1.76,2.50,1.03,3.97,2.21,3.09,2.50,6.47,4.56,5.88,,,,,,,,,,,,,,
1799999994013322232,2027-01-15T07:59:54.013322232Z,0.15,-0.88,0.15,1.03,2.79,1.62,0.74,4.85,2.35,2.79,2.94,4.71,4.12,4.26,,,,,,,,,,,,,,
1799999994021648627,2027-01-15T07:59:54.021648627Z,0.00,-0.15,1.32,0.59,2.65,1.47,2.50,4.26,2.79,1.62,4.56,4.12,4.41,4.56,,,,,,,,,,,,,,
1799999994029975021,2027-01-15T07:59:54.029975021Z,-1.32,-0.15,-0.15,-0.74,0.88,1.32,2.50,2.35,2.21,1.47,5.59,4.56,3.24,6.18,,,,,,,,,,,,,,
1799999994038301416,2027-01-15T07:59:54.038301416Z,0.59,-1.47,-0.15,-1.03,-0.88,0.74,0.74,0.74,2.50,2.21,6.18,5.00,2.65,5.29,,,,,,,,,,,,,,
1799999994046627811,2027-01-15T07:59:54.046627811Z,0.00,-2.21,0.74,0.15,0.00,1.32,0.74,0.59,3.68,2.35,5.00,5.88,4.26,4.41,,,,,,,,,,,,,,
1799999994054954205,2027-01-15T07:59:54.054954205Z,-0.15,-1.47,1.62,0.59,2.35,2.65,2.65,1.76,3.97,2.65,2.94,7.06,4.85,6.03,,,,,,,,,,,,,,
1799999994063280600,2027-01-15T07:59:54.063280600Z,-0.29,0.44,0.15,-0.29,1.62,2.50,2.35,3.38,2.21,3.82,1.32,6.62,4.71,5.88,,,,,,,,,,,,,,
1799999994071606995,2027-01-15T07:59:54.071606995Z,-0.88,0.74,-0.44,-0.15,0.74,2.06,1.91,2.94,2.50,5.15,2.21,5.88,4.71,4.71,,,,,,,,,,,,,,
1799999994079933389,2027-01-15T07:59:54.079933389Z,-0.44,0.74,-1.32,0.44,0.00,1.47,2.65,1.76,3.53,5.74,4.41,4.41,3.53,2.06,,,,,,,,,,,,,,
1799999994088259784,2027-01-15T07:59:54.088259784Z,-1.62,2.94,-1.03,0.00,1.76,1.76,1.18,3.09,1.03,2.65,5.88,5.74,3.68,2.94,,,,,,,,,,,,,,
1799999994096586179,2027-01-15T07:59:54.096586179Z,-0.15,2.06,-0.15,0.59,3.24,0.59,0.29,2.65,-0.59,-1.32,6.03,5.29,4.56,3.97,,,,,,,,,,,,,,
1799999994104912573,2027-01-15T07:59:54.104912573Z,0.15,-1.03,1.03,2.06,2.79,0.00,2.21,0.29,1.32,-0.15,6.18,4.12,5.29,3.97,,,,,,,,,,,,,,
1799999994113238968,2027-01-15T07:59:54.113238968Z,0.88,0.29,-0.15,2.21,1.47,0.88,3.24,-0.88,2.94,3.38,5.15,3.53,6.18,4.26,,,,,,,,,,,,,,
1799999994121565363,2027-01-15T07:59:54.121565363Z,-0.59,2.65,-1.91,1.18,0.29,2.06,1.91,-0.29,3.53,3.82,3.68,3.68,5.74,4.85,,,,,,,,,,,,,,
1799999994129891757,2027-01-15T07:59:54.129891757Z,0.44,0.59,0.15,1.18,0.00,1.76,1.91,0.59,3.53,3.24,4.12,2.21,5.00,4.41,,,,,,,,,,,,,,
1799999994138218152,2027-01-15T07:59:54.138218152Z,0.88,-2.35,3.24,1.32,0.59,0.88,3.68,1.03,3.24,3.82,6.03,0.44,5.59,5.29,,,,,,,,,,,,,,
1799999994146544547,2027-01-15T07:59:54.146544547Z,1.03,-1.18,3.09,0.44,0.15,0.59,3.82,1.32,2.79,2.21,4.41,1.32,5.44,7.35,,,,,,,,,,,,,,
1799999994154870941,2027-01-15T07:59:54.154870941Z,0.88,1.18,2.06,-0.59,-0.15,0.74,2.50,1.32,3.38,1.32,0.44,3.53,3.82,7.06,,,,,,,,,,,,,,
1799999994163197336,2027-01-15T07:59:54.163197336Z,1.76,1.91,2.50,-1.32,0.74,1.18,2.94,1.03,4.41,2.79,-0.44,3.82,2.50,4.41,,,,,,,,,,,,,,
1799999994171523731,2027-01-15T07:59:54.171523731Z,0.29,1.76,1.32,-0.74,1.32,1.91,4.26,1.32,4.12,4.26,2.21,3.09,2.94,3.82,,,,,,,,,,,,,,
1799999994179850125,2027-01-15T07:59:54.179850125Z,-0.15,0.88,-0.88,0.74,1.62,2.06,2.79,0.88,3.09,4.56,2.65,3.82,3.53,5.29,,,,,,,,,,,,,,
1799999994188176520,2027-01-15T07:59:54.188176520Z,-0.29,1.32,1.03,0.44,0.44,1.18,-0.15,-0.44,2.35,4.56,1.18,4.26,3.53,4.26,,,,,,,,,,,,,,
1799999994196502915,2027-01-15T07:59:54.196502915Z,-0.29,1.32,1.91,0.00,1.91,0.29,0.00,1.76,2.65,4.26,0.88,5.29,3.82,3.97,,,,,,,,,,,,,,
1799999994204829309,2027-01-15T07:59:54.204829309Z,-0.15,0.74,0.44,1.03,4.26,-0.44,1.03,5.59,3.68,3.68,2.35,5.00,3.97,5.15,,,,,,,,,,,,,,
1799999994213155704,2027-01-15T07:59:54.213155704Z,0.74,0.15,-0.44,1.76,2.50,0.59,1.47,4.71,3.97,3.24,3.38,1.62,3.38,4.71,,,,,,,,,,,,,,
1799999994221482099,2027-01-15T07:59:54.221482099Z,-1.76,1.76,2.35,1.03,0.15,2.94,2.50,1.62,4.26,3.68,2.06,2.65,3.53,4.85,,,,,,,,,,,,,,
1799999994229808493,2027-01-15T07:59:54.229808493Z,-2.21,2.35,1.76,0.44,-0.44,3.38,2.06,1.62,4.26,3.68,3.68,5.29,3.97,5.74,,,,,,,,,,,,,,
1799999994238134888,2027-01-15T07:59:54.238134888Z,-1.76,0.88,-1.47,1.03,0.00,1.76,2.79,3.53,2.50,4.12,5.74,4.56,2.79,6.32,,,,,,,,,,,,,,
1799999994246461283,2027-01-15T07:59:54.246461283Z,-1.32,-0.59,-1.76,2.21,0.88,1.47,4.71,2.35,2.35,3.53,4.12,3.68,2.35,6.32,,,,,,,,,,,,,,
1799999994254787677,2027-01-15T07:59:54.254787677Z,-1.47,-1.32,-0.74,2.35,0.29,2.50,3.82,0.74,4.71,0.88,2.79,4.12,4.12,6.76,,,,,,,,,,,,,,
1799999994263114072,2027-01-15T07:59:54.263114072Z,-1.76,-2.21,-1.18,1.18,-1.18,2.79,0.74,1.91,4.41,0.00,3.97,3.38,5.74,6.32,,,,,,,,,,,,,,
1799999994271440467,2027-01-15T07:59:54.271440467Z,-3.53,-2.79,0.15,0.29,0.29,1.91,-0.59,3.38,2.21,2.21,4.12,2.79,6.03,3.38,,,,,,,,,,,,,,
1799999994279766861,2027-01-15T07:59:54.279766861Z,0.15,0.15,1.47,1.18,1.91,1.32,1.76,3.68,3.38,3.68,3.68,3.24,5.74,1.47,,,,,,,,,,,,,,
1799999994288093256,2027-01-15T07:59:54.288093256Z,0.74,3.97,0.88,2.35,1.18,0.59,2.94,2.79,5.74,3.53,5.00,3.53,6.18,3.53,,,,,,,,,,,,,,
1799999994296419651,2027-01-15T07:59:54.296419651Z,1.32,3.24,0.88,1.62,2.06,-0.59,1.32,1.62,4.85,3.68,6.76,4.12,6.32,5.44,,,,,,,,,,,,,,
1799999994304746045,2027-01-15T07:59:54.304746045Z,-0.74,-0.15,1.03,0.74,3.09,-0.29,1.18,2.35,3.38,3.09,6.47,4.41,5.74,5.44,,,,,,,,,,,,,,
1799999994313072440,2027-01-15T07:59:54.313072440Z,-0.88,-0.15,-0.74,0.29,2.21,1.18,1.18,4.56,2.21,3.38,4.41,5.74,5.29,4.85,,,,,,,,,,,,,,
1799999994321398835,2027-01-15T07:59:54.321398835Z,-1.76,0.29,-1.62,0.15,1.91,1.18,2.06,4.56,1.91,3.53,3.38,5.29,5.00,4.85,,,,,,,,,,,,,,
1799999994329725229,2027-01-15T07:59:54.329725229Z,-0.44,-1.32,-1.18,0.74,2.06,2.79,3.53,3.09,1.91,3.09,1.91,2.21,4.26,6.76,,,,,,,,,,,,,,
1799999994338051624,2027-01-15T07:59:54.338051624Z,-0.44,-1.47,-1.03,1.76,2.21,3.38,2.35,2.94,1.62,3.68,1.18,0.59,3.97,7.94,,,,,,,,,,,,,,
1799999994346378019,2027-01-15T07:59:54.346378019Z,,-0.59,-1.62,1.18,1.91,1.91,0.29,2.94,1.91,3.82,2.65,1.18,4.12,5.88,,,,,,,,,,,,,,
1799999994354704413,2027-01-15T07:59:54.354704413Z,-1.91,-0.74,-1.18,-0.74,-0.74,2.35,0.29,2.50,1.91,3.53,4.12,0.29,5.00,3.53,,,,,,,,,,,,,,
1799999994363030808,2027-01-15T07:59:54.363030808Z,-2.06,-1.76,0.88,-1.47,-4.26,3.24,1.18,3.09,0.74,3.09,4.85,1.47,5.44,2.21,,,,,,,,,,,,,,
1799999994371357203,2027-01-15T07:59:54.371357203Z,-2.50,-1.18,1.91,-0.44,-5.74,1.03,2.06,3.68,0.59,3.38,5.29,5.00,4.12,2.21,,,,,,,,,,,,,,
1799999994379683598,2027-01-15T07:59:54.379683598Z,-1.32,0.29,0.29,0.74,-4.12,-0.15,2.35,3.53,1.47,3.68,3.82,5.88,3.38,3.38,,,,,,,,,,,,,,
1799999994388009992,2027-01-15T07:59:54.388009992Z,-1.47,0.59,-0.29,1.76,-0.74,2.21,2.06,3.38,2.50,2.35,1.76,3.82,4.71,5.29,,,,,,,,,,,,,,
1799999994396336387,2027-01-15T07:59:54.396336387Z,-2.65,-0.29,1.47,0.88,2.50,3.82,1.47,2.65,2.94,1.03,1.47,4.26,5.59,5.44,,,,,,,,,,,,,,
1799999994404662782,2027-01-15T07:59:54.404662782Z,0.29,-0.88,1.62,-0.44,2.94,2.79,1.32,1.91,2.35,1.32,3.68,6.18,4.26,3.82,,,,,,,,,,,,,,
1799999994412989176,2027-01-15T07:59:54.412989176Z,0.59,-0.59,0.15,-0.44,2.06,1.62,2.50,1.91,2.21,1.62,5.74,5.44,3.68,3.24,,,,,,,,,,,,,,
1799999994421315571,2027-01-15T07:59:54.421315571Z,-1.76,0.00,0.00,-0.88,3.09,1.32,3.53,2.21,3.09,1.76,5.15,3.68,4.41,3.82,,,,,,,,,,,,,,
1799999994429641966,2027-01-15T07:59:54.429641966Z,-2.79,-1.32,0.59,-0.29,3.38,0.74,2.94,2.35,4.26,2.79,2.50,3.82,3.97,4.26,,,,,,,,,,,,,,
1799999994437968360,2027-01-15T07:59:54.437968360Z,-0.74,-1.03,-1.03,0.88,0.00,0.88,2.21,2.35,3.24,3.68,0.74,3.82,4.71,5.00,,,,,,,,,,,,,,
1799999994446294755,2027-01-15T07:59:54.446294755Z,-1.62,-0.74,-2.21,0.15,-2.21,1.32,2.50,2.35,2.65,4.12,1.47,3.97,4.85,5.88,,,,,,,,,,,,,,
1799999994454621150,2027-01-15T07:59:54.454621150Z,-0.74,-0.44,-3.38,-1.62,-2.21,2.06,2.21,3.09,4.12,4.56,3.38,5.29,3.38,7.35,,,,,,,,,,,,,,
1799999994462947544,2027-01-15T07:59:54.462947544Z,-0.29,-0.74,-2.65,-0.74,-0.44,2.50,0.44,3.38,4.12,4.26,3.24,5.44,3.97,6.18,,,,,,,,,,,,,,
1799999994471273939,2027-01-15T07:59:54.471273939Z,0.59,-1.32,-1.91,-0.88,2.06,2.50,0.59,2.35,2.35,3.82,2.94,4.26,5.44,3.82,,,,,,,,,,,,,,
1799999994479600334,2027-01-15T07:59:54.479600334Z,-1.18,-1.62,-1.18,-1.76,2.79,1.62,2.06,2.21,1.91,3.24,3.38,3.38,5.29,4.56,,,,,,,,,,,,,,
1799999994487926728,2027-01-15T07:59:54.487926728Z,0.59,0.00,-1.18,-1.47,1.03,1.32,1.91,1.47,2.35,3.68,4.12,3.53,4.41,5.44,,,,,,,,,,,,,,
1799999994496253123,2027-01-15T07:59:54.496253123Z,0.59,0.00,-2.06,-0.88,1.18,1.76,1.47,0.88,2.50,4.41,4.85,2.94,4.56,3.82,,,,,,,,,,,,,,
1799999994504579518,2027-01-15T07:59:54.504579518Z,-1.62,-2.21,-1.03,-1.18,2.50,1.32,2.06,2.50,2.94,3.68,4.56,2.65,4.41,4.56,,,,,,,,,,,,,,
1799999994512905912,2027-01-15T07:59:54.512905912Z,-1.32,-2.94,1.32,0.00,1.62,0.74,1.32,3.68,2.65,2.21,3.24,4.12,3.24,7.21,,,,,,,,,,,,,,
1799999994521232307,2027-01-15T07:59:54.521232307Z,0.15,-1.18,1.03,0.88,2.65,0.88,0.29,2.35,1.76,2.35,3.24,4.41,2.94,6.32,,,,,,,,,,,,,,
1799999994529558702,2027-01-15T07:59:54.529558702Z,0.29,0.59,-1.18,-1.32,4.85,1.76,2.50,2.21,0.88,3.97,4.56,2.50,3.82,3.24,,,,,,,,,,,,,,
1799999994537885096,2027-01-15T07:59:54.537885096Z,0.15,0.44,-0.74,-1.47,3.68,2.21,6.18,2.94,1.03,4.71,4.56,2.65,3.82,2.65,,,,,,,,,,,,,,
1799999994546211491,2027-01-15T07:59:54.546211491Z,0.59,-0.74,1.62,1.62,1.47,1.62,6.62,1.76,1.91,3.38,4.41,4.56,3.82,4.71,,,,,,,,,,,,,,
1799999994554537886,2027-01-15T07:59:54.554537886Z,1.32,-1.18,1.62,2.21,0.15,1.91,4.12,1.76,1.91,2.06,5.88,3.82,5.44,6.47,,,,,,,,,,,,,,
1799999994562864280,2027-01-15T07:59:54.562864280Z,-1.03,-1.03,-0.15,-0.15,0.15,1.91,1.47,3.09,1.47,2.35,4.26,2.94,4.26,8.09,,,,,,,,,,,,,,
1799999994571190675,2027-01-15T07:59:54.571190675Z,0.44,-1.18,-0.44,0.44,1.32,1.47,0.74,3.24,2.06,1.91,3.09,2.50,3.24,7.06,,,,,,,,,,,,,,
1799999994579517070,2027-01-15T07:59:54.579517070Z,-2.35,-1.47,0.59,1.91,2.35,0.29,-0.44,2.06,2.79,2.50,2.65,2.50,3.09,4.56,,,,,,,,,,,,,,
1799999994587843464,2027-01-15T07:59:54.587843464Z,-2.50,-2.50,0.74,0.29,-0.15,1.91,-0.15,-0.15,1.62,5.00,3.09,4.56,4.85,3.53,,,,,,,,,,,,,,
1799999994596169859,2027-01-15T07:59:54.596169859Z,-0.74,-2.35,0.00,0.15,-1.18,2.06,0.29,0.59,1.32,4.85,3.82,5.74,5.29,3.68,,,,,,,,,,,,,,
1799999994604496254,2027-01-15T07:59:54.604496254Z,-0.88,-0.44,0.29,2.06,0.15,1.18,1.91,3.38,2.35,2.50,5.00,5.15,5.00,4.85,,,,,,,,,,,,,,
1799999994612822648,2027-01-15T07:59:54.612822648Z,-1.47,0.00,1.76,2.35,1.32,0.29,2.94,3.68,2.50,1.62,5.29,5.88,5.59,6.32,,,,,,,,,,,,,,
1799999994621149043,2027-01-15T07:59:54.621149043Z,,-1.18,1.76,0.29,1.18,0.74,2.35,2.06,1.32,3.09,4.26,6.62,5.44,6.03,,,,,,,,,,,,,,
1799999994629475438,2027-01-15T07:59:54.629475438Z,-1.32,-1.18,0.15,-0.59,0.15,1.18,2.06,1.03,1.18,3.38,3.82,5.00,4.56,4.71,,,,,,,,,,,,,,
1799999994637801832,2027-01-15T07:59:54.637801832Z,1.18,-2.06,-0.74,0.59,-0.88,0.59,1.18,1.32,2.65,2.35,4.71,3.24,4.71,4.85,,,,,,,,,,,,,,
1799999994646128227,2027-01-15T07:59:54.646128227Z,0.74,-1.91,-0.44,1.32,0.00,0.88,0.00,2.79,3.24,2.35,5.74,4.26,5.44,6.03,,,,,,,,,,,,,,
1799999994654454622,2027-01-15T07:59:54.654454622Z,0.59,0.59,-0.88,0.74,1.18,1.47,-0.29,3.09,3.09,3.24,5.44,6.62,5.74,5.29,,,,,,,,,,,,,,
1799999994662781016,2027-01-15T07:59:54.662781016Z,-0.88,1.91,-1.32,0.44,0.74,0.00,0.44,1.32,4.12,3.24,4.26,6.32,6.47,4.71,,,,,,,,,,,,,,
1799999994671107411,2027-01-15T07:59:54.671107411Z,0.00,1.32,-0.74,1.18,1.76,-1.62,0.74,1.18,2.94,3.53,3.68,3.68,5.59,6.47,,,,,,,,,,,,,,
1799999994679433806,2027-01-15T07:59:54.679433806Z,-0.15,1.47,0.15,1.47,3.09,-1.03,0.00,2.21,0.29,3.68,4.12,2.50,3.53,7.35,,,,,,,,,,,,,,
1799999994687760200,2027-01-15T07:59:54.687760200Z,-0.15,0.44,0.15,0.29,1.91,0.88,0.15,1.18,1.32,2.79,3.82,3.82,4.41,5.44,,,,,,,,,,,,,,
1799999994696086595,2027-01-15T07:59:54.696086595Z,1.32,0.00,0.00,1.32,2.50,1.62,-0.15,1.18,1.76,2.79,4.71,3.97,5.59,3.68,,,,,,,,,,,,,,
1799999994704412990,2027-01-15T07:59:54.704412990Z,1.62,-0.15,0.15,3.09,2.50,1.91,-0.88,2.65,1.76,1.47,5.00,5.44,4.71,2.65,,,,,,,,,,,,,,
1799999994712739384,2027-01-15T07:59:54.712739384Z,1.03,-0.44,-0.44,2.06,-0.59,1.18,0.44,2.35,3.97,1.76,3.24,6.32,3.82,3.68,,,,,,,,,,,,,,
1799999994721065779,2027-01-15T07:59:54.721065779Z,1.03,-1.03,-0.88,2.21,-0.74,1.47,1.76,2.21,2.94,3.38,1.91,5.00,4.26,6.03,,,,,,,,,,,,,,
1799999994729392174,2027-01-15T07:59:54.729392174Z,-0.15,-1.47,-0.74,2.50,0.74,2.21,1.47,2.06,1.62,3.09,1.62,3.53,5.74,5.88,,,,,,,,,,,,,,
1799999994737718568,2027-01-15T07:59:54.737718568Z,-0.59,-0.15,-1.18,0.15,-0.59,1.91,1.47,2.06,3.38,2.65,1.91,2.65,4.56,3.68,,,,,,,,,,,,,,
1799999994746044963,2027-01-15T07:59:54.746044963Z,-0.59,1.32,-0.44,-2.65,-0.74,1.32,1.91,2.06,3.97,3.82,3.53,3.53,2.06,3.24,,,,,,,,,,,,,,
1799999994754371358,2027-01-15T07:59:54.754371358Z,-0.15,1.32,1.18,-1.76,2.21,1.18,2.65,1.62,2.21,4.56,4.71,4.12,3.24,5.15,,,,,,,,,,,,,,
1799999994762697752,2027-01-15T07:59:54.762697752Z,1.91,0.59,0.44,1.47,3.24,1.32,3.97,1.18,2.35,4.26,3.09,3.53,4.85,5.88,,,,,,,,,,,,,,
1799999994771024147,2027-01-15T07:59:54.771024147Z,0.88,-0.59,-0.59,2.65,1.62,1.18,3.82,1.32,4.26,3.82,1.76,3.97,3.82,4.41,,,,,,,,,,,,,,
1799999994779350542,2027-01-15T07:59:54.779350542Z,0.00,-1.76,1.03,1.62,1.47,0.74,1.32,2.35,5.29,3.68,3.24,4.12,4.41,3.53,,,,,,,,,,,,,,
1799999994787676936,2027-01-15T07:59:54.787676936Z,0.15,-1.03,2.06,1.91,1.62,0.88,0.29,2.94,4.85,3.38,4.56,2.94,5.44,4.26,,,,,,,,,,,,,,
1799999994796003331,2027-01-15T07:59:54.796003331Z,,0.59,0.59,1.03,1.03,1.76,2.06,1.91,4.85,1.47,3.24,2.79,3.68,5.15,,,,,,,,,,,,,,
1799999994804329726,2027-01-15T07:59:54.804329726Z,1.18,0.00,-1.03,-1.32,1.62,1.47,2.94,1.47,4.85,0.44,1.91,3.68,1.91,5.29,,,,,,,,,,,,,,
1799999994812656120,2027-01-15T07:59:54.812656120Z,2.06,0.44,-1.18,0.88,2.94,-0.15,1.47,2.65,3.24,2.65,2.94,3.09,3.24,3.82,,,,,,,,,,,,,,
1799999994820982515,2027-01-15T07:59:54.820982515Z,1.76,1.03,-0.59,2.06,3.24,0.15,1.76,2.06,3.09,1.91,3.68,3.53,4.56,4.56,,,,,,,,,,,,,,
1799999994829308910,2027-01-15T07:59:54.829308910Z,2.79,0.00,0.44,2.06,1.62,1.03,3.53,1.32,3.53,-0.29,3.82,5.59,5.74,6.32,,,,,,,,,,,,,,
1799999994837635304,2027-01-15T07:59:54.837635304Z,1.76,0.44,0.29,1.32,2.06,0.59,2.79,2.35,3.53,1.32,2.94,6.03,6.18,5.00,,,,,,,,,,,,,,
1799999994845961699,2027-01-15T07:59:54.845961699Z,1.18,0.00,0.44,1.62,5.00,1.76,1.47,3.09,4.41,3.09,2.65,4.56,4.85,4.12,,,,,,,,,,,,,,
1799999994854288094,2027-01-15T07:59:54.854288094Z,-0.15,-1.62,1.03,0.29,4.71,3.38,1.47,2.79,2.65,3.68,3.24,3.82,2.79,4.56,,,,,,,,,,,,,,
1799999994862614488,2027-01-15T07:59:54.862614488Z,-0.29,-0.59,1.03,-0.29,0.59,3.38,2.50,1.91,0.15,3.09,3.68,4.26,2.65,4.85,,,,,,,,,,,,,,
1799999994870940883,2027-01-15T07:59:54.870940883Z,-0.74,1.18,1.03,0.29,-1.32,3.09,3.24,0.88,1.62,3.38,2.65,3.68,4.41,6.03,,,,,,,,,,,,,,
1799999994879267278,2027-01-15T07:59:54.879267278Z,-0.74,1.03,1.03,-1.91,1.18,3.82,2.79,1.76,4.12,4.26,1.47,2.79,5.59,7.35,,,,,,,,,,,,,,
1799999994887593672,2027-01-15T07:59:54.887593672Z,-1.32,1.47,0.00,-3.82,1.91,3.68,2.06,3.53,4.12,3.38,1.76,3.53,5.15,6.76,,,,,,,,,,,,,,
1799999994895920067,2027-01-15T07:59:54.895920067Z,-3.53,1.91,-0.74,-2.79,0.15,2.50,1.47,4.12,2.50,1.62,3.53,4.71,4.41,4.85,,,,,,,,,,,,,,
1799999994904246462,2027-01-15T07:59:54.904246462Z,-0.15,1.03,0.59,-0.74,1.91,1.91,2.06,2.94,1.76,2.35,4.71,5.88,4.41,4.71,,,,,,,,,,,,,,
1799999994912572856,2027-01-15T07:59:54.912572856Z,-0.44,0.88,1.03,0.59,3.82,1.47,3.09,2.06,2.65,4.12,5.15,5.59,5.00,5.29,,,,,,,,,,,,,,
1799999994920899251,2027-01-15T07:59:54.920899251Z,-0.59,1.03,-1.32,1.47,1.18,0.00,3.82,2.65,3.53,4.56,6.32,3.68,2.79,3.97,,,,,,,,,,,,,,
1799999994929225646,2027-01-15T07:59:54.929225646Z,-2.79,0.15,-1.91,2.21,-1.32,-0.74,4.41,3.97,4.41,4.12,5.74,2.79,1.62,3.38,,,,,,,,,,,,,,
1799999994937552040,2027-01-15T07:59:54.937552040Z,-1.03,-0.59,0.29,2.94,0.44,0.74,2.35,3.97,3.09,3.68,3.53,2.79,4.41,4.41,,,,,,,,,,,,,,
1799999994945878435,2027-01-15T07:59:54.945878435Z,-1.47,-1.03,1.76,2.21,0.00,1.62,1.32,2.65,2.79,3.68,3.82,2.35,5.15,4.71,,,,,,,,,,,,,,
1799999994954204830,2027-01-15T07:59:54.954204830Z,-3.53,-1.47,2.79,1.18,-2.06,1.18,1.76,0.59,3.82,4.12,5.00,1.76,5.15,5.29,,,,,,,,,,,,,,
1799999994962531224,2027-01-15T07:59:54.962531224Z,-3.68,-1.32,3.82,1.91,-0.44,1.18,1.91,1.03,4.26,4.26,4.26,3.38,5.29,6.18,,,,,,,,,,,,,,
1799999994970857619,2027-01-15T07:59:54.970857619Z,-1.18,-0.74,3.09,1.47,0.88,0.88,0.88,2.65,2.94,3.97,4.26,3.24,2.94,5.74,,,,,,,,,,,,,,
1799999994979184014,2027-01-15T07:59:54.979184014Z,-0.88,0.15,1.03,-0.59,0.88,0.59,0.74,3.38,2.50,3.68,4.56,2.06,2.94,3.82,,,,,,,,,,,,,,
1799999994987510408,2027-01-15T07:59:54.987510408Z,1.62,0.00,-0.74,-0.88,0.29,0.00,1.62,2.94,1.91,3.09,3.82,2.50,4.56,1.76,,,,,,,,,,,,,,
1799999994995836803,2027-01-15T07:59:54.995836803Z,0.74,-0.88,-0.59,0.59,-0.15,0.44,1.91,2.94,1.18,3.53,3.68,3.68,5.00,2.06,,,,,,,,,,,,,,
1799999995004163198,2027-01-15T07:59:55.004163198Z,0.00,-1.76,0.44,0.59,-1.18,1.47,1.03,2.65,2.65,4.56,5.00,3.38,4.85,4.26,,,,,,,,,,,,,,
1799999995012489593,2027-01-15T07:59:55.012489593Z,0.00,-2.65,0.29,-0.88,-1.76,1.47,0.15,2.94,4.12,4.85,4.85,2.65,4.56,5.88,,,,,,,,,,,,,,
1799999995020815987,2027-01-15T07:59:55.020815987Z,-0.88,-2.35,-0.29,-0.88,0.00,1.32,0.74,3.97,3.38,4.71,3.38,3.82,5.15,5.88,,,,,,,,,,,,,,
1799999995029142382,2027-01-15T07:59:55.029142382Z,-1.03,-1.47,0.88,0.88,1.47,2.50,1.76,3.68,2.21,3.68,2.35,5.74,6.03,4.85,,,,,,,,,,,,,,
1799999995037468777,2027-01-15T07:59:55.037468777Z,-0.88,-2.06,1.47,1.47,-0.15,2.94,1.62,2.35,2.21,2.21,1.62,6.91,5.44,3.24,,,,,,,,,,,,,,
1799999995045795171,2027-01-15T07:59:55.045795171Z,-2.21,-2.79,-0.29,0.88,-1.18,2.94,1.32,2.94,2.65,2.35,2.21,6.76,4.56,2.50,,,,,,,,,,,,,,
1799999995054121566,2027-01-15T07:59:55.054121566Z,-3.53,-0.74,-1.91,1.03,0.74,2.35,2.21,2.94,3.53,3.68,3.53,5.74,3.53,4.26,,,,,,,,,,,,,,
1799999995062447961,2027-01-15T07:59:55.062447961Z,0.00,-0.59,-1.03,-0.44,0.44,0.44,2.50,0.88,3.38,3.53,2.94,4.41,3.24,3.68,,,,,,,,,,,,,,
1799999995070774355,2027-01-15T07:59:55.070774355Z,-0.15,-0.88,0.00,-0.44,0.74,1.18,2.06,0.59,3.68,2.94,2.21,4.41,3.38,4.41,,,,,,,,,,,,,,
1799999995079100750,2027-01-15T07:59:55.079100750Z,-1.62,0.00,0.15,1.47,2.21,2.79,1.03,2.35,3.97,2.50,2.79,4.56,3.53,6.47,,,,,,,,,,,,,,
1799999995087427145,2027-01-15T07:59:55.087427145Z,-2.21,-0.29,-0.15,2.06,1.03,1.32,0.74,2.35,3.97,1.76,4.12,3.53,2.79,4.41,,,,,,,,,,,,,,
1799999995095753539,2027-01-15T07:59:55.095753539Z,-2.94,-1.47,0.59,0.44,1.03,0.44,0.59,1.03,4.71,1.91,4.85,2.65,2.94,3.97,,,,,,,,,,,,,,
1799999995104079934,2027-01-15T07:59:55.104079934Z,-6.18,-0.59,1.18,-1.32,1.76,1.18,1.76,0.15,2.50,2.94,3.24,2.21,4.56,6.62,,,,,,,,,,,,,,
1799999995112406329,2027-01-15T07:59:55.112406329Z,-2.35,-0.74,-0.29,-1.76,0.29,2.35,4.26,1.91,-0.59,3.24,2.94,3.24,4.71,7.35,,,,,,,,,,,,,,
1799999995120732723,2027-01-15T07:59:55.120732723Z,-2.35,-2.65,-0.74,-1.91,-0.74,3.53,5.59,2.94,0.00,3.09,5.00,4.85,2.65,6.03,,,,,,,,,,,,,,
1799999995129059118,2027-01-15T07:59:55.129059118Z,-2.79,-2.21,-0.29,-2.79,1.03,3.24,3.82,1.47,1.47,3.82,5.44,4.26,2.94,6.03,,,,,,,,,,,,,,
1799999995137385513,2027-01-15T07:59:55.137385513Z,-3.82,0.00,-1.32,-1.47,2.35,1.32,1.62,1.03,0.59,3.53,4.56,3.97,5.44,5.15,,,,,,,,,,,,,,
1799999995145711907,2027-01-15T07:59:55.145711907Z,-0.59,-0.59,-1.47,1.18,0.88,0.74,2.06,2.06,0.74,3.09,4.56,5.44,5.88,4.71,,,,,,,,,,,,,,
1799999995154038302,2027-01-15T07:59:55.154038302Z,-0.29,-3.09,0.00,1.76,-0.74,2.06,3.53,2.79,2.79,3.53,4.26,5.88,4.71,5.59,,,,,,,,,,,,,,
1799999995162364697,2027-01-15T07:59:55.162364697Z,-2.65,-2.35,-0.15,-0.29,0.15,2.35,3.09,3.24,3.82,3.97,3.53,5.15,4.12,6.03,,,,,,,,,,,,,,
1799999995170691091,2027-01-15T07:59:55.170691091Z,-1.91,0.44,-1.32,0.29,0.74,1.47,1.32,2.94,2.94,4.12,2.94,5.15,4.56,5.74,,,,,,,,,,,,,,
1799999995179017486,2027-01-15T07:59:55.179017486Z,-0.15,1.03,-0.15,2.94,0.00,1.91,-0.29,2.65,1.91,3.38,2.65,4.26,4.85,5.15,,,,,,,,,,,,,,
1799999995187343881,2027-01-15T07:59:55.187343881Z,0.00,-0.29,0.29,2.50,0.59,0.88,0.74,2.79,1.91,2.79,4.26,2.50,5.15,4.56,,,,,,,,,,,,,,
1799999995195670275,2027-01-15T07:59:55.195670275Z,0.44,-0.59,0.15,1.62,0.59,0.44,1.18,2.50,1.62,3.38,5.00,2.06,3.82,4.71,,,,,,,,,,,,,,
1799999995203996670,2027-01-15T07:59:55.203996670Z,0.59,0.15,0.15,0.74,0.00,0.15,1.47,2.35,1.32,4.56,5.15,3.82,1.91,5.44,,,,,,,,,,,,,,
1799999995212323065,2027-01-15T07:59:55.212323065Z,1.47,0.15,1.91,-0.29,-0.44,0.44,2.21,2.79,2.06,3.68,2.94,5.15,2.65,5.44,,,,,,,,,,,,,,
1799999995220649459,2027-01-15T07:59:55.220649459Z,-3.82,0.29,1.03,1.03,-0.59,1.18,3.68,2.06,2.50,3.68,1.76,5.00,4.71,4.12,,,,,,,,,,,,,,
1799999995228975854,2027-01-15T07:59:55.228975854Z,-2.50,-0.29,0.00,2.65,0.29,2.94,4.12,1.62,2.06,3.09,2.65,5.44,4.56,3.24,,,,,,,,,,,,,,
1799999995237302249,2027-01-15T07:59:55.237302249Z,1.03,-1.47,0.59,1.62,0.00,3.38,2.79,1.91,2.21,2.94,3.68,4.71,3.82,5.15,,,,,,,,,,,,,,
1799999995245628643,2027-01-15T07:59:55.245628643Z,0.59,-0.74,1.47,0.29,0.74,1.47,1.18,2.35,2.94,2.94,4.12,2.65,5.15,7.94,,,,,,,,,,,,,,
1799999995253955038,2027-01-15T07:59:55.253955038Z,-3.38,0.59,2.21,1.03,2.06,0.29,2.06,2.65,3.53,1.62,4.56,2.94,6.03,7.65,,,,,,,,,,,,,,
1799999995262281433,2027-01-15T07:59:55.262281433Z,-0.29,1.18,1.47,1.03,-0.15,1.03,3.68,2.94,3.24,1.03,2.94,4.56,5.59,5.74,,,,,,,,,,,,,,
1799999995270607827,2027-01-15T07:59:55.270607827Z,0.29,0.74,-0.29,-0.15,-2.79,1.32,2.79,3.09,2.65,2.65,1.47,3.97,6.47,4.26,,,,,,,,,,,,,,
1799999995278934222,2027-01-15T07:59:55.278934222Z,0.44,-0.88,-1.03,0.15,-1.62,0.88,1.76,2.79,3.82,3.82,2.79,3.24,6.32,2.94,,,,,,,,,,,,,,
1799999995287260617,2027-01-15T07:59:55.287260617Z,0.59,-1.18,0.29,1.18,-0.59,0.88,2.35,1.47,5.44,3.24,4.26,3.97,3.38,1.91,,,,,,,,,,,,,,
1799999995295587011,2027-01-15T07:59:55.295587011Z,-0.88,1.18,0.15,0.44,-1.18,0.44,1.47,0.15,4.26,3.38,3.38,3.97,1.76,1.62,,,,,,,,,,,,,,
1799999995303913406,2027-01-15T07:59:55.303913406Z,-1.47,1.76,-1.18,-1.32,0.59,0.44,0.15,0.88,2.06,3.53,3.53,4.71,3.82,1.03,,,,,,,,,,,,,,
1799999995312239801,2027-01-15T07:59:55.312239801Z,-0.88,-0.15,-0.88,0.00,1.62,2.21,0.59,2.50,2.35,3.82,5.44,4.41,4.56,2.50,,,,,,,,,,,,,,
1799999995320566195,2027-01-15T07:59:55.320566195Z,0.29,-0.44,-0.29,1.32,0.44,1.47,0.88,2.94,2.65,3.68,4.56,3.97,4.12,3.24,,,,,,,,,,,,,,
1799999995328892590,2027-01-15T07:59:55.328892590Z,-1.32,-0.44,-1.03,0.44,-1.47,-1.03,1.18,2.35,2.94,2.65,2.79,3.97,3.97,4.12,,,,,,,,,,,,,,
1799999995337218985,2027-01-15T07:59:55.337218985Z,-0.15,0.15,-1.62,0.88,-0.15,0.00,1.76,1.47,4.12,2.94,3.82,2.50,4.85,5.74,,,,,,,,,,,,,,
1799999995345545379,2027-01-15T07:59:55.345545379Z,0.59,0.59,-1.47,0.74,0.00,2.50,2.65,0.59,4.26,3.68,4.71,1.91,5.74,5.74,,,,,,,,,,,,,,
1799999995353871774,2027-01-15T07:59:55.353871774Z,1.18,-0.44,1.03,-0.15,-0.15,3.68,3.09,-0.29,3.53,3.82,4.85,2.79,6.32,3.68,,,,,,,,,,,,,,
1799999995362198169,2027-01-15T07:59:55.362198169Z,2.50,-1.18,2.94,0.74,-0.29,2.65,2.65,0.29,3.53,3.24,4.26,3.68,5.44,3.97,,,,,,,,,,,,,,
1799999995370524563,2027-01-15T07:59:55.370524563Z,0.59,-0.15,1.47,2.21,-1.03,1.03,1.91,1.62,3.53,2.50,4.26,3.53,4.26,5.29,,,,,,,,,,,,,,
1799999995378850958,2027-01-15T07:59:55.378850958Z,0.44,0.44,-0.15,2.06,0.44,0.88,1.91,2.50,2.50,3.24,4.56,2.06,3.53,4.85,,,,,,,,,,,,,,
1799999995387177353,2027-01-15T07:59:55.387177353Z,0.59,-0.44,0.29,0.74,2.94,1.18,2.06,2.50,2.21,3.97,3.97,2.94,4.12,4.71,,,,,,,,,,,,,,
1799999995395503747,2027-01-15T07:59:55.395503747Z,0.59,0.29,0.00,-0.88,2.06,1.18,1.91,2.79,3.09,2.21,3.82,6.18,5.00,5.15,,,,,,,,,,,,,,
1799999995403830142,2027-01-15T07:59:55.403830142Z,-1.47,1.18,-1.03,-0.59,0.59,1.18,2.79,3.53,3.24,0.88,3.82,5.59,5.74,4.56,,,,,,,,,,,,,,
1799999995412156537,2027-01-15T07:59:55.412156537Z,-0.59,0.00,-1.62,1.32,1.03,0.88,3.97,3.53,2.79,2.79,2.94,2.21,6.62,5.15,,,,,,,,,,,,,,
1799999995420482931,2027-01-15T07:59:55.420482931Z,0.44,-1.47,-1.18,2.35,1.47,1.18,3.53,2.21,3.53,4.12,3.09,2.79,7.06,5.59,,,,,,,,,,,,,,
1799999995428809326,2027-01-15T07:59:55.428809326Z,0.44,-1.18,0.29,2.35,1.62,1.91,2.21,0.88,4.12,1.76,4.12,5.44,6.03,3.24,,,,,,,,,,,,,,
1799999995437135721,2027-01-15T07:59:55.437135721Z,2.21,0.15,1.91,-0.15,1.18,1.18,1.62,1.91,3.09,2.35,4.41,5.29,5.44,3.97,,,,,,,,,,,,,,
1799999995445462115,2027-01-15T07:59:55.445462115Z,2.35,0.29,1.03,-1.18,1.76,1.03,1.47,3.38,2.06,3.38,4.41,4.85,5.59,4.85,,,,,,,,,,,,,,
1799999995453788510,2027-01-15T07:59:55.453788510Z,3.09,0.00,-0.44,0.00,1.76,1.91,0.74,5.29,0.74,3.09,3.09,5.29,5.15,6.62,,,,,,,,,,,,,,
1799999995462114905,2027-01-15T07:59:55.462114905Z,1.47,0.44,0.88,1.47,1.47,2.79,0.44,5.44,0.15,3.09,1.91,4.12,4.41,5.15,,,,,,,,,,,,,,
1799999995470441299,2027-01-15T07:59:55.470441299Z,-0.15,1.03,-0.15,0.74,4.26,3.38,0.74,2.79,1.32,3.97,2.94,3.24,4.26,5.29,,,,,,,,,,,,,,
1799999995478767694,2027-01-15T07:59:55.478767694Z,-0.29,-0.59,-1.47,-0.29,3.53,3.24,1.03,1.32,2.06,2.21,4.12,4.12,4.85,5.74,,,,,,,,,,,,,,
1799999995487094089,2027-01-15T07:59:55.487094089Z,0.59,-0.44,0.15,0.59,-1.03,1.76,0.74,2.50,2.94,0.59,3.38,4.71,5.15,5.15,,,,,,,,,,,,,,
1799999995495420483,2027-01-15T07:59:55.495420483Z,-1.03,1.32,2.65,2.79,0.15,1.03,1.32,1.76,3.53,2.06,2.06,4.56,4.26,5.59,,,,,,,,,,,,,,
1799999995503746878,2027-01-15T07:59:55.503746878Z,-1.32,1.03,1.76,3.82,3.97,2.35,1.76,-0.44,2.21,3.24,2.50,5.15,3.53,6.32,,,,,,,,,,,,,,
1799999995512073273,2027-01-15T07:59:55.512073273Z,0.00,0.88,-0.74,2.06,3.09,3.24,0.44,0.74,2.50,1.76,4.12,4.41,5.00,6.62,,,,,,,,,,,,,,
1799999995520399667,2027-01-15T07:59:55.520399667Z,0.44,2.06,-1.47,0.88,1.76,2.21,-0.74,2.94,3.68,1.62,4.56,1.91,6.91,6.62,,,,,,,,,,,,,,
1799999995528726062,2027-01-15T07:59:55.528726062Z,0.44,1.32,0.15,1.18,3.09,1.18,-0.59,1.76,2.65,3.24,3.97,1.62,6.47,5.59,,,,,,,,,,,,,,
1799999995537052457,2027-01-15T07:59:55.537052457Z,-1.62,-0.44,0.00,0.15,2.94,1.76,-0.44,0.29,3.09,4.26,4.71,4.56,4.26,4.56,,,,,,,,,,,,,,
1799999995545378851,2027-01-15T07:59:55.545378851Z,0.74,-0.88,-1.47,-1.76,1.76,2.94,-0.15,1.62,5.29,3.97,4.71,4.85,2.94,4.85,,,,,,,,,,,,,,
1799999995553705246,2027-01-15T07:59:55.553705246Z,0.74,-0.29,-0.88,-2.21,3.09,1.76,1.62,3.38,4.56,3.09,3.97,3.09,3.97,5.15,,,,,,,,,,,,,,
1799999995562031641,2027-01-15T07:59:55.562031641Z,0.29,-0.29,-0.59,-1.03,5.59,0.59,3.24,3.38,2.35,3.38,4.41,5.29,5.88,6.18,,,,,,,,,,,,,,
1799999995570358035,2027-01-15T07:59:55.570358035Z,-0.29,-1.03,0.59,-0.59,4.26,0.88,2.94,3.09,2.79,3.53,4.26,2.65,4.85,5.88,,,,,,,,,,,,,,
1799999995578684430,2027-01-15T07:59:55.578684430Z,0.88,-2.21,1.47,-0.29,1.03,0.88,1.62,3.38,4.56,3.24,3.38,-1.03,3.97,5.00,,,,,,,,,,,,,,
1799999995587010825,2027-01-15T07:59:55.587010825Z,-2.21,-2.50,-0.74,-1.62,1.76,-1.03,0.44,2.65,3.97,2.94,2.06,2.50,6.32,5.88,,,,,,,,,,,,,,
1799999995595337219,2027-01-15T07:59:55.595337219Z,-1.62,-2.06,-1.76,-1.03,3.24,-1.03,-1.03,1.18,2.21,3.82,0.88,3.68,6.03,5.88,,,,,,,,,,,,,,
1799999995603663614,2027-01-15T07:59:55.603663614Z,-1.47,-1.91,0.74,0.88,3.09,0.15,-0.15,0.29,1.32,3.97,1.76,2.35,4.26,5.59,,,,,,,,,,,,,,
1799999995611990009,2027-01-15T07:59:55.611990009Z,,-2.06,2.50,1.03,3.24,1.32,1.47,0.44,1.03,3.24,2.21,3.82,5.15,5.29,,,,,,,,,,,,,,
1799999995620316403,2027-01-15T07:59:55.620316403Z,-1.03,-2.21,1.47,-1.03,2.94,1.62,1.32,1.03,0.44,2.06,1.62,6.32,6.03,4.41,,,,,,,,,,,,,,
1799999995628642798,2027-01-15T07:59:55.628642798Z,-2.50,-2.50,0.00,-1.03,1.47,0.88,0.29,2.94,1.18,1.47,2.21,6.47,5.00,5.88,,,,,,,,,,,,,,
1799999995636969193,2027-01-15T07:59:55.636969193Z,-2.21,-1.91,-1.47,0.88,-0.15,0.44,0.74,4.26,2.50,2.79,3.09,5.29,4.56,8.82,,,,,,,,,,,,,,
1799999995645295588,2027-01-15T07:59:55.645295588Z,-2.06,-0.15,-0.44,0.29,-0.29,1.03,1.76,2.21,3.38,4.41,2.79,4.56,4.56,8.82,,,,,,,,,,,,,,
1799999995653621982,2027-01-15T07:59:55.653621982Z,,0.44,1.47,-0.74,2.06,1.32,1.76,0.74,4.41,4.56,2.06,3.82,3.24,7.21,,,,,,,,,,,,,,
1799999995661948377,2027-01-15T07:59:55.661948377Z,-1.62,-0.59,0.29,0.29,4.85,0.59,0.88,3.24,5.29,3.24,2.35,3.53,3.53,6.91,,,,,,,,,,,,,,
1799999995670274772,2027-01-15T07:59:55.670274772Z,-1.62,-1.18,-1.76,1.47,6.03,0.88,1.32,4.56,4.26,2.79,4.12,4.56,5.15,6.91,,,,,,,,,,,,,,
1799999995678601166,2027-01-15T07:59:55.678601166Z,-2.79,-0.88,-1.91,0.74,4.26,2.79,2.21,2.50,2.65,3.53,5.00,4.85,4.41,5.74,,,,,,,,,,,,,,
1799999995686927561,2027-01-15T07:59:55.686927561Z,-1.76,-1.76,0.44,-0.74,1.32,2.65,2.06,1.47,1.47,3.09,3.09,3.82,2.94,3.68,,,,,,,,,,,,,,
1799999995695253956,2027-01-15T07:59:55.695253956Z,-1.62,-2.06,1.18,-0.88,0.44,2.21,2.21,2.35,1.03,4.12,3.82,4.12,3.53,3.38,,,,,,,,,,,,,,
1799999995703580350,2027-01-15T07:59:55.703580350Z,-1.32,-1.47,1.03,0.15,0.44,1.18,3.09,3.24,1.03,4.71,5.74,5.00,4.85,4.71,,,,,,,,,,,,,,
1799999995711906745,2027-01-15T07:59:55.711906745Z,-1.32,0.29,0.00,0.59,-1.03,-0.44,3.97,1.62,2.35,2.50,3.97,5.44,3.68,4.71,,,,,,,,,,,,,,
1799999995720233140,2027-01-15T07:59:55.720233140Z,-1.62,1.18,0.88,2.06,-1.18,-1.03,3.38,-0.29,3.24,1.62,2.50,5.44,3.38,5.59,,,,,,,,,,,,,,
1799999995728559534,2027-01-15T07:59:55.728559534Z,-1.32,0.15,1.76,2.65,0.00,0.59,2.06,0.15,3.24,2.79,3.97,3.82,5.00,6.91,,,,,,,,,,,,,,
1799999995736885929,2027-01-15T07:59:55.736885929Z,,-0.88,1.03,1.03,1.62,2.21,2.94,2.06,2.65,3.24,5.74,3.09,5.44,5.74,,,,,,,,,,,,,,
1799999995745212324,2027-01-15T07:59:55.745212324Z,-0.44,-0.29,0.00,0.29,2.65,1.91,4.56,3.09,1.76,3.38,3.97,4.41,3.97,4.56,,,,,,,,,,,,,,
1799999995753538718,2027-01-15T07:59:55.753538718Z,-0.74,0.88,0.88,1.32,2.35,1.03,4.71,3.09,2.06,3.97,0.88,5.00,4.56,5.29,,,,,,,,,,,,,,
1799999995761865113,2027-01-15T07:59:55.761865113Z,-2.50,1.32,2.79,2.21,1.47,1.03,2.94,3.09,2.50,4.12,1.32,5.29,5.00,6.03,,,,,,,,,,,,,,
1799999995770191508,2027-01-15T07:59:55.770191508Z,0.44,0.29,0.74,1.91,-0.59,1.03,1.18,3.82,1.03,2.79,4.41,5.00,3.82,5.59,,,,,,,,,,,,,,
1799999995778517902,2027-01-15T07:59:55.778517902Z,0.74,0.15,-2.94,0.29,-0.15,0.44,0.29,3.82,0.74,1.76,4.41,2.65,3.68,4.56,,,,,,,,,,,,,,
1799999995786844297,2027-01-15T07:59:55.786844297Z,0.59,2.21,-1.62,-1.62,4.12,0.59,0.74,2.21,1.47,2.35,3.68,0.88,4.85,4.12,,,,,,,,,,,,,,
1799999995795170692,2027-01-15T07:59:55.795170692Z,-1.47,2.50,-0.15,-2.21,5.59,1.32,2.65,1.91,0.59,3.68,5.44,2.21,4.71,4.26,,,,,,,,,,,,,,
1799999995803497086,2027-01-15T07:59:55.803497086Z,0.29,-0.29,-2.94,-1.18,2.65,1.32,4.41,3.82,-0.88,3.24,5.88,3.53,3.97,3.82,,,,,,,,,,,,,,
1799999995811823481,2027-01-15T07:59:55.811823481Z,0.59,-1.91,-0.88,-0.15,1.03,1.91,4.12,4.41,0.44,3.53,3.82,5.15,3.38,4.56,,,,,,,,,,,,,,
1799999995820149876,2027-01-15T07:59:55.820149876Z,-0.15,-1.62,1.03,-0.59,0.15,1.91,3.09,3.24,1.91,3.53,3.82,5.74,3.24,4.71,,,,,,,,,,,,,,
1799999995828476270,2027-01-15T07:59:55.828476270Z,0.00,-1.32,-1.32,-0.88,-1.32,2.21,1.76,0.88,4.41,1.18,3.68,5.15,3.68,3.68,,,,,,,,,,,,,,
1799999995836802665,2027-01-15T07:59:55.836802665Z,0.88,-1.62,-1.62,0.00,1.18,1.32,2.65,-0.44,5.44,1.32,2.94,5.00,5.00,4.12,,,,,,,,,,,,,,
1799999995845129060,2027-01-15T07:59:55.845129060Z,-1.03,-1.91,-0.29,0.00,6.03,1.32,3.24,0.88,4.12,4.12,2.65,5.15,3.68,5.74,,,,,,,,,,,,,,
1799999995853455454,2027-01-15T07:59:55.853455454Z,-0.88,-1.03,-0.29,-0.44,5.44,1.03,2.65,1.91,1.62,4.26,1.18,5.15,1.91,7.21,,,,,,,,,,,,,,
1799999995861781849,2027-01-15T07:59:55.861781849Z,-0.59,-0.15,-1.47,0.74,-0.88,0.88,1.76,0.74,0.59,2.79,0.29,4.85,2.94,6.76,,,,,,,,,,,,,,
1799999995870108244,2027-01-15T07:59:55.870108244Z,-1.18,0.44,-2.06,1.76,-3.68,0.74,0.29,1.03,1.47,3.82,1.03,4.12,3.97,4.71,,,,,,,,,,,,,,
1799999995878434638,2027-01-15T07:59:55.878434638Z,-0.44,1.32,-0.59,1.32,-1.76,0.29,-0.44,4.12,1.47,4.71,1.76,3.68,2.79,3.38,,,,,,,,,,,,,,
1799999995886761033,2027-01-15T07:59:55.886761033Z,-0.59,0.59,1.03,1.32,-0.74,0.59,1.32,5.15,2.06,3.53,1.03,4.56,2.21,3.97,,,,,,,,,,,,,,
1799999995895087428,2027-01-15T07:59:55.895087428Z,-0.59,-0.59,1.32,1.91,-0.59,0.88,3.53,2.35,3.68,2.50,1.32,6.18,2.50,4.26,,,,,,,,,,,,,,
1799999995903413822,2027-01-15T07:59:55.903413822Z,0.44,0.15,0.74,1.32,-0.44,0.88,3.82,0.74,4.71,2.50,3.53,6.18,3.24,3.24,,,,,,,,,,,,,,
1799999995911740217,2027-01-15T07:59:55.911740217Z,0.74,0.59,0.15,0.88,-1.03,1.47,1.91,0.88,5.59,2.94,3.53,4.71,4.56,3.24,,,,,,,,,,,,,,
1799999995920066612,2027-01-15T07:59:55.920066612Z,2.21,0.15,0.00,2.06,-0.29,0.88,0.29,0.15,6.62,3.82,1.62,3.38,5.15,4.56,,,,,,,,,,,,,,
1799999995928393006,2027-01-15T07:59:55.928393006Z,1.47,0.15,0.00,2.94,1.18,-0.74,0.74,0.29,5.00,3.53,2.65,3.09,3.68,4.71,,,,,,,,,,,,,,
1799999995936719401,2027-01-15T07:59:55.936719401Z,0.00,0.00,0.00,2.65,0.88,1.03,3.09,1.32,2.65,2.35,5.88,4.41,3.82,5.15,,,,,,,,,,,,,,
1799999995945045796,2027-01-15T07:59:55.945045796Z,-0.15,1.03,0.29,2.65,0.29,2.21,3.09,2.06,2.65,2.21,5.29,4.56,4.12,5.59,,,,,,,,,,,,,,
1799999995953372190,2027-01-15T07:59:55.953372190Z,-2.79,1.47,0.00,2.35,0.74,1.62,1.47,2.65,0.88,3.24,3.24,3.97,2.94,5.59,,,,,,,,,,,,,,
1799999995961698585,2027-01-15T07:59:55.961698585Z,-3.09,-0.74,-0.74,0.88,-0.44,1.32,2.21,1.47,0.44,3.97,3.97,4.71,3.38,4.71,,,,,,,,,,,,,,
1799999995970024980,2027-01-15T07:59:55.970024980Z,0.29,-1.47,-1.18,0.44,-1.62,3.09,1.91,0.15,1.62,3.68,2.94,4.56,4.85,5.44,,,,,,,,,,,,,,
1799999995978351374,2027-01-15T07:59:55.978351374Z,0.59,-1.18,-1.32,-0.59,1.03,3.82,1.03,1.62,2.06,2.79,1.62,4.71,5.15,7.21,,,,,,,,,,,,,,
1799999995986677769,2027-01-15T07:59:55.986677769Z,0.59,0.00,-0.74,-1.47,4.26,1.62,1.47,3.24,2.21,2.94,2.50,5.29,3.97,6.62,,,,,,,,,,,,,,
1799999995995004164,2027-01-15T07:59:55.995004164Z,-1.03,0.88,-0.29,-0.74,2.06,-0.44,1.18,2.50,3.09,3.97,1.62,3.97,3.24,3.53,,,,,,,,,,,,,,
1799999996003330558,2027-01-15T07:59:56.003330558Z,-0.74,0.15,-0.15,-0.44,-1.76,-1.18,1.18,2.79,2.79,4.12,0.44,2.94,4.56,2.50,,,,,,,,,,,,,,
1799999996011656953,2027-01-15T07:59:56.011656953Z,0.88,-0.44,0.74,-1.47,-0.74,0.15,2.21,4.12,1.76,3.09,3.09,4.41,6.47,4.85,,,,,,,,,,,,,,
1799999996019983348,2027-01-15T07:59:56.019983348Z,0.74,0.00,0.88,-0.44,1.62,2.65,1.91,3.82,2.50,1.91,5.44,4.41,6.32,5.44,,,,,,,,,,,,,,
1799999996028309742,2027-01-15T07:59:56.028309742Z,-0.44,0.59,-0.15,1.47,1.03,3.38,0.59,2.35,4.41,3.09,4.12,3.09,4.26,4.41,,,,,,,,,,,,,,
1799999996036636137,2027-01-15T07:59:56.036636137Z,2.21,0.74,1.03,1.62,-0.44,1.32,1.03,1.76,4.56,4.85,1.91,3.97,3.82,5.15,,,,,,,,,,,,,,
1799999996044962532,2027-01-15T07:59:56.044962532Z,1.76,0.15,1.62,1.03,-1.18,1.18,2.06,2.50,2.35,3.53,2.06,5.59,5.29,5.74,,,,,,,,,,,,,,
1799999996053288926,2027-01-15T07:59:56.053288926Z,-3.82,-1.03,-1.03,1.62,-0.74,3.38,2.06,3.38,0.88,1.03,2.50,4.85,5.15,4.71,,,,,,,,,,,,,,
1799999996061615321,2027-01-15T07:59:56.061615321Z,-1.91,-0.88,-1.03,1.62,-0.29,2.35,1.91,3.97,2.50,2.21,1.47,4.12,3.82,5.29,,,,,,,,,,,,,,
1799999996069941716,2027-01-15T07:59:56.069941716Z,-1.18,0.29,-0.59,1.32,-0.74,0.88,2.06,3.53,3.38,3.38,2.21,4.12,3.24,5.74,,,,,,,,,,,,,,
1799999996078268110,2027-01-15T07:59:56.078268110Z,-1.03,2.35,-0.44,1.91,-1.62,0.29,2.21,2.35,3.68,2.79,3.97,4.12,2.94,6.32,,,,,,,,,,,,,,
1799999996086594505,2027-01-15T07:59:56.086594505Z,-0.74,1.18,0.74,1.62,-1.18,0.29,1.76,2.79,2.65,4.12,3.82,4.12,3.24,6.62,,,,,,,,,,,,,,
1799999996094920900,2027-01-15T07:59:56.094920900Z,-0.88,-0.74,1.76,0.00,-1.62,2.35,0.88,3.38,2.06,4.41,3.68,4.12,3.38,5.59,,,,,,,,,,,,,,
1799999996103247294,2027-01-15T07:59:56.103247294Z,-2.94,-1.47,-0.29,-0.74,-0.59,4.56,0.74,4.26,3.68,2.50,3.68,4.26,4.12,3.38,,,,,,,,,,,,,,
1799999996111573689,2027-01-15T07:59:56.111573689Z,1.18,-0.59,-1.76,0.29,1.62,3.53,1.47,4.71,4.71,2.06,4.41,5.00,5.88,1.91,,,,,,,,,,,,,,
1799999996119900084,2027-01-15T07:59:56.119900084Z,1.32,-0.74,-0.74,0.74,1.32,1.62,1.03,3.97,3.24,4.26,4.26,4.71,6.76,3.09,,,,,,,,,,,,,,
1799999996128226478,2027-01-15T07:59:56.128226478Z,0.88,-1.47,-0.29,0.15,-0.44,2.21,0.29,2.21,1.91,4.85,2.21,3.53,6.18,4.71,,,,,,,,,,,,,,
1799999996136552873,2027-01-15T07:59:56.136552873Z,-3.24,-1.62,-1.03,-0.59,-0.15,2.94,1.18,0.29,2.06,3.82,1.32,3.53,5.74,4.85,,,,,,,,,,,,,,
1799999996144879268,2027-01-15T07:59:56.144879268Z,1.03,-1.32,0.00,-1.03,1.18,1.91,2.35,-0.29,3.24,3.38,3.82,3.97,5.44,4.41,,,,,,,,,,,,,,
1799999996153205662,2027-01-15T07:59:56.153205662Z,1.18,-1.03,1.47,-0.59,1.18,0.88,3.38,0.44,4.41,2.65,6.47,3.68,4.85,5.44,,,,,,,,,,,,,,
1799999996161532057,2027-01-15T07:59:56.161532057Z,0.29,-0.15,1.47,-0.29,0.74,1.47,4.41,1.62,3.97,1.76,7.06,3.97,4.12,6.32,,,,,,,,,,,,,,
1799999996169858452,2027-01-15T07:59:56.169858452Z,0.59,0.74,1.47,-1.18,0.44,3.09,4.41,3.38,3.97,2.21,5.44,3.97,4.56,4.71,,,,,,,,,,,,,,
1799999996178184846,2027-01-15T07:59:56.178184846Z,-1.76,0.15,1.91,-2.06,-0.88,4.12,2.21,4.26,5.59,3.38,3.97,4.56,5.59,2.50,,,,,,,,,,,,,,
1799999996186511241,2027-01-15T07:59:56.186511241Z,-1.91,-1.18,1.32,-0.59,0.15,2.21,-0.29,2.21,3.97,3.97,3.38,5.59,5.88,4.12,,,,,,,,,,,,,,
1799999996194837636,2027-01-15T07:59:56.194837636Z,0.88,-2.06,0.59,-0.15,-0.29,1.03,0.29,1.91,2.94,3.38,2.79,3.68,4.85,5.00,,,,,,,,,,,,,,
1799999996203164030,2027-01-15T07:59:56.203164030Z,0.44,-1.47,-0.74,0.15,-3.68,1.18,1.47,1.76,3.38,2.21,3.53,0.59,3.09,3.09,,,,,,,,,,,,,,
1799999996211490425,2027-01-15T07:59:56.211490425Z,-1.91,0.29,-0.59,0.15,-3.53,2.65,0.74,0.00,3.82,2.65,5.74,2.50,2.79,4.12,,,,,,,,,,,,,,
1799999996219816820,2027-01-15T07:59:56.219816820Z,-1.32,1.03,-0.15,1.47,-1.18,2.65,2.21,0.59,2.50,3.24,3.82,4.26,3.53,7.21,,,,,,,,,,,,,,
1799999996228143214,2027-01-15T07:59:56.228143214Z,-0.15,-0.74,0.59,1.91,-2.06,1.91,3.09,1.62,1.62,2.65,2.94,3.82,3.97,6.03,,,,,,,,,,,,,,
1799999996236469609,2027-01-15T07:59:56.236469609Z,-0.74,-2.79,0.88,1.03,-0.88,1.18,2.79,2.65,1.91,3.09,5.44,3.24,4.71,3.97,,,,,,,,,,,,,,
1799999996244796004,2027-01-15T07:59:56.244796004Z,-2.06,-2.06,-0.15,1.47,2.50,0.44,1.91,3.53,0.88,5.00,4.26,4.41,5.59,5.74,,,,,,,,,,,,,,
1799999996253122399,2027-01-15T07:59:56.253122399Z,-1.47,-1.76,-0.88,2.35,2.35,0.74,0.88,3.68,0.15,4.56,0.88,5.00,5.88,6.32,,,,,,,,,,,,,,
1799999996261448793,2027-01-15T07:59:56.261448793Z,-1.18,-3.97,0.59,1.47,0.88,1.62,1.62,2.94,1.76,2.79,1.91,3.53,5.29,2.94,,,,,,,,,,,,,,
1799999996269775188,2027-01-15T07:59:56.269775188Z,-1.62,-4.56,2.21,-0.15,2.50,1.47,3.82,2.94,2.94,3.09,5.00,1.91,4.26,1.32,,,,,,,,,,,,,,
1799999996278101583,2027-01-15T07:59:56.278101583Z,0.29,-3.38,1.62,-1.62,4.26,0.59,4.26,3.68,1.18,3.53,6.76,2.35,3.68,3.24,,,,,,,,,,,,,,
1799999996286427977,2027-01-15T07:59:56.286427977Z,0.74,-2.06,0.00,-1.76,5.00,-0.29,2.35,3.24,-1.18,2.65,6.76,4.41,3.97,4.26,,,,,,,,,,,,,,
1799999996294754372,2027-01-15T07:59:56.294754372Z,-0.74,-0.59,-1.18,0.88,3.24,-1.18,1.76,2.50,-0.15,3.09,4.71,6.18,3.53,3.97,,,,,,,,,,,,,,
1799999996303080767,2027-01-15T07:59:56.303080767Z,-1.03,-0.15,-0.29,2.50,0.88,-0.59,1.91,2.79,2.35,4.26,2.79,5.59,3.68,4.26,,,,,,,,,,,,,,
1799999996311407161,2027-01-15T07:59:56.311407161Z,-0.44,-1.62,1.76,0.74,1.62,0.74,0.44,2.65,2.21,3.53,4.85,3.53,5.00,4.12,,,,,,,,,,,,,,
1799999996319733556,2027-01-15T07:59:56.319733556Z,-0.29,-1.62,1.76,-0.74,2.21,1.62,0.59,2.21,2.50,4.41,5.29,3.53,5.15,5.29,,,,,,,,,,,,,,
1799999996328059951,2027-01-15T07:59:56.328059951Z,-0.74,-0.88,1.03,-2.65,2.65,2.06,2.21,1.32,3.68,5.59,3.82,5.00,5.74,6.91,,,,,,,,,,,,,,
1799999996336386345,2027-01-15T07:59:56.336386345Z,-1.03,-0.29,1.62,-3.38,3.97,1.76,2.35,1.91,2.50,3.68,6.18,4.26,6.47,6.32,,,,,,,,,,,,,,
1799999996344712740,2027-01-15T07:59:56.344712740Z,-1.32,1.32,1.62,-1.03,5.29,1.03,1.32,3.09,1.18,2.65,6.32,2.65,5.88,5.00,,,,,,,,,,,,,,
1799999996353039135,2027-01-15T07:59:56.353039135Z,-1.47,1.32,1.18,0.15,3.38,0.88,0.29,3.53,1.47,3.24,3.68,2.35,5.15,5.15,,,,,,,,,,,,,,
1799999996361365529,2027-01-15T07:59:56.361365529Z,-1.91,-0.15,0.44,-0.59,0.74,1.32,1.03,2.65,1.62,3.82,2.94,3.82,3.97,5.29,,,,,,,,,,,,,,
1799999996369691924,2027-01-15T07:59:56.369691924Z,-1.03,-0.44,0.44,0.59,0.15,1.03,2.50,1.76,1.91,4.71,2.94,5.29,2.50,4.85,,,,,,,,,,,,,,
1799999996378018319,2027-01-15T07:59:56.378018319Z,0.74,-0.15,0.59,1.03,-1.18,0.15,2.35,1.47,3.53,4.26,1.91,4.56,2.79,5.88,,,,,,,,,,,,,,
1799999996386344713,2027-01-15T07:59:56.386344713Z,0.29,-0.88,-0.74,-0.74,-1.91,0.74,1.76,1.32,4.12,3.68,1.18,2.94,4.71,7.21,,,,,,,,,,,,,,
1799999996394671108,2027-01-15T07:59:56.394671108Z,-2.35,-1.76,-0.59,-0.88,1.18,2.79,2.79,1.76,1.76,4.26,2.21,2.65,5.59,7.06,,,,,,,,,,,,,,
1799999996402997503,2027-01-15T07:59:56.402997503Z,-1.32,-3.24,1.47,1.32,2.65,2.65,4.26,2.94,0.74,4.41,4.26,3.82,4.85,5.44,,,,,,,,,,,,,,
1799999996411323897,2027-01-15T07:59:56.411323897Z,0.74,-3.68,1.03,1.91,0.29,0.00,3.53,3.97,2.65,3.53,6.03,4.26,4.85,4.71,,,,,,,,,,,,,,
1799999996419650292,2027-01-15T07:59:56.419650292Z,0.88,-1.47,-1.76,0.88,1.18,-0.59,2.21,3.38,2.35,3.24,5.59,3.24,5.29,5.44,,,,,,,,,,,,,,
1799999996427976687,2027-01-15T07:59:56.427976687Z,1.91,1.03,-1.47,0.15,4.12,1.47,1.62,2.65,1.62,3.53,3.68,3.09,5.15,5.44,,,,,,,,,,,,,,
1799999996436303081,2027-01-15T07:59:56.436303081Z,-0.29,0.74,-0.59,1.03,3.97,2.06,0.74,1.32,1.62,2.94,3.38,3.09,4.56,5.15,,,,,,,,,,,,,,
1799999996444629476,2027-01-15T07:59:56.444629476Z,-0.88,0.74,-0.88,1.62,2.79,1.91,1.91,0.74,1.47,3.24,3.53,2.65,4.41,5.44,,,,,,,,,,,,,,
1799999996452955871,2027-01-15T07:59:56.452955871Z,-0.29,1.76,-2.06,1.76,1.18,1.03,2.94,0.15,1.62,4.41,1.76,2.50,5.74,5.59,,,,,,,,,,,,,,
1799999996461282265,2027-01-15T07:59:56.461282265Z,-0.74,0.59,-1.18,1.18,1.18,0.00,1.47,2.06,3.82,4.26,2.21,3.38,5.74,4.12,,,,,,,,,,,,,,
1799999996469608660,2027-01-15T07:59:56.469608660Z,-2.50,-0.59,-1.62,1.03,1.91,-0.29,1.91,3.09,2.79,3.53,3.82,4.41,4.12,3.38,,,,,,,,,,,,,,
1799999996477935055,2027-01-15T07:59:56.477935055Z,-1.62,0.00,-0.74,2.35,1.76,0.74,2.50,2.79,2.65,3.09,3.24,5.15,3.53,4.56,,,,,,,,,,,,,,
1799999996486261449,2027-01-15T07:59:56.486261449Z,-1.47,0.44,0.29,2.50,0.59,0.88,0.74,2.21,3.68,3.53,3.24,5.00,3.53,5.00,,,,,,,,,,,,,,
1799999996494587844,2027-01-15T07:59:56.494587844Z,-1.18,-1.18,-0.74,0.44,1.18,-0.15,-1.03,1.32,3.24,4.41,4.56,3.53,3.97,3.82,,,,,,,,,,,,,,
1799999996502914239,2027-01-15T07:59:56.502914239Z,-2.06,-0.74,-1.47,0.44,4.41,0.29,-0.44,0.59,3.53,3.24,3.68,2.35,5.74,3.24,,,,,,,,,,,,,,
1799999996511240633,2027-01-15T07:59:56.511240633Z,-2.79,1.91,-0.74,2.65,5.88,2.06,1.03,0.88,4.12,1.18,2.35,2.94,5.88,4.12,,,,,,,,,,,,,,
1799999996519567028,2027-01-15T07:59:56.519567028Z,-1.91,2.21,0.15,2.35,3.24,3.24,1.47,1.91,3.97,1.03,2.94,3.97,3.68,5.15,,,,,,,,,,,,,,
1799999996527893423,2027-01-15T07:59:56.527893423Z,-0.29,0.74,0.44,0.44,1.76,2.79,1.18,2.65,4.12,2.50,3.82,3.82,4.26,5.88,,,,,,,,,,,,,,
1799999996536219817,2027-01-15T07:59:56.536219817Z,0.00,2.06,0.74,0.15,2.50,1.91,0.74,1.76,3.82,2.79,3.38,3.24,6.18,4.56,,,,,,,,,,,,,,
1799999996544546212,2027-01-15T07:59:56.544546212Z,-0.74,2.94,0.59,1.47,0.59,0.88,0.44,1.18,3.24,2.21,3.82,3.97,5.29,1.91,,,,,,,,,,,,,,
1799999996552872607,2027-01-15T07:59:56.552872607Z,-0.15,1.62,-0.29,2.35,-1.32,-0.15,0.29,2.21,3.38,3.09,5.59,4.41,4.12,1.62,,,,,,,,,,,,,,
1799999996561199001,2027-01-15T07:59:56.561199001Z,0.15,0.74,-0.15,0.59,-0.29,-0.15,-0.29,1.47,3.09,2.21,5.15,2.21,4.56,4.71,,,,,,,,,,,,,,
1799999996569525396,2027-01-15T07:59:56.569525396Z,1.91,0.59,0.59,-0.44,-0.44,0.44,0.59,1.03,3.38,1.91,4.56,3.68,5.00,3.53,,,,,,,,,,,,,,
1799999996577851791,2027-01-15T07:59:56.577851791Z,1.76,1.03,0.44,-0.15,-0.59,1.32,2.35,1.32,4.56,3.24,3.82,5.59,6.03,2.35,,,,,,,,,,,,,,
1799999996586178185,2027-01-15T07:59:56.586178185Z,-0.59,0.59,-1.32,0.59,-0.29,0.59,2.50,1.18,5.44,1.32,4.56,2.50,4.71,6.03,,,,,,,,,,,,,,
1799999996594504580,2027-01-15T07:59:56.594504580Z,-1.03,-1.18,-2.21,0.88,-1.47,0.74,1.47,1.91,5.15,-1.32,4.12,1.62,2.65,6.32,,,,,,,,,,,,,,
1799999996602830975,2027-01-15T07:59:56.602830975Z,0.59,-2.06,-0.59,1.32,-1.47,1.62,2.35,4.12,5.15,0.74,3.82,3.82,2.79,3.53,,,,,,,,,,,,,,
1799999996611157369,2027-01-15T07:59:56.611157369Z,1.18,-0.44,0.88,1.91,0.29,2.50,3.68,3.24,5.59,3.97,4.71,3.53,3.53,1.03,,,,,,,,,,,,,,
1799999996619483764,2027-01-15T07:59:56.619483764Z,0.00,2.06,1.03,2.06,0.88,2.94,2.94,0.44,3.82,3.24,5.00,1.91,3.24,-0.44,,,,,,,,,,,,,,
1799999996627810159,2027-01-15T07:59:56.627810159Z,-0.29,2.65,1.18,2.65,0.00,2.21,1.91,0.44,1.91,1.91,4.12,2.65,3.53,0.88,,,,,,,,,,,,,,
1799999996636136553,2027-01-15T07:59:56.636136553Z,-0.88,1.47,1.76,2.50,0.44,0.74,2.35,2.06,2.79,3.09,3.24,4.85,4.26,3.97,,,,,,,,,,,,,,
1799999996644462948,2027-01-15T07:59:56.644462948Z,-1.03,1.91,0.44,0.88,2.06,1.47,2.35,1.76,3.53,4.26,2.50,6.03,5.00,6.47,,,,,,,,,,,,,,
1799999996652789343,2027-01-15T07:59:56.652789343Z,-2.06,2.50,-1.91,-0.15,1.32,2.50,1.76,3.97,2.35,4.12,2.65,6.18,5.74,6.62,,,,,,,,,,,,,,
1799999996661115737,2027-01-15T07:59:56.661115737Z,-0.74,0.88,-2.35,0.15,-0.88,1.91,1.18,6.47,2.65,3.38,2.94,6.91,5.00,5.74,,,,,,,,,,,,,,
1799999996669442132,2027-01-15T07:59:56.669442132Z,,-0.29,-0.15,-0.15,-1.62,2.50,0.29,4.56,4.26,3.24,3.53,6.32,3.53,4.85,,,,,,,,,,,,,,
1799999996677768527,2027-01-15T07:59:56.677768527Z,0.29,0.15,0.88,0.59,-0.88,3.97,-0.44,2.06,4.26,3.97,4.71,4.85,3.82,4.56,,,,,,,,,,,,,,
1799999996686094921,2027-01-15T07:59:56.686094921Z,0.44,0.88,1.18,2.65,0.29,3.68,0.15,3.24,3.53,4.41,4.41,5.59,3.38,5.29,,,,,,,,,,,,,,
1799999996694421316,2027-01-15T07:59:56.694421316Z,1.91,0.00,1.03,1.32,0.44,2.50,1.76,2.94,3.38,5.15,3.68,5.44,3.09,5.74,,,,,,,,,,,,,,
1799999996702747711,2027-01-15T07:59:56.702747711Z,0.29,-1.47,-0.44,-1.47,-0.15,1.32,3.38,2.50,3.82,5.29,3.09,3.82,4.26,6.18,,,,,,,,,,,,,,
1799999996711074105,2027-01-15T07:59:56.711074105Z,-0.15,-0.74,-0.44,-1.03,0.74,0.74,2.35,3.82,4.12,3.97,4.26,4.12,6.03,6.91,,,,,,,,,,,,,,
1799999996719400500,2027-01-15T07:59:56.719400500Z,-1.76,0.29,0.15,-0.15,1.47,1.03,1.91,2.79,3.24,2.79,4.85,4.71,5.88,7.35,,,,,,,,,,,,,,
1799999996727726895,2027-01-15T07:59:56.727726895Z,-0.29,1.03,-0.15,0.15,-0.88,1.76,2.94,0.59,2.50,2.35,4.12,3.24,5.15,6.32,,,,,,,,,,,,,,
1799999996736053289,2027-01-15T07:59:56.736053289Z,0.00,1.47,-0.88,0.15,-1.18,1.62,3.24,0.00,2.35,1.91,3.38,1.47,4.56,5.00,,,,,,,,,,,,,,
1799999996744379684,2027-01-15T07:59:56.744379684Z,-0.88,0.15,-0.59,-1.03,2.06,1.03,3.68,1.62,1.91,2.94,3.53,2.65,3.53,5.29,,,,,,,,,,,,,,
1799999996752706079,2027-01-15T07:59:56.752706079Z,-0.88,-1.91,1.03,-1.91,2.65,1.76,4.85,2.79,1.62,3.82,4.71,4.71,2.94,5.29,,,,,,,,,,,,,,
1799999996761032473,2027-01-15T07:59:56.761032473Z,-2.79,-1.76,2.50,-1.32,0.15,2.65,4.26,2.35,2.06,3.38,5.29,4.71,3.97,4.41,,,,,,,,,,,,,,
1799999996769358868,2027-01-15T07:59:56.769358868Z,-1.03,-0.44,1.76,-1.03,-1.03,2.06,3.38,2.21,2.35,3.09,4.71,3.82,5.74,5.44,,,,,,,,,,,,,,
1799999996777685263,2027-01-15T07:59:56.777685263Z,0.29,-1.03,0.29,-0.44,-1.18,1.76,3.82,2.35,2.21,3.38,4.26,4.71,6.76,7.35,,,,,,,,,,,,,,
1799999996786011657,2027-01-15T07:59:56.786011657Z,-0.15,-2.06,0.29,1.18,-1.03,3.38,2.65,2.06,2.65,3.24,3.97,6.76,6.32,6.62,,,,,,,,,,,,,,
1799999996794338052,2027-01-15T07:59:56.794338052Z,-1.47,-1.91,1.03,1.91,1.32,3.68,0.15,1.62,3.53,3.82,2.79,6.91,5.59,5.74,,,,,,,,,,,,,,
1799999996802664447,2027-01-15T07:59:56.802664447Z,0.29,-1.76,1.18,0.74,2.65,2.06,-1.03,0.88,4.41,5.15,2.21,5.59,4.71,7.50,,,,,,,,,,,,,,
1799999996810990841,2027-01-15T07:59:56.810990841Z,0.44,-1.18,1.47,-0.74,0.44,1.62,0.88,1.18,3.97,5.00,4.26,5.00,3.53,5.44,,,,,,,,,,,,,,
1799999996819317236,2027-01-15T07:59:56.819317236Z,-1.47,-0.44,0.59,-1.18,-0.15,0.59,2.21,1.47,3.38,4.56,5.00,4.56,3.97,4.41,,,,,,,,,,,,,,
1799999996827643631,2027-01-15T07:59:56.827643631Z,-0.88,-0.74,-0.59,-0.74,0.44,0.15,1.47,2.06,2.21,4.12,3.38,3.97,5.59,7.06,,,,,,,,,,,,,,
1799999996835970025,2027-01-15T07:59:56.835970025Z,-1.18,-2.65,0.59,1.32,2.35,1.62,2.50,1.18,0.29,3.09,3.38,3.68,5.88,6.32,,,,,,,,,,,,,,
1799999996844296420,2027-01-15T07:59:56.844296420Z,-1.62,-3.82,1.18,2.21,5.74,0.88,4.12,0.44,-0.74,2.50,3.53,2.94,5.00,5.00,,,,,,,,,,,,,,
1799999996852622815,2027-01-15T07:59:56.852622815Z,0.29,-2.65,-0.44,1.47,5.15,-0.15,3.82,1.62,1.03,2.79,2.65,3.53,3.97,5.74,,,,,,,,,,,,,,
1799999996860949209,2027-01-15T07:59:56.860949209Z,0.44,-2.21,-0.59,0.44,3.09,1.03,2.50,3.82,3.82,1.76,3.24,4.56,4.12,5.15,,,,,,,,,,,,,,
1799999996869275604,2027-01-15T07:59:56.869275604Z,-1.32,-2.06,1.47,-0.88,3.97,1.47,1.62,4.26,4.56,-0.15,4.71,5.00,5.00,3.97,,,,,,,,,,,,,,
1799999996877601999,2027-01-15T07:59:56.877601999Z,0.00,-0.29,1.62,-1.62,3.24,0.59,1.76,2.50,2.50,-0.88,4.85,5.00,5.15,4.41,,,,,,,,,,,,,,
1799999996885928394,2027-01-15T07:59:56.885928394Z,0.15,1.03,0.44,-1.18,0.88,1.62,2.50,2.06,2.65,0.44,3.38,3.38,5.88,5.29,,,,,,,,,,,,,,
1799999996894254788,2027-01-15T07:59:56.894254788Z,-2.06,-0.15,0.59,-1.18,0.15,2.79,2.06,3.82,4.12,2.79,2.65,2.50,6.76,5.44,,,,,,,,,,,,,,
1799999996902581183,2027-01-15T07:59:56.902581183Z,-3.38,-1.76,0.29,-0.15,0.74,1.76,1.47,3.82,2.35,4.56,3.24,4.26,5.44,4.26,,,,,,,,,,,,,,
1799999996910907578,2027-01-15T07:59:56.910907578Z,1.32,-1.32,-0.74,1.47,1.62,0.29,2.21,2.21,-0.15,4.26,2.94,4.56,3.82,3.09,,,,,,,,,,,,,,
1799999996919233972,2027-01-15T07:59:56.919233972Z,-0.15,0.74,-0.59,1.76,1.32,0.88,2.94,1.76,0.88,2.79,1.47,2.35,3.38,3.24,,,,,,,,,,,,,,
1799999996927560367,2027-01-15T07:59:56.927560367Z,-0.59,0.88,0.29,1.32,-0.88,0.74,1.62,2.06,3.68,2.35,2.35,3.38,3.68,3.24,,,,,,,,,,,,,,
1799999996935886762,2027-01-15T07:59:56.935886762Z,-0.88,0.88,-0.15,1.62,0.15,0.00,-0.15,2.21,3.97,3.09,3.38,5.74,3.38,5.00,,,,,,,,,,,,,,
1799999996944213156,2027-01-15T07:59:56.944213156Z,0.29,0.88,-0.44,1.18,1.47,0.29,-0.88,2.06,3.24,2.94,3.38,4.12,3.82,5.59,,,,,,,,,,,,,,
1799999996952539551,2027-01-15T07:59:56.952539551Z,-1.62,-1.47,1.18,1.03,0.59,0.74,-0.44,2.06,1.91,2.50,3.38,1.18,4.85,5.44,,,,,,,,,,,,,,
1799999996960865946,2027-01-15T07:59:56.960865946Z,-1.47,-1.47,1.32,2.06,2.21,0.00,1.76,2.65,1.47,1.91,4.12,2.94,4.41,5.74,,,,,,,,,,,,,,
1799999996969192340,2027-01-15T07:59:56.969192340Z,2.35,1.32,-0.44,2.79,3.38,0.74,1.03,2.06,2.06,2.21,3.53,4.41,3.53,6.32,,,,,,,,,,,,,,
1799999996977518735,2027-01-15T07:59:56.977518735Z,-0.15,1.62,-0.15,2.35,0.88,1.32,-0.29,2.06,2.94,3.53,3.09,5.15,3.24,6.03,,,,,,,,,,,,,,
1799999996985845130,2027-01-15T07:59:56.985845130Z,-0.59,0.15,0.74,1.32,-1.03,1.03,1.32,3.82,3.38,3.97,3.38,5.88,3.09,6.91,,,,,,,,,,,,,,
1799999996994171524,2027-01-15T07:59:56.994171524Z,-0.59,-0.74,-0.59,0.59,0.44,1.03,2.79,4.12,2.94,3.53,4.12,5.29,2.50,7.94,,,,,,,,,,,,,,
1799999997002497919,2027-01-15T07:59:57.002497919Z,0.29,-1.03,-2.21,0.88,1.62,1.47,2.06,2.06,2.50,4.41,3.97,3.97,1.62,7.50,,,,,,,,,,,,,,
1799999997010824314,2027-01-15T07:59:57.010824314Z,0.15,-0.29,-1.32,0.44,0.00,2.79,1.76,1.47,3.24,4.85,1.76,2.79,1.91,6.91,,,,,,,,,,,,,,
1799999997019150708,2027-01-15T07:59:57.019150708Z,-1.32,-0.74,0.59,0.74,0.88,3.68,2.35,2.35,4.41,3.97,0.44,2.65,3.09,6.18,,,,,,,,,,,,,,
1799999997027477103,2027-01-15T07:59:57.027477103Z,-0.29,-1.62,1.62,2.21,3.82,2.35,1.47,2.35,4.56,3.82,1.76,3.24,4.12,4.56,,,,,,,,,,,,,,
1799999997035803498,2027-01-15T07:59:57.035803498Z,-0.59,-1.18,1.47,1.91,3.68,0.74,0.00,2.79,3.68,3.68,2.35,2.79,5.00,3.38,,,,,,,,,,,,,,
1799999997044129892,2027-01-15T07:59:57.044129892Z,-2.06,-0.59,1.18,0.15,2.50,0.44,-0.44,3.53,2.65,2.35,2.06,2.35,5.44,4.26,,,,,,,,,,,,,,
1799999997052456287,2027-01-15T07:59:57.052456287Z,1.18,-0.15,2.06,1.03,2.65,0.74,0.44,2.79,2.94,2.35,3.38,3.68,4.56,5.15,,,,,,,,,,,,,,
1799999997060782682,2027-01-15T07:59:57.060782682Z,-0.59,-0.15,1.91,0.74,0.29,0.44,2.65,2.50,3.68,3.38,3.82,4.56,4.12,3.38,,,,,,,,,,,,,,
1799999997069109076,2027-01-15T07:59:57.069109076Z,-0.29,-0.15,0.74,0.44,-1.47,-0.15,3.68,2.79,3.09,3.38,3.53,6.32,4.26,3.82,,,,,,,,,,,,,,
1799999997077435471,2027-01-15T07:59:57.077435471Z,1.18,0.00,-1.03,2.06,-0.74,-0.74,3.09,4.26,2.06,3.82,3.38,7.79,5.15,5.15,,,,,,,,,,,,,,
1799999997085761866,2027-01-15T07:59:57.085761866Z,1.76,-0.15,0.15,0.44,-0.29,0.00,1.76,4.71,2.79,3.24,4.56,5.74,5.88,3.53,,,,,,,,,,,,,,
1799999997094088260,2027-01-15T07:59:57.094088260Z,1.47,-1.18,-0.74,-1.62,1.32,0.74,2.35,3.53,2.50,1.32,5.00,3.53,6.76,3.24,,,,,,,,,,,,,,
1799999997102414655,2027-01-15T07:59:57.102414655Z,1.18,-1.91,-1.76,-0.74,2.94,0.29,3.53,2.35,1.47,0.74,3.68,3.09,6.18,5.29,,,,,,,,,,,,,,
1799999997110741050,2027-01-15T07:59:57.110741050Z,1.91,-1.18,-1.47,-0.29,1.76,-0.59,2.65,3.24,0.00,1.62,2.50,3.38,4.85,5.15,,,,,,,,,,,,,,
1799999997119067444,2027-01-15T07:59:57.119067444Z,0.74,0.44,-2.06,-1.32,-0.74,0.00,0.88,3.53,-0.15,2.50,2.65,4.12,4.12,3.09,,,,,,,,,,,,,,
1799999997127393839,2027-01-15T07:59:57.127393839Z,0.15,1.76,-2.65,0.00,-1.91,1.76,1.91,1.91,1.62,3.53,3.68,4.85,3.97,3.38,,,,,,,,,,,,,,
1799999997135720234,2027-01-15T07:59:57.135720234Z,-3.82,0.29,-1.18,1.91,-1.76,3.24,3.68,1.76,2.79,4.26,4.41,5.00,3.38,5.59,,,,,,,,,,,,,,
1799999997144046628,2027-01-15T07:59:57.144046628Z,-1.76,-2.65,0.59,2.94,-1.47,3.68,2.79,4.41,2.06,3.97,3.38,6.32,3.09,5.44,,,,,,,,,,,,,,
1799999997152373023,2027-01-15T07:59:57.152373023Z,-0.29,-1.62,0.29,2.50,0.00,3.82,1.47,6.18,2.65,3.09,1.03,7.65,3.82,3.38,,,,,,,,,,,,,,
1799999997160699418,2027-01-15T07:59:57.160699418Z,-0.44,1.62,-1.03,0.88,1.91,3.38,1.76,4.26,2.65,2.35,0.59,6.32,4.56,3.68,,,,,,,,,,,,,,
1799999997169025812,2027-01-15T07:59:57.169025812Z,-1.62,1.32,-0.74,0.00,2.94,1.76,2.06,1.18,1.47,2.50,3.09,3.97,5.29,5.15,,,,,,,,,,,,,,
1799999997177352207,2027-01-15T07:59:57.177352207Z,-1.32,-1.32,-0.59,2.06,2.06,0.15,2.35,0.15,1.76,3.38,5.00,3.82,5.88,5.00,,,,,,,,,,,,,,
1799999997185678602,2027-01-15T07:59:57.185678602Z,-1.62,-0.44,-2.21,1.32,-0.15,0.29,3.82,1.62,2.35,3.24,5.29,5.00,5.44,5.74,,,,,,,,,,,,,,
1799999997194004996,2027-01-15T07:59:57.194004996Z,-1.76,0.74,-1.47,0.88,-1.47,0.74,3.09,2.35,2.35,3.24,5.29,4.41,4.71,6.03,,,,,,,,,,,,,,
1799999997202331391,2027-01-15T07:59:57.202331391Z,0.29,-0.29,-0.59,1.62,-2.35,0.15,2.06,1.62,1.76,3.68,3.38,3.53,3.82,4.71,,,,,,,,,,,,,,
1799999997210657786,2027-01-15T07:59:57.210657786Z,0.29,0.44,-2.65,1.47,-0.15,0.44,3.68,1.62,1.03,2.94,1.03,4.12,3.68,4.85,,,,,,,,,,,,,,
1799999997218984180,2027-01-15T07:59:57.218984180Z,0.44,1.18,-2.06,0.00,2.65,2.79,3.68,3.09,1.91,2.79,1.18,2.79,3.38,5.59,,,,,,,,,,,,,,
1799999997227310575,2027-01-15T07:59:57.227310575Z,0.29,1.03,0.29,-0.88,3.24,3.24,3.09,3.24,3.53,3.24,2.94,1.03,3.24,5.29,,,,,,,,,,,,,,
1799999997235636970,2027-01-15T07:59:57.235636970Z,-1.18,1.47,-0.15,-1.76,0.29,0.74,3.24,1.62,4.26,3.38,3.24,2.06,4.71,5.88,,,,,,,,,,,,,,
1799999997243963364,2027-01-15T07:59:57.243963364Z,-1.76,1.91,-1.62,-1.47,-1.62,0.15,3.09,0.88,5.00,3.24,2.65,3.82,5.88,5.74,,,,,,,,,,,,,,
1799999997252289759,2027-01-15T07:59:57.252289759Z,1.03,1.47,-0.59,0.15,-0.88,1.47,1.62,1.47,3.24,3.38,3.53,2.94,5.29,3.97,,,,,,,,,,,,,,
